* Measurement data measured by REW V5.31
* Source: EXCL: Microphone (USB Sound Device        ), MICROPHONE (Master Volume), R, volume: 0.390
* Format: 256k Log Swept Sine, 1 sweep at -15.0 dBFS with no timing reference
* Dated: Dec 31, 2024 7:04:22 PM
* REW Settings:
*  C-weighting compensation: Off
*  Target level: 75.0 dB
* Note: L Timeless 2 Gold Flower
* Measurement: L Timeless 2 Gold Flower
* Smoothing: 1/12 octave
* Frequency Step: 96 ppo
* Start Frequency: 0.36621094 Hz
*
* Freq(Hz) SPL(dB) Phase(degrees)
0.366211 94.955 157.0235
0.368865 94.948 156.9999
0.371538 94.937 156.9645
0.374230 94.924 156.9199
0.376942 94.909 156.8685
0.379673 94.893 156.8120
0.382424 94.876 156.7513
0.385196 94.858 156.6873
0.387987 94.841 156.6202
0.390798 94.823 156.5502
0.393630 94.805 156.4776
0.396483 94.786 156.4023
0.399356 94.768 156.3242
0.402250 94.750 156.2435
0.405165 94.731 156.1601
0.408101 94.712 156.0739
0.411058 94.693 155.9849
0.414037 94.674 155.8932
0.417037 94.655 155.7986
0.420059 94.635 155.7011
0.423103 94.616 155.6008
0.426169 94.596 155.4975
0.429257 94.577 155.3914
0.432368 94.557 155.2822
0.435501 94.537 155.1701
0.438656 94.516 155.0549
0.441835 94.496 154.9367
0.445037 94.476 154.8154
0.448262 94.455 154.6910
0.451510 94.434 154.5635
0.454782 94.413 154.4328
0.458077 94.392 154.2990
0.461397 94.371 154.1620
0.464740 94.349 154.0217
0.468108 94.328 153.8782
0.471500 94.306 153.7314
0.474917 94.284 153.5814
0.478358 94.262 153.4281
0.481825 94.240 153.2714
0.485316 94.218 153.1114
0.488833 94.195 152.9480
0.492375 94.172 152.7813
0.495943 94.150 152.6112
0.499537 94.127 152.4377
0.503157 94.103 152.2608
0.506803 94.080 152.0805
0.510475 94.057 151.8968
0.514175 94.033 151.7097
0.517900 94.009 151.5191
0.521653 93.985 151.3251
0.525434 93.961 151.1277
0.529241 93.936 150.9268
0.533076 93.912 150.7225
0.536939 93.887 150.5148
0.540830 93.862 150.3038
0.544749 93.837 150.0893
0.548696 93.812 149.8715
0.552673 93.786 149.6503
0.556677 93.761 149.4258
0.560711 93.735 149.1980
0.564774 93.709 148.9669
0.568867 93.683 148.7326
0.572989 93.656 148.4951
0.577141 93.630 148.2545
0.581324 93.603 148.0108
0.585536 93.576 147.7640
0.589779 93.549 147.5142
0.594053 93.521 147.2614
0.598358 93.494 147.0058
0.602694 93.466 146.7475
0.607061 93.438 146.4864
0.611460 93.410 146.2226
0.615891 93.382 145.9564
0.620354 93.353 145.6877
0.624849 93.324 145.4166
0.629377 93.295 145.1434
0.633938 93.266 144.8680
0.638532 93.237 144.5907
0.643159 93.207 144.3115
0.647819 93.177 144.0306
0.652514 93.147 143.7482
0.657242 93.117 143.4645
0.662005 93.086 143.1795
0.666802 93.056 142.8935
0.671634 93.025 142.6067
0.676501 92.993 142.3193
0.681403 92.962 142.0315
0.686341 92.930 141.7436
0.691314 92.898 141.4556
0.696324 92.866 141.1680
0.701370 92.834 140.8808
0.706452 92.800 140.5943
0.711571 92.767 140.3085
0.716728 92.732 140.0234
0.721921 92.695 139.7387
0.727153 92.656 139.4538
0.732422 92.615 139.1678
0.737729 92.570 138.8795
0.743075 92.522 138.5878
0.748460 92.472 138.2913
0.753883 92.420 137.9893
0.759346 92.367 137.6811
0.764849 92.313 137.3662
0.770391 92.258 137.0444
0.775974 92.202 136.7154
0.781597 92.145 136.3790
0.787261 92.088 136.0350
0.792966 92.030 135.6833
0.798712 91.972 135.3238
0.804500 91.913 134.9563
0.810329 91.853 134.5807
0.816201 91.792 134.1968
0.822116 91.730 133.8046
0.828073 91.667 133.4039
0.834074 91.603 132.9946
0.840118 91.539 132.5766
0.846206 91.473 132.1498
0.852338 91.406 131.7140
0.858514 91.338 131.2693
0.864735 91.268 130.8153
0.871001 91.197 130.3522
0.877313 91.125 129.8798
0.883670 91.051 129.3981
0.890074 90.976 128.9069
0.896524 90.900 128.4063
0.903020 90.821 127.8962
0.909564 90.741 127.3765
0.916155 90.659 126.8474
0.922794 90.575 126.3089
0.929481 90.489 125.7609
0.936216 90.401 125.2035
0.943000 90.311 124.6368
0.949834 90.218 124.0610
0.956717 90.123 123.4761
0.963649 90.026 122.8824
0.970632 89.926 122.2801
0.977666 89.824 121.6693
0.984750 89.718 121.0505
0.991886 89.610 120.4239
0.999074 89.499 119.7899
1.006314 89.385 119.1490
1.013606 89.267 118.5016
1.020951 89.146 117.8483
1.028349 89.022 117.1897
1.035801 88.893 116.5264
1.043307 88.761 115.8592
1.050867 88.626 115.1888
1.058482 88.485 114.5159
1.066152 88.341 113.8413
1.073878 88.191 113.1656
1.081660 88.036 112.4891
1.089498 87.875 111.8116
1.097393 87.707 111.1324
1.105345 87.530 110.4502
1.113355 87.343 109.7631
1.121423 87.146 109.0690
1.129549 86.938 108.3660
1.137734 86.718 107.6522
1.145979 86.486 106.9257
1.154283 86.244 106.1847
1.162647 85.990 105.4273
1.171072 85.726 104.6515
1.179558 85.452 103.8551
1.188106 85.168 103.0359
1.196715 84.876 102.1914
1.205387 84.576 101.3187
1.214122 84.269 100.4149
1.222920 83.955 99.4764
1.231782 83.636 98.4996
1.240708 83.312 97.4802
1.249699 82.985 96.4135
1.258754 82.654 95.2944
1.267876 82.321 94.1169
1.277063 81.988 92.8746
1.286318 81.655 91.5600
1.295639 81.324 90.1649
1.305027 80.995 88.6800
1.314484 80.671 87.0950
1.324009 80.352 85.3982
1.333604 80.039 83.5768
1.343268 79.736 81.6162
1.353002 79.442 79.5007
1.362806 79.159 77.2131
1.372681 78.890 74.7348
1.382628 78.637 72.0464
1.392647 78.400 69.1283
1.402739 78.183 65.9613
1.412904 77.986 62.5279
1.423142 77.813 58.8140
1.433455 77.666 54.8100
1.443843 77.545 50.5128
1.454305 77.454 45.9259
1.464844 77.392 41.0608
1.475459 77.361 35.9370
1.486150 77.361 30.5852
1.496920 77.392 25.0499
1.507767 77.453 19.3907
1.518693 77.542 13.6800
1.529698 77.660 7.9973
1.540783 77.804 2.4211
1.551948 77.973 -2.9776
1.563194 78.166 -8.1414
1.574521 78.381 -13.0299
1.585931 78.617 -17.6190
1.597423 78.872 -21.8995
1.608999 79.144 -25.8738
1.620658 79.432 -29.5531
1.632402 79.733 -32.9538
1.644232 80.045 -36.0954
1.656146 80.367 -38.9988
1.668147 80.696 -41.6848
1.680235 81.031 -44.1733
1.692411 81.368 -46.4833
1.704675 81.707 -48.6319
1.717028 82.043 -50.6349
1.729470 82.376 -52.5066
1.742003 82.703 -54.2599
1.754626 83.021 -55.9066
1.767341 83.329 -57.4574
1.780147 83.624 -58.9225
1.793047 83.906 -60.3121
1.806040 84.174 -61.6363
1.819128 84.428 -62.9056
1.832310 84.670 -64.1309
1.845587 84.902 -65.3227
1.858961 85.127 -66.4900
1.872432 85.346 -67.6391
1.886001 85.561 -68.7739
1.899667 85.773 -69.8963
1.913433 85.982 -71.0067
1.927299 86.189 -72.1049
1.941265 86.393 -73.1899
1.955332 86.595 -74.2607
1.969501 86.794 -75.3161
1.983773 86.991 -76.3547
1.998148 87.184 -77.3753
2.012627 87.375 -78.3766
2.027212 87.563 -79.3574
2.041902 87.747 -80.3166
2.056698 87.928 -81.2529
2.071602 88.106 -82.1654
2.086614 88.280 -83.0531
2.101734 88.450 -83.9151
2.116964 88.616 -84.7511
2.132304 88.777 -85.5609
2.147756 88.934 -86.3451
2.163320 89.086 -87.1052
2.178996 89.234 -87.8440
2.194786 89.375 -88.5657
2.210690 89.511 -89.2753
2.226710 89.641 -89.9781
2.242845 89.764 -90.6781
2.259098 89.881 -91.3781
2.275468 89.992 -92.0791
2.291957 90.097 -92.7815
2.308566 90.196 -93.4844
2.325295 90.290 -94.1869
2.342145 90.378 -94.8873
2.359117 90.462 -95.5841
2.376212 90.541 -96.2754
2.393431 90.616 -96.9592
2.410775 90.688 -97.6336
2.428244 90.756 -98.2964
2.445840 90.821 -98.9455
2.463564 90.884 -99.5790
2.481416 90.945 -100.1950
2.499397 91.004 -100.7918
2.517509 91.062 -101.3687
2.535752 91.118 -101.9254
2.554127 91.172 -102.4629
2.572635 91.225 -102.9835
2.591277 91.274 -103.4899
2.610055 91.320 -103.9850
2.628968 91.363 -104.4710
2.648019 91.402 -104.9492
2.667208 91.438 -105.4202
2.686535 91.470 -105.8843
2.706003 91.499 -106.3411
2.725612 91.525 -106.7899
2.745363 91.549 -107.2298
2.765257 91.570 -107.6598
2.785295 91.589 -108.0785
2.805478 91.607 -108.4846
2.825808 91.623 -108.8766
2.846285 91.639 -109.2529
2.866910 91.654 -109.6120
2.887685 91.668 -109.9525
2.908611 91.682 -110.2733
2.929688 91.695 -110.5738
2.950917 91.708 -110.8538
2.972301 91.719 -111.1136
2.993839 91.728 -111.3540
3.015534 91.736 -111.5757
3.037386 91.742 -111.7798
3.059396 91.747 -111.9672
3.081565 91.750 -112.1388
3.103896 91.753 -112.2958
3.126388 91.756 -112.4390
3.149043 91.759 -112.5693
3.171862 91.762 -112.6875
3.194847 91.766 -112.7943
3.217998 91.772 -112.8901
3.241317 91.779 -112.9748
3.264805 91.789 -113.0480
3.288463 91.800 -113.1084
3.312293 91.813 -113.1547
3.336295 91.828 -113.1854
3.360471 91.845 -113.1998
3.384822 91.863 -113.1984
3.409350 91.882 -113.1826
3.434056 91.904 -113.1548
3.458940 91.926 -113.1177
3.484005 91.950 -113.0745
3.509252 91.976 -113.0288
3.534681 92.004 -112.9839
3.560295 92.033 -112.9432
3.586094 92.065 -112.9093
3.612081 92.098 -112.8846
3.638255 92.134 -112.8700
3.664620 92.172 -112.8654
3.691175 92.213 -112.8699
3.717923 92.256 -112.8823
3.744864 92.302 -112.9019
3.772001 92.350 -112.9286
3.799335 92.400 -112.9635
3.826866 92.452 -113.0078
3.854597 92.506 -113.0634
3.882529 92.560 -113.1323
3.910664 92.614 -113.2166
3.939002 92.669 -113.3184
3.967546 92.724 -113.4394
3.996296 92.779 -113.5812
4.025255 92.833 -113.7446
4.054423 92.887 -113.9298
4.083804 92.941 -114.1365
4.113396 92.994 -114.3639
4.143204 93.048 -114.6107
4.173227 93.101 -114.8759
4.203468 93.154 -115.1581
4.233928 93.205 -115.4562
4.264609 93.256 -115.7694
4.295512 93.304 -116.0970
4.326639 93.350 -116.4388
4.357992 93.394 -116.7951
4.389572 93.435 -117.1666
4.421380 93.473 -117.5545
4.453419 93.509 -117.9593
4.485691 93.542 -118.3809
4.518196 93.573 -118.8178
4.550936 93.600 -119.2679
4.583914 93.626 -119.7285
4.617131 93.648 -120.1965
4.650589 93.668 -120.6691
4.684289 93.685 -121.1438
4.718233 93.699 -121.6191
4.752424 93.709 -122.0946
4.786862 93.717 -122.5707
4.821549 93.721 -123.0483
4.856488 93.721 -123.5278
4.891680 93.719 -124.0086
4.927127 93.714 -124.4892
4.962831 93.706 -124.9670
4.998794 93.695 -125.4395
5.035017 93.682 -125.9036
5.071503 93.668 -126.3569
5.108253 93.651 -126.7975
5.145270 93.633 -127.2244
5.182555 93.612 -127.6375
5.220110 93.590 -128.0373
5.257937 93.566 -128.4241
5.296038 93.540 -128.7981
5.334415 93.514 -129.1591
5.373071 93.488 -129.5066
5.412006 93.461 -129.8397
5.451224 93.436 -130.1575
5.490725 93.411 -130.4590
5.530514 93.387 -130.7433
5.570590 93.365 -131.0104
5.610957 93.343 -131.2614
5.651616 93.323 -131.4979
5.692570 93.305 -131.7227
5.733821 93.289 -131.9382
5.775370 93.276 -132.1471
5.817221 93.265 -132.3510
5.859375 93.258 -132.5512
5.901834 93.254 -132.7479
5.944602 93.253 -132.9418
5.987679 93.256 -133.1342
6.031068 93.262 -133.3276
6.074771 93.271 -133.5252
6.118792 93.283 -133.7303
6.163131 93.298 -133.9464
6.207792 93.316 -134.1756
6.252776 93.336 -134.4196
6.298086 93.358 -134.6786
6.343725 93.384 -134.9530
6.389694 93.411 -135.2429
6.435996 93.440 -135.5489
6.482634 93.470 -135.8718
6.529610 93.501 -136.2125
6.576926 93.532 -136.5719
6.624585 93.563 -136.9502
6.672590 93.594 -137.3472
6.720942 93.624 -137.7616
6.769645 93.655 -138.1915
6.818700 93.684 -138.6346
6.868111 93.712 -139.0888
6.917881 93.739 -139.5524
6.968010 93.764 -140.0241
7.018504 93.787 -140.5030
7.069362 93.809 -140.9878
7.120590 93.828 -141.4765
7.172189 93.846 -141.9660
7.224161 93.862 -142.4533
7.276511 93.877 -142.9354
7.329239 93.890 -143.4102
7.382350 93.901 -143.8763
7.435845 93.911 -144.3326
7.489729 93.919 -144.7781
7.544002 93.927 -145.2111
7.598669 93.934 -145.6300
7.653732 93.941 -146.0331
7.709194 93.948 -146.4192
7.765058 93.956 -146.7879
7.821327 93.964 -147.1392
7.878004 93.972 -147.4738
7.935091 93.982 -147.7926
7.992592 93.994 -148.0965
8.050510 94.007 -148.3863
8.108847 94.022 -148.6626
8.167607 94.040 -148.9266
8.226793 94.059 -149.1800
8.286408 94.081 -149.4250
8.346454 94.105 -149.6639
8.406936 94.131 -149.8988
8.467856 94.160 -150.1314
8.529218 94.190 -150.3628
8.591024 94.222 -150.5943
8.653278 94.255 -150.8273
8.715983 94.290 -151.0631
8.779143 94.326 -151.3030
8.842760 94.362 -151.5477
8.906839 94.398 -151.7972
8.971381 94.434 -152.0513
9.036392 94.470 -152.3093
9.101873 94.506 -152.5709
9.167829 94.540 -152.8352
9.234263 94.574 -153.1016
9.301178 94.606 -153.3689
9.368578 94.636 -153.6358
9.436467 94.665 -153.9006
9.504847 94.692 -154.1619
9.573723 94.718 -154.4183
9.643099 94.741 -154.6689
9.712976 94.762 -154.9127
9.783361 94.780 -155.1486
9.854255 94.794 -155.3757
9.925663 94.806 -155.5934
9.997588 94.814 -155.8014
10.070035 94.819 -155.9998
10.143007 94.821 -156.1888
10.216507 94.821 -156.3690
10.290540 94.819 -156.5407
10.365109 94.816 -156.7047
10.440219 94.812 -156.8618
10.515873 94.806 -157.0134
10.592076 94.800 -157.1604
10.668830 94.793 -157.3040
10.746141 94.786 -157.4451
10.824012 94.778 -157.5847
10.902447 94.770 -157.7235
10.981451 94.761 -157.8625
11.061027 94.752 -158.0022
11.141180 94.742 -158.1431
11.221913 94.730 -158.2854
11.303232 94.718 -158.4294
11.385140 94.704 -158.5751
11.467641 94.690 -158.7227
11.550741 94.674 -158.8721
11.634442 94.658 -159.0234
11.718750 94.641 -159.1765
11.803669 94.623 -159.3317
11.889203 94.604 -159.4890
11.975357 94.585 -159.6489
12.062136 94.565 -159.8115
12.149543 94.545 -159.9775
12.237583 94.524 -160.1473
12.326262 94.503 -160.3214
12.415583 94.481 -160.5004
12.505552 94.458 -160.6849
12.596172 94.434 -160.8753
12.687449 94.410 -161.0721
12.779387 94.385 -161.2753
12.871992 94.359 -161.4852
12.965268 94.332 -161.7018
13.059220 94.305 -161.9249
13.153852 94.277 -162.1541
13.249170 94.248 -162.3892
13.345179 94.220 -162.6297
13.441884 94.191 -162.8754
13.539289 94.162 -163.1257
13.637401 94.133 -163.3806
13.736223 94.104 -163.6400
13.835761 94.076 -163.9040
13.936021 94.049 -164.1729
14.037007 94.022 -164.4472
14.138725 93.996 -164.7273
14.241180 93.970 -165.0142
14.344377 93.946 -165.3085
14.448323 93.923 -165.6110
14.553021 93.901 -165.9220
14.658478 93.880 -166.2422
14.764700 93.860 -166.5714
14.871691 93.841 -166.9094
14.979457 93.823 -167.2557
15.088005 93.806 -167.6093
15.197339 93.790 -167.9690
15.307465 93.774 -168.3332
15.418389 93.758 -168.7001
15.530117 93.744 -169.0681
15.642655 93.729 -169.4354
15.756008 93.716 -169.8004
15.870182 93.703 -170.1615
15.985184 93.692 -170.5179
16.101019 93.681 -170.8685
16.217694 93.672 -171.2131
16.335214 93.665 -171.5515
16.453586 93.659 -171.8838
16.572815 93.655 -172.2103
16.692909 93.652 -172.5314
16.813872 93.652 -172.8475
16.935713 93.652 -173.1587
17.058436 93.654 -173.4651
17.182048 93.657 -173.7664
17.306556 93.661 -174.0621
17.431967 93.665 -174.3517
17.558286 93.669 -174.6343
17.685521 93.673 -174.9090
17.813677 93.676 -175.1748
17.942762 93.680 -175.4311
18.072783 93.683 -175.6774
18.203746 93.685 -175.9132
18.335658 93.687 -176.1386
18.468526 93.688 -176.3540
18.602356 93.690 -176.5596
18.737156 93.690 -176.7564
18.872934 93.691 -176.9451
19.009695 93.690 -177.1266
19.147447 93.690 -177.3018
19.286197 93.688 -177.4714
19.425953 93.685 -177.6364
19.566721 93.682 -177.7973
19.708510 93.677 -177.9551
19.851326 93.670 -178.1103
19.995177 93.663 -178.2638
20.140070 93.654 -178.4164
20.286013 93.643 -178.5690
20.433014 93.631 -178.7226
20.581080 93.618 -178.8780
20.730219 93.603 -179.0360
20.880439 93.587 -179.1974
21.031747 93.570 -179.3626
21.184152 93.551 -179.5321
21.337661 93.532 -179.7061
21.492282 93.511 -179.8849
21.648024 93.490 179.9314
21.804895 93.468 179.7423
21.962902 93.446 179.5475
22.122054 93.423 179.3462
22.282360 93.401 179.1375
22.443827 93.378 178.9205
22.606464 93.356 178.6942
22.770280 93.334 178.4580
22.935283 93.312 178.2114
23.101481 93.291 177.9545
23.268884 93.270 177.6880
23.437500 93.249 177.4133
23.607338 93.228 177.1318
23.778406 93.207 176.8457
23.950714 93.186 176.5569
24.124271 93.166 176.2676
24.299086 93.147 175.9793
24.475167 93.128 175.6931
24.652524 93.112 175.4097
24.831166 93.096 175.1294
25.011103 93.082 174.8519
25.192344 93.070 174.5771
25.374898 93.059 174.3047
25.558775 93.050 174.0348
25.743984 93.041 173.7679
25.930536 93.032 173.5050
26.118439 93.024 173.2474
26.307704 93.016 172.9968
26.498341 93.008 172.7548
26.690359 92.999 172.5231
26.883768 92.989 172.3027
27.078579 92.980 172.0940
27.274801 92.970 171.8969
27.472446 92.959 171.7102
27.671522 92.949 171.5325
27.872042 92.937 171.3619
28.074014 92.926 171.1966
28.277450 92.913 171.0350
28.482360 92.899 170.8761
28.688755 92.883 170.7194
28.896645 92.866 170.5651
29.106042 92.847 170.4134
29.316957 92.827 170.2646
29.529400 92.806 170.1183
29.743382 92.784 169.9735
29.958915 92.761 169.8287
30.176009 92.739 169.6813
30.394677 92.716 169.5290
30.614929 92.694 169.3696
30.836778 92.671 169.2017
31.060234 92.649 169.0247
31.285309 92.626 168.8388
31.512015 92.603 168.6447
31.740364 92.581 168.4428
31.970368 92.559 168.2336
32.202039 92.537 168.0167
32.435388 92.517 167.7913
32.670428 92.497 167.5569
32.907171 92.477 167.3134
33.145630 92.458 167.0621
33.385817 92.438 166.8053
33.627745 92.418 166.5464
33.871425 92.397 166.2894
34.116871 92.376 166.0373
34.364096 92.355 165.7927
34.613113 92.334 165.5566
34.863934 92.313 165.3293
35.116572 92.291 165.1105
35.371041 92.270 164.9003
35.627354 92.248 164.6995
35.885525 92.225 164.5092
36.145566 92.202 164.3307
36.407492 92.179 164.1644
36.671316 92.156 164.0089
36.937051 92.133 163.8613
37.204712 92.111 163.7172
37.474313 92.089 163.5722
37.745867 92.068 163.4225
38.019389 92.046 163.2665
38.294893 92.023 163.1043
38.572394 91.999 162.9377
38.851905 91.973 162.7690
39.133442 91.947 162.5997
39.417019 91.921 162.4300
39.702651 91.895 162.2584
39.990353 91.869 162.0826
40.280140 91.844 161.9003
40.572026 91.818 161.7106
40.866028 91.793 161.5142
41.162160 91.766 161.3134
41.460438 91.739 161.1117
41.760877 91.712 160.9123
42.063494 91.683 160.7175
42.368303 91.655 160.5284
42.675322 91.627 160.3453
42.984565 91.598 160.1682
43.296048 91.569 159.9973
43.609789 91.540 159.8337
43.925804 91.510 159.6790
44.244108 91.480 159.5340
44.564719 91.451 159.3983
44.887654 91.421 159.2701
45.212928 91.393 159.1466
45.540560 91.365 159.0243
45.870565 91.337 158.9006
46.202962 91.309 158.7740
46.537768 91.280 158.6443
46.875000 91.252 158.5119
47.214676 91.223 158.3774
47.556813 91.194 158.2417
47.901429 91.164 158.1051
48.248542 91.135 157.9685
48.598171 91.105 157.8330
48.950334 91.075 157.7002
49.305048 91.046 157.5712
49.662333 91.017 157.4463
50.022206 90.989 157.3242
50.384688 90.962 157.2021
50.749796 90.935 157.0771
51.117550 90.910 156.9464
51.487969 90.883 156.8093
51.861072 90.856 156.6675
52.236879 90.828 156.5245
52.615409 90.798 156.3842
52.996681 90.767 156.2494
53.380717 90.735 156.1209
53.767536 90.704 155.9974
54.157158 90.673 155.8762
54.549603 90.643 155.7548
54.944892 90.613 155.6312
55.343045 90.584 155.5045
55.744084 90.555 155.3747
56.148028 90.526 155.2416
56.554900 90.497 155.1058
56.964720 90.468 154.9686
57.377510 90.438 154.8322
57.793291 90.408 154.6995
58.212085 90.377 154.5726
58.633914 90.346 154.4526
59.058799 90.315 154.3386
59.486764 90.283 154.2294
59.917829 90.251 154.1231
60.352019 90.219 154.0185
60.789354 90.186 153.9142
61.229859 90.152 153.8090
61.673556 90.117 153.7023
62.120468 90.081 153.5942
62.570618 90.045 153.4852
63.024031 90.008 153.3765
63.480729 89.970 153.2691
63.940736 89.932 153.1641
64.404077 89.895 153.0626
64.870776 89.858 152.9650
65.340856 89.823 152.8706
65.814343 89.788 152.7769
66.291261 89.755 152.6812
66.771635 89.722 152.5837
67.255489 89.688 152.4875
67.742850 89.653 152.3975
68.233743 89.618 152.3175
68.728193 89.583 152.2478
69.226226 89.548 152.1858
69.727867 89.513 152.1273
70.233144 89.479 152.0686
70.742083 89.445 152.0073
71.254709 89.411 151.9424
71.771050 89.376 151.8739
72.291132 89.341 151.8031
72.814984 89.305 151.7316
73.342631 89.269 151.6612
73.874102 89.234 151.5933
74.409424 89.199 151.5282
74.948626 89.164 151.4650
75.491734 89.131 151.4019
76.038779 89.097 151.3373
76.589787 89.064 151.2711
77.144788 89.031 151.2041
77.703811 88.998 151.1371
78.266885 88.965 151.0699
78.834039 88.932 151.0016
79.405303 88.899 150.9306
79.980706 88.866 150.8541
80.560280 88.833 150.7701
81.144053 88.800 150.6782
81.732056 88.766 150.5807
82.324320 88.730 150.4818
82.920876 88.693 150.3854
83.521755 88.654 150.2934
84.126988 88.615 150.2062
84.736607 88.575 150.1240
85.350643 88.534 150.0483
85.969129 88.491 149.9816
86.592097 88.448 149.9260
87.219579 88.405 149.8813
87.851608 88.363 149.8456
88.488217 88.320 149.8167
89.129439 88.278 149.7934
89.775308 88.236 149.7751
90.425856 88.195 149.7607
91.081119 88.153 149.7484
91.741131 88.112 149.7361
92.405925 88.071 149.7229
93.075536 88.030 149.7083
93.750000 87.988 149.6932
94.429351 87.947 149.6787
95.113625 87.906 149.6657
95.802858 87.866 149.6541
96.497085 87.827 149.6442
97.196342 87.789 149.6367
97.900667 87.751 149.6320
98.610096 87.714 149.6302
99.324665 87.676 149.6318
100.044413 87.637 149.6378
100.769376 87.596 149.6495
101.499592 87.555 149.6671
102.235100 87.512 149.6890
102.975938 87.470 149.7127
103.722144 87.428 149.7357
104.473757 87.388 149.7556
105.230817 87.351 149.7699
105.993363 87.315 149.7786
106.761435 87.282 149.7853
107.535072 87.249 149.7947
108.314315 87.217 149.8094
109.099206 87.186 149.8279
109.889783 87.152 149.8456
110.686090 87.116 149.8581
111.488167 87.076 149.8617
112.296056 87.033 149.8521
113.109800 86.988 149.8250
113.929440 86.941 149.7780
114.755020 86.895 149.7153
115.586582 86.850 149.6455
116.424170 86.809 149.5779
117.267827 86.772 149.5207
118.117598 86.736 149.4832
118.973527 86.700 149.4796
119.835658 86.660 149.5331
120.704037 86.618 149.6641
121.578708 86.574 149.8657
122.459718 86.531 150.1038
123.347111 86.488 150.3407
124.240935 86.446 150.5511
125.141236 86.403 150.7234
126.048061 86.361 150.8578
126.961458 86.320 150.9630
127.881473 86.281 151.0501
128.808154 86.246 151.1281
129.741551 86.213 151.2015
130.681712 86.181 151.2705
131.628686 86.147 151.3353
132.582521 86.111 151.3974
133.543269 86.072 151.4579
134.510979 86.030 151.5160
135.485701 85.987 151.5730
136.467486 85.944 151.6331
137.456386 85.903 151.7008
138.452451 85.864 151.7779
139.455735 85.827 151.8630
140.466288 85.792 151.9520
141.484165 85.757 152.0405
142.509418 85.721 152.1254
143.542100 85.683 152.2072
144.582265 85.643 152.2888
145.629968 85.603 152.3759
146.685262 85.562 152.4742
147.748204 85.521 152.5881
148.818849 85.480 152.7191
149.897251 85.438 152.8654
150.983469 85.395 153.0230
152.077557 85.352 153.1873
153.179574 85.310 153.3527
154.289576 85.270 153.5131
155.407622 85.232 153.6645
156.533770 85.198 153.8084
157.668078 85.166 153.9505
158.810606 85.134 154.0981
159.961413 85.102 154.2571
161.120559 85.066 154.4291
162.288105 85.028 154.6107
163.464112 84.989 154.7921
164.648640 84.948 154.9590
165.841752 84.909 155.1022
167.043510 84.872 155.2207
168.253976 84.837 155.3176
169.473213 84.805 155.3992
170.701286 84.773 155.4751
171.938258 84.742 155.5567
173.184194 84.711 155.6517
174.439158 84.679 155.7610
175.703216 84.646 155.8799
176.976434 84.613 156.0038
178.258878 84.579 156.1320
179.550615 84.546 156.2665
180.851713 84.513 156.4084
182.162239 84.482 156.5551
183.482262 84.452 156.7027
184.811850 84.423 156.8484
186.151073 84.395 156.9924
187.500000 84.366 157.1357
188.858702 84.337 157.2784
190.227250 84.307 157.4190
191.605715 84.276 157.5567
192.994169 84.244 157.6940
194.392685 84.210 157.8347
195.801334 84.175 157.9822
197.220191 84.141 158.1376
198.649330 84.107 158.3009
200.088825 84.075 158.4727
201.538751 84.044 158.6530
202.999184 84.015 158.8396
204.470200 83.987 159.0274
205.951875 83.960 159.2103
207.444287 83.933 159.3846
208.947514 83.906 159.5496
210.461634 83.878 159.7077
211.986726 83.848 159.8635
213.522869 83.816 160.0224
215.070144 83.781 160.1903
216.628631 83.746 160.3715
218.198411 83.711 160.5675
219.779567 83.677 160.7762
221.372180 83.645 160.9930
222.976334 83.615 161.2128
224.592112 83.587 161.4314
226.219600 83.559 161.6453
227.858880 83.532 161.8528
229.510039 83.505 162.0547
231.173164 83.478 162.2534
232.848340 83.451 162.4510
234.535655 83.425 162.6481
236.235197 83.398 162.8443
237.947054 83.371 163.0383
239.671317 83.344 163.2300
241.408074 83.315 163.4206
243.157416 83.286 163.6126
244.919435 83.255 163.8087
246.694223 83.223 164.0118
248.481871 83.191 164.2255
250.282473 83.159 164.4539
252.096123 83.127 164.7004
253.922915 83.097 164.9639
255.762945 83.070 165.2373
257.616309 83.046 165.5084
259.483103 83.025 165.7643
261.363424 83.005 165.9978
263.257372 82.985 166.2113
265.165043 82.964 166.4141
267.086538 82.941 166.6174
269.021957 82.918 166.8299
270.971401 82.894 167.0562
272.934972 82.870 167.2978
274.912771 82.847 167.5527
276.904902 82.825 167.8178
278.911469 82.805 168.0895
280.932577 82.786 168.3637
282.968330 82.770 168.6352
285.018835 82.756 168.8973
287.084199 82.744 169.1430
289.164530 82.732 169.3667
291.259935 82.720 169.5677
293.370525 82.705 169.7526
295.496408 82.688 169.9319
297.637697 82.668 170.1165
299.794503 82.645 170.3129
301.966937 82.621 170.5237
304.155114 82.596 170.7482
306.359147 82.571 170.9833
308.579152 82.547 171.2256
310.815244 82.523 171.4717
313.067539 82.499 171.7193
315.336156 82.474 171.9688
317.621211 82.449 172.2234
319.922826 82.424 172.4883
322.241118 82.399 172.7664
324.576210 82.376 173.0562
326.928223 82.354 173.3537
329.297280 82.334 173.6550
331.683504 82.316 173.9587
334.087019 82.298 174.2644
336.507952 82.282 174.5715
338.946427 82.265 174.8787
341.402572 82.250 175.1847
343.876516 82.234 175.4899
346.368387 82.219 175.7956
348.878315 82.205 176.1028
351.406431 82.192 176.4113
353.952867 82.181 176.7196
356.517756 82.171 177.0253
359.101230 82.163 177.3263
361.703426 82.155 177.6210
364.324478 82.147 177.9077
366.964523 82.140 178.1859
369.623699 82.131 178.4564
372.302145 82.123 178.7208
375.000000 82.114 178.9812
377.717405 82.105 179.2389
380.454501 82.095 179.4953
383.211431 82.084 179.7516
385.988339 82.072 -179.9910
388.785369 82.060 -179.7320
391.602668 82.048 -179.4709
394.440383 82.036 -179.2067
397.298660 82.025 -178.9387
400.177650 82.014 -178.6666
403.077502 82.003 -178.3918
405.998368 81.992 -178.1161
408.940400 81.980 -177.8408
411.903750 81.968 -177.5646
414.888575 81.955 -177.2846
417.895028 81.942 -176.9975
420.923268 81.929 -176.7016
423.973452 81.918 -176.3957
427.045738 81.907 -176.0809
430.140287 81.899 -175.7610
433.257261 81.892 -175.4416
436.396822 81.886 -175.1262
439.559133 81.881 -174.8151
442.744360 81.878 -174.5070
445.952668 81.875 -174.2036
449.184225 81.874 -173.9099
452.439199 81.873 -173.6328
455.717760 81.872 -173.3762
459.020079 81.869 -173.1369
462.346327 81.863 -172.9039
465.696680 81.854 -172.6642
469.071310 81.843 -172.4094
472.470394 81.832 -172.1374
475.894109 81.821 -171.8514
479.342634 81.810 -171.5571
482.816148 81.799 -171.2603
486.314833 81.788 -170.9635
489.838871 81.776 -170.6628
493.388445 81.763 -170.3510
496.963741 81.751 -170.0240
500.564945 81.741 -169.6850
504.192245 81.732 -169.3414
507.845830 81.726 -169.0000
511.525890 81.720 -168.6638
515.232618 81.715 -168.3320
518.966206 81.709 -168.0017
522.726849 81.703 -167.6688
526.514743 81.696 -167.3291
530.330086 81.689 -166.9800
534.173076 81.684 -166.6230
538.043915 81.680 -166.2624
541.942803 81.676 -165.9008
545.869944 81.674 -165.5379
549.825542 81.672 -165.1728
553.809805 81.671 -164.8068
557.822939 81.672 -164.4429
561.865154 81.673 -164.0834
565.936660 81.674 -163.7282
570.037671 81.675 -163.3742
574.168399 81.676 -163.0181
578.329060 81.676 -162.6577
582.519870 81.676 -162.2931
586.741049 81.676 -161.9245
590.992817 81.676 -161.5502
595.275394 81.676 -161.1680
599.589005 81.677 -160.7788
603.933874 81.679 -160.3864
608.310228 81.682 -159.9948
612.718295 81.686 -159.6053
617.158304 81.690 -159.2153
621.630488 81.694 -158.8191
626.135079 81.698 -158.4101
630.672311 81.703 -157.9861
635.242423 81.711 -157.5506
639.845651 81.720 -157.1094
644.482237 81.732 -156.6652
649.152421 81.746 -156.2182
653.856447 81.762 -155.7708
658.594560 81.781 -155.3301
663.367008 81.803 -154.9065
668.174039 81.825 -154.5076
673.015903 81.848 -154.1325
677.892854 81.868 -153.7727
682.805145 81.886 -153.4182
687.753032 81.902 -153.0618
692.736774 81.917 -152.6984
697.756631 81.930 -152.3246
702.812863 81.944 -151.9392
707.905735 81.958 -151.5445
713.035511 81.973 -151.1448
718.202461 81.990 -150.7433
723.406852 82.007 -150.3405
728.648956 82.025 -149.9352
733.929047 82.043 -149.5262
739.247399 82.062 -149.1129
744.604290 82.082 -148.6947
750.000000 82.102 -148.2714
755.434809 82.123 -147.8435
760.909001 82.145 -147.4113
766.422861 82.167 -146.9753
771.976677 82.191 -146.5359
777.570739 82.216 -146.0937
783.205337 82.242 -145.6489
788.880766 82.270 -145.1994
794.597321 82.299 -144.7425
800.355301 82.330 -144.2764
806.155005 82.363 -143.8034
811.996736 82.401 -143.3302
817.880799 82.442 -142.8662
823.807501 82.486 -142.4216
829.777150 82.533 -142.0048
835.790057 82.580 -141.6177
841.846536 82.625 -141.2530
847.946903 82.669 -140.8986
854.091476 82.711 -140.5452
860.280575 82.753 -140.1885
866.514523 82.793 -139.8268
872.793644 82.834 -139.4585
879.118267 82.876 -139.0852
885.488720 82.919 -138.7115
891.905336 82.963 -138.3413
898.368450 83.008 -137.9748
904.878398 83.054 -137.6103
911.435520 83.101 -137.2473
918.040157 83.149 -136.8881
924.692655 83.199 -136.5359
931.393359 83.251 -136.1942
938.142619 83.303 -135.8663
944.940787 83.357 -135.5536
951.788218 83.410 -135.2548
958.685268 83.463 -134.9671
965.632296 83.516 -134.6876
972.629666 83.568 -134.4138
979.677741 83.620 -134.1446
986.776890 83.672 -133.8803
993.927482 83.723 -133.6196
1001.129891 83.774 -133.3587
1008.384491 83.826 -133.0939
1015.691660 83.879 -132.8257
1023.051781 83.934 -132.5588
1030.465236 83.991 -132.3006
1037.932411 84.051 -132.0623
1045.453698 84.112 -131.8553
1053.029486 84.172 -131.6841
1060.660172 84.229 -131.5434
1068.346153 84.283 -131.4231
1076.087829 84.332 -131.3120
1083.885605 84.377 -131.2013
1091.739887 84.419 -131.0863
1099.651084 84.458 -130.9642
1107.619609 84.494 -130.8322
1115.645878 84.528 -130.6875
1123.730308 84.559 -130.5270
1131.873321 84.589 -130.3478
1140.075341 84.616 -130.1474
1148.336797 84.643 -129.9240
1156.658119 84.669 -129.6762
1165.039741 84.696 -129.4019
1173.482099 84.725 -129.0986
1181.985634 84.756 -128.7665
1190.550789 84.791 -128.4117
1199.178011 84.832 -128.0465
1207.867749 84.877 -127.6846
1216.620457 84.925 -127.3343
1225.436590 84.975 -126.9946
1234.316609 85.025 -126.6594
1243.260976 85.076 -126.3222
1252.270157 85.127 -125.9779
1261.344623 85.180 -125.6249
1270.484846 85.234 -125.2649
1279.691303 85.290 -124.8987
1288.964474 85.349 -124.5264
1298.304842 85.411 -124.1495
1307.712894 85.477 -123.7720
1317.189120 85.546 -123.3987
1326.734016 85.619 -123.0326
1336.348077 85.695 -122.6743
1346.031806 85.773 -122.3218
1355.785708 85.855 -121.9723
1365.610290 85.940 -121.6225
1375.506065 86.028 -121.2683
1385.473549 86.121 -120.9053
1395.513261 86.219 -120.5328
1405.625726 86.323 -120.1570
1415.811469 86.434 -119.7906
1426.071023 86.551 -119.4488
1436.404921 86.672 -119.1419
1446.813703 86.795 -118.8708
1457.297912 86.918 -118.6303
1467.858093 87.041 -118.4142
1478.494798 87.164 -118.2177
1489.208581 87.285 -118.0372
1500.000000 87.404 -117.8699
1510.869618 87.522 -117.7136
1521.818002 87.637 -117.5676
1532.845723 87.751 -117.4322
1543.953355 87.863 -117.3093
1555.141477 87.976 -117.2027
1566.410674 88.091 -117.1210
1577.761531 88.209 -117.0791
1589.194642 88.330 -117.0944
1600.710601 88.451 -117.1785
1612.310010 88.570 -117.3330
1623.993473 88.683 -117.5515
1635.761599 88.791 -117.8233
1647.615002 88.892 -118.1363
1659.554299 88.985 -118.4775
1671.580114 89.071 -118.8344
1683.693072 89.150 -119.1966
1695.893807 89.223 -119.5570
1708.182952 89.290 -119.9100
1720.561150 89.351 -120.2500
1733.029045 89.407 -120.5704
1745.587288 89.458 -120.8645
1758.236533 89.507 -121.1264
1770.977440 89.554 -121.3530
1783.810673 89.604 -121.5488
1796.736900 89.658 -121.7277
1809.756796 89.717 -121.9086
1822.871040 89.779 -122.1072
1836.080315 89.844 -122.3313
1849.385310 89.910 -122.5825
1862.786718 89.977 -122.8594
1876.285239 90.043 -123.1579
1889.881575 90.109 -123.4717
1903.576436 90.176 -123.7934
1917.370535 90.244 -124.1155
1931.264593 90.315 -124.4319
1945.259332 90.391 -124.7411
1959.355483 90.472 -125.0492
1973.553781 90.558 -125.3676
1987.854965 90.648 -125.7064
2002.259781 90.739 -126.0697
2016.768981 90.830 -126.4569
2031.383320 90.921 -126.8657
2046.103561 91.010 -127.2933
2060.930471 91.100 -127.7391
2075.864823 91.188 -128.2047
2090.907395 91.275 -128.6929
2106.058972 91.360 -129.2050
2121.320344 91.443 -129.7392
2136.692305 91.522 -130.2903
2152.175658 91.598 -130.8529
2167.771210 91.672 -131.4257
2183.479774 91.745 -132.0154
2199.302169 91.817 -132.6323
2215.239219 91.887 -133.2842
2231.291755 91.954 -133.9732
2247.460615 92.017 -134.6969
2263.746641 92.074 -135.4497
2280.150683 92.125 -136.2237
2296.673595 92.171 -137.0105
2313.316238 92.213 -137.8038
2330.079481 92.251 -138.6025
2346.964198 92.287 -139.4143
2363.971268 92.320 -140.2515
2381.101578 92.349 -141.1237
2398.356022 92.372 -142.0338
2415.735498 92.385 -142.9781
2433.240913 92.388 -143.9475
2450.873180 92.378 -144.9292
2468.633217 92.355 -145.9087
2486.521951 92.319 -146.8691
2504.540314 92.269 -147.7910
2522.689246 92.208 -148.6543
2540.969692 92.140 -149.4433
2559.382606 92.067 -150.1531
2577.928947 91.994 -150.7922
2596.609683 91.924 -151.3765
2615.425787 91.857 -151.9227
2634.378241 91.793 -152.4442
2653.468031 91.730 -152.9486
2672.696154 91.668 -153.4372
2692.063613 91.606 -153.9073
2711.571415 91.545 -154.3567
2731.220579 91.484 -154.7893
2751.012130 91.425 -155.2140
2770.947098 91.366 -155.6393
2791.026522 91.307 -156.0693
2811.251451 91.246 -156.5028
2831.622938 91.181 -156.9357
2852.142045 91.113 -157.3628
2872.809842 91.042 -157.7776
2893.627406 90.965 -158.1707
2914.595823 90.885 -158.5297
2935.716186 90.802 -158.8443
2956.989596 90.719 -159.1126
2978.417161 90.637 -159.3415
3000.000000 90.558 -159.5416
3021.739237 90.482 -159.7232
3043.636005 90.408 -159.8921
3065.691446 90.335 -160.0488
3087.906710 90.263 -160.1903
3110.282955 90.193 -160.3167
3132.821347 90.126 -160.4342
3155.523062 90.062 -160.5521
3178.389283 89.999 -160.6783
3201.421202 89.936 -160.8170
3224.620020 89.873 -160.9688
3247.986946 89.807 -161.1316
3271.523198 89.738 -161.2993
3295.230004 89.664 -161.4602
3319.108599 89.585 -161.6009
3343.160228 89.503 -161.7130
3367.386145 89.419 -161.7965
3391.787613 89.334 -161.8558
3416.365904 89.248 -161.8951
3441.122300 89.161 -161.9124
3466.058091 89.070 -161.8988
3491.174576 88.977 -161.8425
3516.473066 88.883 -161.7363
3541.954880 88.788 -161.5777
3567.621345 88.694 -161.3669
3593.473800 88.601 -161.1039
3619.513592 88.510 -160.7889
3645.742080 88.422 -160.4221
3672.160630 88.337 -160.0010
3698.770620 88.257 -159.5206
3725.573436 88.183 -158.9802
3752.570477 88.117 -158.3891
3779.763150 88.062 -157.7651
3807.152872 88.017 -157.1273
3834.741071 87.981 -156.4891
3862.529185 87.952 -155.8551
3890.518664 87.930 -155.2272
3918.710966 87.916 -154.6102
3947.107561 87.909 -154.0133
3975.709929 87.911 -153.4471
4004.519563 87.918 -152.9221
4033.537962 87.931 -152.4462
4062.766641 87.947 -152.0199
4092.207123 87.963 -151.6358
4121.860942 87.980 -151.2847
4151.729646 87.996 -150.9605
4181.814790 88.012 -150.6605
4212.117944 88.026 -150.3799
4242.640687 88.037 -150.1082
4273.384610 88.047 -149.8320
4304.351317 88.057 -149.5429
4335.542421 88.067 -149.2410
4366.959549 88.082 -148.9338
4398.604338 88.100 -148.6348
4430.478438 88.124 -148.3588
4462.583511 88.150 -148.1150
4494.921231 88.178 -147.9069
4527.493283 88.207 -147.7368
4560.301365 88.236 -147.6080
4593.347189 88.263 -147.5212
4626.632476 88.286 -147.4682
4660.158962 88.303 -147.4326
4693.928395 88.316 -147.3962
4727.942535 88.325 -147.3460
4762.203156 88.333 -147.2756
4796.712043 88.341 -147.1863
4831.470996 88.350 -147.0829
4866.481826 88.362 -146.9687
4901.746360 88.378 -146.8471
4937.266434 88.397 -146.7255
4973.043902 88.421 -146.6145
5009.080628 88.448 -146.5220
5045.378492 88.477 -146.4495
5081.939384 88.509 -146.3952
5118.765212 88.543 -146.3595
5155.857894 88.580 -146.3482
5193.219366 88.620 -146.3727
5230.851574 88.662 -146.4448
5268.756481 88.703 -146.5712
5306.936062 88.742 -146.7537
5345.392309 88.776 -146.9924
5384.127225 88.802 -147.2837
5423.142830 88.818 -147.6159
5462.441159 88.822 -147.9698
5502.024259 88.814 -148.3238
5541.894195 88.794 -148.6591
5582.053045 88.765 -148.9640
5622.502902 88.728 -149.2327
5663.245876 88.686 -149.4611
5704.284090 88.639 -149.6465
5745.619684 88.589 -149.7893
5787.254813 88.537 -149.8903
5829.191647 88.482 -149.9463
5871.432373 88.425 -149.9490
5913.979192 88.368 -149.8894
5956.834323 88.314 -149.7634
6000.000000 88.265 -149.5748
6043.478473 88.224 -149.3335
6087.272010 88.193 -149.0535
6131.382892 88.172 -148.7535
6175.813420 88.162 -148.4538
6220.565910 88.161 -148.1703
6265.642695 88.167 -147.9107
6311.046124 88.178 -147.6759
6356.778566 88.194 -147.4639
6402.842404 88.213 -147.2723
6449.240040 88.235 -147.0978
6495.973891 88.259 -146.9369
6543.046396 88.286 -146.7870
6590.460007 88.315 -146.6446
6638.217197 88.345 -146.5016
6686.320456 88.377 -146.3457
6734.772290 88.413 -146.1643
6783.575226 88.454 -145.9491
6832.731809 88.504 -145.6981
6882.244600 88.565 -145.4167
6932.116181 88.641 -145.1196
6982.349153 88.733 -144.8275
7032.946133 88.844 -144.5621
7083.909760 88.974 -144.3432
7135.242690 89.126 -144.1912
7186.947600 89.302 -144.1299
7239.027185 89.504 -144.1888
7291.484160 89.732 -144.4050
7344.321260 89.986 -144.8241
7397.541239 90.265 -145.4954
7451.146872 90.564 -146.4674
7505.140954 90.878 -147.7855
7559.526299 91.200 -149.4926
7614.305743 91.519 -151.6257
7669.482141 91.825 -154.2128
7725.058371 92.104 -157.2685
7781.037328 92.338 -160.7864
7837.421932 92.512 -164.7303
7894.215122 92.608 -169.0306
7951.419859 92.614 -173.5879
8009.039125 92.521 -178.2800
8067.075924 92.324 177.0269
8125.533282 92.025 172.4641
8184.414245 91.631 168.1494
8243.721885 91.151 164.1826
8303.459292 90.596 160.6432
8363.629581 89.979 157.5886
8424.235888 89.316 155.0540
8485.281374 88.622 153.0519
8546.769221 87.910 151.5703
8608.702634 87.195 150.5764
8671.084842 86.487 150.0262
8733.919097 85.793 149.8737
8797.208675 85.120 150.0776
8860.956876 84.471 150.6038
8925.167022 83.848 151.4198
8989.842461 83.255 152.4884
9054.986566 82.693 153.7694
9120.602731 82.162 155.2250
9186.694378 81.661 156.8270
9253.264952 81.187 158.5596
9320.317925 80.739 160.4154
9387.856790 80.316 162.3882
9455.885071 79.918 164.4715
9524.406312 79.544 166.6618
9593.424086 79.194 168.9622
9662.941992 78.867 171.3855
9732.963653 78.565 173.9471
9803.492719 78.292 176.6562
9874.532869 78.051 179.5125
9946.087805 77.845 -177.4942
10018.161257 77.679 -174.3775
10090.756983 77.557 -171.1527
10163.878768 77.481 -167.8438
10237.530423 77.457 -164.4888
10311.715789 77.487 -161.1389
10386.438732 77.571 -157.8494
10461.703149 77.707 -154.6694
10537.512962 77.893 -151.6431
10613.872125 78.125 -148.8154
10690.784618 78.398 -146.2312
10768.254450 78.705 -143.9260
10846.285661 79.038 -141.9140
10924.882318 79.392 -140.1871
11004.048518 79.763 -138.7269
11083.788390 80.148 -137.5194
11164.106090 80.548 -136.5628
11245.005805 80.962 -135.8665
11326.491752 81.387 -135.4493
11408.568180 81.822 -135.3386
11491.239368 82.261 -135.5669
11574.509626 82.696 -136.1629
11658.383294 83.116 -137.1399
11742.864745 83.511 -138.4894
11827.958384 83.871 -140.1833
11913.668646 84.187 -142.1787
12000.000000 84.452 -144.4202
12086.956947 84.659 -146.8383
12174.544019 84.805 -149.3529
12262.765784 84.892 -151.8820
12351.626840 84.924 -154.3510
12441.131819 84.906 -156.6969
12531.285389 84.846 -158.8663
12622.092249 84.752 -160.8165
12713.557132 84.635 -162.5183
12805.684808 84.504 -163.9592
12898.480079 84.370 -165.1417
12991.947783 84.244 -166.0813
13086.092792 84.134 -166.8084
13180.920015 84.049 -167.3698
13276.434395 83.993 -167.8225
13372.640911 83.968 -168.2224
13469.544580 83.975 -168.6160
13567.150452 84.012 -169.0446
13665.463617 84.080 -169.5482
13764.489200 84.177 -170.1662
13864.232362 84.301 -170.9357
13964.698305 84.451 -171.8945
14065.892266 84.624 -173.0828
14167.819519 84.816 -174.5381
14270.485380 85.021 -176.2894
14373.895200 85.232 -178.3576
14478.054370 85.444 179.2425
14582.968320 85.650 176.5027
14688.642520 85.843 173.4239
14795.082478 86.017 170.0117
14902.293745 86.167 166.2733
15010.281908 86.288 162.2178
15119.052599 86.374 157.8586
15228.611486 86.422 153.2124
15338.964283 86.425 148.2985
15450.116741 86.379 143.1421
15562.074656 86.276 137.7764
15674.843864 86.108 132.2429
15788.430244 85.869 126.5930
15902.839718 85.549 120.8903
16018.078250 85.144 115.2113
16134.151848 84.649 109.6417
16251.066563 84.063 104.2712
16368.828491 83.388 99.1895
16487.443769 82.629 94.4805
16606.918584 81.793 90.2149
16727.259161 80.890 86.4467
16848.471777 79.930 83.2148
16970.562748 78.924 80.5436
17093.538442 77.882 78.4469
17217.405268 76.813 76.9386
17342.169684 75.724 76.0476
17467.838194 74.620 75.8365
17594.417350 73.507 76.4282
17721.913751 72.397 78.0332
17850.334044 71.317 80.9467
17979.684923 70.321 85.4556
18109.973131 69.497 91.5592
18241.205462 68.941 98.5612
18373.388756 68.693 105.0631
18506.529905 68.690 109.7589
18640.635849 68.793 112.2064
18775.713581 68.865 112.7664
18911.770141 68.817 112.1287
19048.812624 68.615 110.9698
19186.848172 68.260 109.8191
19325.883983 67.779 109.0381
19465.927305 67.217 108.8268
19606.985439 66.632 109.2210
19749.065738 66.097 110.0741
19892.175609 65.686 111.0523
20036.322514 65.463 111.7127
