* Measurement data measured by REW V5.31
* Source: EXCL: Microphone (USB Sound Device        ), MICROPHONE (Master Volume), L, volume: 0.250
* Format: 256k Log Swept Sine, 1 sweep at -4.0 dBFS with no timing reference
* Dated: Jul 6, 2024 12:00:28 AM
* REW Settings:
*  C-weighting compensation: Off
*  Target level: 75.0 dB
* Note: 7HZ Aero L
* Measurement: L 7HZ Aero
* Smoothing: 1/12 octave
* Frequency Step: 96 ppo
* Start Frequency: 0.36621094 Hz
*
* Freq(Hz) SPL(dB) Phase(degrees)
0.366211 75.541 -134.8908
0.368865 75.552 -134.9053
0.371538 75.569 -134.9269
0.374230 75.590 -134.9538
0.376942 75.614 -134.9845
0.379673 75.639 -135.0177
0.382424 75.665 -135.0528
0.385196 75.693 -135.0893
0.387987 75.720 -135.1269
0.390798 75.748 -135.1655
0.393630 75.776 -135.2050
0.396483 75.804 -135.2453
0.399356 75.833 -135.2865
0.402250 75.862 -135.3284
0.405165 75.891 -135.3712
0.408101 75.920 -135.4147
0.411058 75.950 -135.4591
0.414037 75.979 -135.5042
0.417037 76.009 -135.5501
0.420059 76.039 -135.5968
0.423103 76.069 -135.6443
0.426169 76.100 -135.6926
0.429257 76.131 -135.7416
0.432368 76.162 -135.7914
0.435501 76.193 -135.8419
0.438656 76.224 -135.8932
0.441835 76.256 -135.9452
0.445037 76.288 -135.9980
0.448262 76.320 -136.0515
0.451510 76.352 -136.1057
0.454782 76.385 -136.1607
0.458077 76.418 -136.2163
0.461397 76.451 -136.2727
0.464740 76.484 -136.3298
0.468108 76.518 -136.3876
0.471500 76.551 -136.4461
0.474917 76.585 -136.5052
0.478358 76.620 -136.5651
0.481825 76.654 -136.6256
0.485316 76.689 -136.6868
0.488833 76.724 -136.7486
0.492375 76.759 -136.8111
0.495943 76.795 -136.8743
0.499537 76.831 -136.9380
0.503157 76.867 -137.0024
0.506803 76.903 -137.0675
0.510475 76.940 -137.1331
0.514175 76.976 -137.1994
0.517900 77.014 -137.2663
0.521653 77.051 -137.3338
0.525434 77.089 -137.4019
0.529241 77.126 -137.4706
0.533076 77.165 -137.5399
0.536939 77.203 -137.6098
0.540830 77.242 -137.6802
0.544749 77.281 -137.7513
0.548696 77.320 -137.8229
0.552673 77.360 -137.8952
0.556677 77.400 -137.9680
0.560711 77.440 -138.0414
0.564774 77.480 -138.1153
0.568867 77.521 -138.1899
0.572989 77.562 -138.2650
0.577141 77.604 -138.3408
0.581324 77.645 -138.4171
0.585536 77.687 -138.4940
0.589779 77.729 -138.5715
0.594053 77.772 -138.6496
0.598358 77.815 -138.7284
0.602694 77.858 -138.8077
0.607061 77.902 -138.8877
0.611460 77.945 -138.9684
0.615891 77.989 -139.0496
0.620354 78.034 -139.1316
0.624849 78.079 -139.2142
0.629377 78.124 -139.2975
0.633938 78.169 -139.3815
0.638532 78.215 -139.4663
0.643159 78.261 -139.5518
0.647819 78.308 -139.6381
0.652514 78.354 -139.7251
0.657242 78.401 -139.8130
0.662005 78.449 -139.9017
0.666802 78.497 -139.9913
0.671634 78.545 -140.0818
0.676501 78.593 -140.1733
0.681403 78.642 -140.2657
0.686341 78.691 -140.3591
0.691314 78.740 -140.4536
0.696324 78.790 -140.5492
0.701370 78.840 -140.6460
0.706452 78.889 -140.7441
0.711571 78.939 -140.8436
0.716728 78.987 -140.9447
0.721921 79.033 -141.0476
0.727153 79.077 -141.1528
0.732422 79.118 -141.2606
0.737729 79.154 -141.3716
0.743075 79.187 -141.4862
0.748460 79.217 -141.6048
0.753883 79.244 -141.7278
0.759346 79.270 -141.8551
0.764849 79.295 -141.9868
0.770391 79.319 -142.1230
0.775974 79.342 -142.2635
0.781597 79.364 -142.4083
0.787261 79.386 -142.5573
0.792966 79.407 -142.7103
0.798712 79.427 -142.8671
0.804500 79.447 -143.0278
0.810329 79.465 -143.1921
0.816201 79.484 -143.3600
0.822116 79.501 -143.5312
0.828073 79.517 -143.7056
0.834074 79.533 -143.8831
0.840118 79.548 -144.0635
0.846206 79.562 -144.2467
0.852338 79.575 -144.4324
0.858514 79.588 -144.6205
0.864735 79.599 -144.8109
0.871001 79.609 -145.0034
0.877313 79.619 -145.1977
0.883670 79.627 -145.3936
0.890074 79.634 -145.5911
0.896524 79.640 -145.7898
0.903020 79.645 -145.9896
0.909564 79.649 -146.1902
0.916155 79.652 -146.3914
0.922794 79.653 -146.5931
0.929481 79.654 -146.7949
0.936216 79.652 -146.9966
0.943000 79.650 -147.1980
0.949834 79.646 -147.3988
0.956717 79.641 -147.5988
0.963649 79.634 -147.7976
0.970632 79.626 -147.9950
0.977666 79.616 -148.1908
0.984750 79.605 -148.3844
0.991886 79.592 -148.5758
0.999074 79.578 -148.7645
1.006314 79.561 -148.9502
1.013606 79.543 -149.1326
1.020951 79.523 -149.3113
1.028349 79.502 -149.4859
1.035801 79.478 -149.6560
1.043307 79.452 -149.8212
1.050867 79.425 -149.9813
1.058482 79.395 -150.1359
1.066152 79.363 -150.2848
1.073878 79.329 -150.4281
1.081660 79.293 -150.5660
1.089498 79.254 -150.6994
1.097393 79.212 -150.8294
1.105345 79.167 -150.9577
1.113355 79.119 -151.0861
1.121423 79.067 -151.2161
1.129549 79.012 -151.3487
1.137734 78.953 -151.4846
1.145979 78.890 -151.6241
1.154283 78.824 -151.7671
1.162647 78.754 -151.9136
1.171072 78.680 -152.0633
1.179558 78.603 -152.2157
1.188106 78.523 -152.3705
1.196715 78.439 -152.5272
1.205387 78.352 -152.6853
1.214122 78.261 -152.8441
1.222920 78.168 -153.0029
1.231782 78.072 -153.1612
1.240708 77.972 -153.3180
1.249699 77.870 -153.4725
1.258754 77.766 -153.6237
1.267876 77.659 -153.7705
1.277063 77.549 -153.9118
1.286318 77.438 -154.0463
1.295639 77.324 -154.1726
1.305027 77.208 -154.2891
1.314484 77.091 -154.3940
1.324009 76.972 -154.4855
1.333604 76.852 -154.5614
1.343268 76.731 -154.6194
1.353002 76.609 -154.6570
1.362806 76.486 -154.6713
1.372681 76.362 -154.6593
1.382628 76.238 -154.6177
1.392647 76.115 -154.5426
1.402739 75.991 -154.4303
1.412904 75.867 -154.2764
1.423142 75.744 -154.0767
1.433455 75.621 -153.8267
1.443843 75.497 -153.5222
1.454305 75.372 -153.1594
1.464844 75.245 -152.7350
1.475459 75.113 -152.2461
1.486150 74.976 -151.6895
1.496920 74.832 -151.0611
1.507767 74.681 -150.3559
1.518693 74.522 -149.5672
1.529698 74.356 -148.6873
1.540783 74.183 -147.7071
1.551948 74.004 -146.6162
1.563194 73.820 -145.4033
1.574521 73.632 -144.0556
1.585931 73.441 -142.5596
1.597423 73.248 -140.9008
1.608999 73.054 -139.0640
1.620658 72.861 -137.0341
1.632402 72.671 -134.7965
1.644232 72.484 -132.3385
1.656146 72.302 -129.6501
1.668147 72.127 -126.7265
1.680235 71.961 -123.5695
1.692411 71.805 -120.1897
1.704675 71.661 -116.6085
1.717028 71.532 -112.8591
1.729470 71.419 -108.9859
1.742003 71.325 -105.0432
1.754626 71.252 -101.0913
1.767341 71.202 -97.1917
1.780147 71.178 -93.4021
1.793047 71.184 -89.7710
1.806040 71.220 -86.3347
1.819128 71.290 -83.1151
1.832310 71.397 -80.1210
1.845587 71.541 -77.3506
1.858961 71.722 -74.7971
1.872432 71.942 -72.4514
1.886001 72.198 -70.3046
1.899667 72.490 -68.3475
1.913433 72.813 -66.5709
1.927299 73.167 -64.9650
1.941265 73.547 -63.5197
1.955332 73.952 -62.2248
1.969501 74.377 -61.0702
1.983773 74.820 -60.0461
1.998148 75.277 -59.1431
2.012627 75.744 -58.3525
2.027212 76.219 -57.6660
2.041902 76.698 -57.0762
2.056698 77.176 -56.5765
2.071602 77.651 -56.1606
2.086614 78.118 -55.8232
2.101734 78.575 -55.5593
2.116964 79.017 -55.3645
2.132304 79.443 -55.2349
2.147756 79.849 -55.1668
2.163320 80.234 -55.1564
2.178996 80.598 -55.2000
2.194786 80.941 -55.2937
2.210690 81.266 -55.4332
2.226710 81.574 -55.6141
2.242845 81.869 -55.8322
2.259098 82.151 -56.0833
2.275468 82.423 -56.3641
2.291957 82.685 -56.6713
2.308566 82.938 -57.0021
2.325295 83.183 -57.3540
2.342145 83.420 -57.7248
2.359117 83.651 -58.1126
2.376212 83.874 -58.5157
2.393431 84.092 -58.9328
2.410775 84.305 -59.3625
2.428244 84.513 -59.8041
2.445840 84.717 -60.2566
2.463564 84.917 -60.7197
2.481416 85.115 -61.1932
2.499397 85.310 -61.6771
2.517509 85.503 -62.1723
2.535752 85.694 -62.6796
2.554127 85.883 -63.2008
2.572635 86.068 -63.7374
2.591277 86.250 -64.2910
2.610055 86.427 -64.8624
2.628968 86.599 -65.4511
2.648019 86.765 -66.0558
2.667208 86.927 -66.6748
2.686535 87.083 -67.3058
2.706003 87.235 -67.9463
2.725612 87.382 -68.5941
2.745363 87.524 -69.2467
2.765257 87.663 -69.9021
2.785295 87.798 -70.5582
2.805478 87.929 -71.2133
2.825808 88.058 -71.8658
2.846285 88.183 -72.5149
2.866910 88.307 -73.1601
2.887685 88.427 -73.8018
2.908611 88.546 -74.4415
2.929688 88.661 -75.0816
2.950917 88.774 -75.7249
2.972301 88.883 -76.3741
2.993839 88.989 -77.0310
3.015534 89.090 -77.6960
3.037386 89.188 -78.3684
3.059396 89.282 -79.0468
3.081565 89.372 -79.7291
3.103896 89.458 -80.4130
3.126388 89.542 -81.0961
3.149043 89.622 -81.7759
3.171862 89.699 -82.4499
3.194847 89.774 -83.1160
3.217998 89.846 -83.7724
3.241317 89.916 -84.4182
3.264805 89.984 -85.0532
3.288463 90.049 -85.6785
3.312293 90.111 -86.2962
3.336295 90.170 -86.9087
3.360471 90.226 -87.5181
3.384822 90.279 -88.1255
3.409350 90.329 -88.7311
3.434056 90.375 -89.3340
3.458940 90.419 -89.9331
3.484005 90.460 -90.5264
3.509252 90.499 -91.1118
3.534681 90.536 -91.6873
3.560295 90.571 -92.2504
3.586094 90.604 -92.7992
3.612081 90.636 -93.3321
3.638255 90.667 -93.8481
3.664620 90.696 -94.3472
3.691175 90.723 -94.8299
3.717923 90.748 -95.2974
3.744864 90.772 -95.7509
3.772001 90.793 -96.1914
3.799335 90.813 -96.6194
3.826866 90.831 -97.0353
3.854597 90.848 -97.4390
3.882529 90.864 -97.8304
3.910664 90.881 -98.2089
3.939002 90.897 -98.5740
3.967546 90.914 -98.9249
3.996296 90.931 -99.2605
4.025255 90.948 -99.5799
4.054423 90.967 -99.8823
4.083804 90.986 -100.1676
4.113396 91.005 -100.4360
4.143204 91.024 -100.6888
4.173227 91.044 -100.9276
4.203468 91.065 -101.1546
4.233928 91.087 -101.3718
4.264609 91.110 -101.5816
4.295512 91.135 -101.7858
4.326639 91.161 -101.9859
4.357992 91.190 -102.1828
4.389572 91.221 -102.3764
4.421380 91.254 -102.5661
4.453419 91.290 -102.7514
4.485691 91.327 -102.9324
4.518196 91.367 -103.1101
4.550936 91.409 -103.2864
4.583914 91.453 -103.4640
4.617131 91.498 -103.6457
4.650589 91.545 -103.8344
4.684289 91.593 -104.0328
4.718233 91.643 -104.2427
4.752424 91.694 -104.4652
4.786862 91.747 -104.7007
4.821549 91.801 -104.9486
4.856488 91.857 -105.2086
4.891680 91.914 -105.4804
4.927127 91.971 -105.7643
4.962831 92.030 -106.0609
4.998794 92.089 -106.3710
5.035017 92.147 -106.6956
5.071503 92.205 -107.0359
5.108253 92.262 -107.3926
5.145270 92.319 -107.7665
5.182555 92.374 -108.1575
5.220110 92.429 -108.5652
5.257937 92.483 -108.9882
5.296038 92.536 -109.4251
5.334415 92.587 -109.8740
5.373071 92.637 -110.3335
5.412006 92.685 -110.8022
5.451224 92.731 -111.2795
5.490725 92.775 -111.7653
5.530514 92.816 -112.2597
5.570590 92.855 -112.7628
5.610957 92.892 -113.2738
5.651616 92.926 -113.7911
5.692570 92.958 -114.3125
5.733821 92.988 -114.8354
5.775370 93.016 -115.3573
5.817221 93.042 -115.8764
5.859375 93.065 -116.3917
5.901834 93.086 -116.9028
5.944602 93.104 -117.4097
5.987679 93.121 -117.9121
6.031068 93.136 -118.4092
6.074771 93.149 -118.8995
6.118792 93.161 -119.3813
6.163131 93.172 -119.8531
6.207792 93.182 -120.3134
6.252776 93.191 -120.7615
6.298086 93.200 -121.1972
6.343725 93.208 -121.6209
6.389694 93.216 -122.0333
6.435996 93.224 -122.4348
6.482634 93.233 -122.8261
6.529610 93.242 -123.2075
6.576926 93.252 -123.5791
6.624585 93.264 -123.9409
6.672590 93.277 -124.2934
6.720942 93.291 -124.6376
6.769645 93.307 -124.9751
6.818700 93.324 -125.3081
6.868111 93.343 -125.6387
6.917881 93.364 -125.9687
6.968010 93.386 -126.2994
7.018504 93.411 -126.6316
7.069362 93.437 -126.9660
7.120590 93.465 -127.3038
7.172189 93.495 -127.6465
7.224161 93.526 -127.9958
7.276511 93.558 -128.3531
7.329239 93.591 -128.7198
7.382350 93.624 -129.0963
7.435845 93.658 -129.4826
7.489729 93.693 -129.8787
7.544002 93.728 -130.2840
7.598669 93.762 -130.6985
7.653732 93.796 -131.1218
7.709194 93.829 -131.5537
7.765058 93.861 -131.9939
7.821327 93.893 -132.4414
7.878004 93.923 -132.8947
7.935091 93.952 -133.3521
7.992592 93.979 -133.8119
8.050510 94.005 -134.2728
8.108847 94.030 -134.7336
8.167607 94.053 -135.1933
8.226793 94.075 -135.6507
8.286408 94.095 -136.1042
8.346454 94.114 -136.5523
8.406936 94.133 -136.9935
8.467856 94.150 -137.4268
8.529218 94.166 -137.8517
8.591024 94.182 -138.2678
8.653278 94.198 -138.6749
8.715983 94.213 -139.0728
8.779143 94.229 -139.4613
8.842760 94.244 -139.8405
8.906839 94.260 -140.2109
8.971381 94.277 -140.5732
9.036392 94.294 -140.9285
9.101873 94.313 -141.2780
9.167829 94.332 -141.6227
9.234263 94.351 -141.9634
9.301178 94.372 -142.3013
9.368578 94.394 -142.6374
9.436467 94.416 -142.9731
9.504847 94.439 -143.3093
9.573723 94.462 -143.6470
9.643099 94.484 -143.9866
9.712976 94.506 -144.3286
9.783361 94.527 -144.6730
9.854255 94.545 -145.0200
9.925663 94.561 -145.3696
9.997588 94.574 -145.7214
10.070035 94.584 -146.0750
10.143007 94.591 -146.4294
10.216507 94.596 -146.7839
10.290540 94.598 -147.1377
10.365109 94.598 -147.4901
10.440219 94.596 -147.8402
10.515873 94.593 -148.1873
10.592076 94.588 -148.5304
10.668830 94.583 -148.8691
10.746141 94.576 -149.2029
10.824012 94.569 -149.5318
10.902447 94.561 -149.8556
10.981451 94.553 -150.1745
11.061027 94.544 -150.4887
11.141180 94.536 -150.7987
11.221913 94.527 -151.1051
11.303232 94.518 -151.4088
11.385140 94.509 -151.7103
11.467641 94.500 -152.0104
11.550741 94.492 -152.3099
11.634442 94.483 -152.6094
11.718750 94.474 -152.9095
11.803669 94.466 -153.2107
11.889203 94.457 -153.5132
11.975357 94.449 -153.8171
12.062136 94.440 -154.1223
12.149543 94.431 -154.4288
12.237583 94.421 -154.7363
12.326262 94.411 -155.0444
12.415583 94.401 -155.3528
12.505552 94.390 -155.6609
12.596172 94.378 -155.9685
12.687449 94.365 -156.2753
12.779387 94.352 -156.5812
12.871992 94.339 -156.8860
12.965268 94.325 -157.1900
13.059220 94.311 -157.4933
13.153852 94.298 -157.7963
13.249170 94.284 -158.0995
13.345179 94.271 -158.4034
13.441884 94.257 -158.7085
13.539289 94.245 -159.0153
13.637401 94.232 -159.3242
13.736223 94.220 -159.6357
13.835761 94.207 -159.9497
13.936021 94.194 -160.2665
14.037007 94.181 -160.5858
14.138725 94.168 -160.9075
14.241180 94.154 -161.2310
14.344377 94.140 -161.5561
14.448323 94.126 -161.8821
14.553021 94.111 -162.2087
14.658478 94.096 -162.5355
14.764700 94.081 -162.8622
14.871691 94.067 -163.1886
14.979457 94.052 -163.5147
15.088005 94.038 -163.8408
15.197339 94.024 -164.1671
15.307465 94.011 -164.4939
15.418389 93.998 -164.8217
15.530117 93.986 -165.1507
15.642655 93.973 -165.4813
15.756008 93.961 -165.8134
15.870182 93.949 -166.1472
15.985184 93.937 -166.4821
16.101019 93.925 -166.8176
16.217694 93.912 -167.1532
16.335214 93.900 -167.4879
16.453586 93.887 -167.8209
16.572815 93.875 -168.1512
16.692909 93.862 -168.4781
16.813872 93.850 -168.8011
16.935713 93.838 -169.1197
17.058436 93.827 -169.4340
17.182048 93.817 -169.7442
17.306556 93.808 -170.0509
17.431967 93.799 -170.3547
17.558286 93.790 -170.6565
17.685521 93.782 -170.9572
17.813677 93.775 -171.2574
17.942762 93.767 -171.5578
18.072783 93.760 -171.8588
18.203746 93.753 -172.1602
18.335658 93.745 -172.4618
18.468526 93.736 -172.7630
18.602356 93.728 -173.0629
18.737156 93.718 -173.3607
18.872934 93.708 -173.6553
19.009695 93.698 -173.9459
19.147447 93.687 -174.2319
19.286197 93.676 -174.5128
19.425953 93.665 -174.7886
19.566721 93.653 -175.0596
19.708510 93.641 -175.3264
19.851326 93.630 -175.5898
19.995177 93.618 -175.8511
20.140070 93.606 -176.1112
20.286013 93.594 -176.3714
20.433014 93.581 -176.6326
20.581080 93.569 -176.8955
20.730219 93.555 -177.1607
20.880439 93.542 -177.4282
21.031747 93.527 -177.6979
21.184152 93.512 -177.9691
21.337661 93.496 -178.2410
21.492282 93.479 -178.5123
21.648024 93.461 -178.7818
21.804895 93.442 -179.0482
21.962902 93.422 -179.3102
22.122054 93.402 -179.5670
22.282360 93.382 -179.8180
22.443827 93.361 179.9366
22.606464 93.342 179.6964
22.770280 93.322 179.4601
22.935283 93.304 179.2259
23.101481 93.287 178.9918
23.268884 93.271 178.7557
23.437500 93.256 178.5155
23.607338 93.241 178.2696
23.778406 93.228 178.0168
23.950714 93.214 177.7570
24.124271 93.200 177.4905
24.299086 93.186 177.2183
24.475167 93.172 176.9419
24.652524 93.157 176.6629
24.831166 93.141 176.3829
25.011103 93.126 176.1032
25.192344 93.110 175.8248
25.374898 93.094 175.5480
25.558775 93.078 175.2729
25.743984 93.062 174.9995
25.930536 93.046 174.7274
26.118439 93.030 174.4567
26.307704 93.014 174.1876
26.498341 92.998 173.9204
26.690359 92.981 173.6559
26.883768 92.964 173.3946
27.078579 92.946 173.1373
27.274801 92.929 172.8841
27.472446 92.911 172.6351
27.671522 92.892 172.3899
27.872042 92.874 172.1480
28.074014 92.855 171.9086
28.277450 92.837 171.6711
28.482360 92.817 171.4351
28.688755 92.797 171.2001
28.896645 92.777 170.9662
29.106042 92.756 170.7334
29.316957 92.735 170.5018
29.529400 92.713 170.2717
29.743382 92.690 170.0430
29.958915 92.668 169.8157
30.176009 92.645 169.5898
30.394677 92.621 169.3649
30.614929 92.598 169.1407
30.836778 92.575 168.9169
31.060234 92.552 168.6930
31.285309 92.529 168.4682
31.512015 92.505 168.2422
31.740364 92.482 168.0142
31.970368 92.459 167.7841
32.202039 92.436 167.5518
32.435388 92.413 167.3173
32.670428 92.390 167.0812
32.907171 92.367 166.8439
33.145630 92.343 166.6060
33.385817 92.320 166.3680
33.627745 92.296 166.1302
33.871425 92.273 165.8930
34.116871 92.249 165.6567
34.364096 92.225 165.4218
34.613113 92.201 165.1886
34.863934 92.177 164.9580
35.116572 92.153 164.7306
35.371041 92.128 164.5068
35.627354 92.104 164.2870
35.885525 92.079 164.0710
36.145566 92.054 163.8584
36.407492 92.029 163.6487
36.671316 92.004 163.4411
36.937051 91.979 163.2352
37.204712 91.954 163.0304
37.474313 91.928 162.8267
37.745867 91.902 162.6241
38.019389 91.875 162.4230
38.294893 91.848 162.2234
38.572394 91.821 162.0257
38.851905 91.793 161.8297
39.133442 91.766 161.6351
39.417019 91.738 161.4415
39.702651 91.709 161.2484
39.990353 91.681 161.0557
40.280140 91.652 160.8633
40.572026 91.624 160.6713
40.866028 91.595 160.4797
41.162160 91.566 160.2885
41.460438 91.537 160.0972
41.760877 91.509 159.9055
42.063494 91.480 159.7133
42.368303 91.450 159.5209
42.675322 91.420 159.3292
42.984565 91.390 159.1395
43.296048 91.359 158.9529
43.609789 91.328 158.7703
43.925804 91.297 158.5915
44.244108 91.266 158.4160
44.564719 91.235 158.2428
44.887654 91.205 158.0710
45.212928 91.174 157.8999
45.540560 91.144 157.7292
45.870565 91.113 157.5588
46.202962 91.082 157.3886
46.537768 91.051 157.2189
46.875000 91.019 157.0497
47.214676 90.988 156.8814
47.556813 90.956 156.7144
47.901429 90.924 156.5493
48.248542 90.892 156.3867
48.598171 90.860 156.2267
48.950334 90.828 156.0697
49.305048 90.795 155.9157
49.662333 90.763 155.7649
50.022206 90.730 155.6171
50.384688 90.698 155.4724
50.749796 90.665 155.3305
51.117550 90.633 155.1910
51.487969 90.600 155.0534
51.861072 90.568 154.9170
52.236879 90.535 154.7815
52.615409 90.503 154.6469
52.996681 90.470 154.5137
53.380717 90.437 154.3824
53.767536 90.404 154.2532
54.157158 90.372 154.1257
54.549603 90.340 153.9992
54.944892 90.308 153.8724
55.343045 90.276 153.7445
55.744084 90.245 153.6149
56.148028 90.214 153.4836
56.554900 90.183 153.3506
56.964720 90.153 153.2158
57.377510 90.122 153.0789
57.793291 90.091 152.9402
58.212085 90.060 152.8001
58.633914 90.028 152.6603
59.058799 89.995 152.5225
59.486764 89.962 152.3876
59.917829 89.929 152.2556
60.352019 89.895 152.1257
60.789354 89.860 151.9977
61.229859 89.825 151.8719
61.673556 89.789 151.7491
62.120468 89.753 151.6303
62.570618 89.716 151.5151
63.024031 89.679 151.4030
63.480729 89.641 151.2933
63.940736 89.604 151.1857
64.404077 89.567 151.0802
64.870776 89.530 150.9766
65.340856 89.493 150.8741
65.814343 89.456 150.7719
66.291261 89.419 150.6697
66.771635 89.381 150.5681
67.255489 89.344 150.4683
67.742850 89.306 150.3711
68.233743 89.269 150.2769
68.728193 89.231 150.1854
69.226226 89.193 150.0965
69.727867 89.155 150.0098
70.233144 89.117 149.9254
70.742083 89.079 149.8434
71.254709 89.041 149.7637
71.771050 89.004 149.6866
72.291132 88.966 149.6115
72.814984 88.928 149.5380
73.342631 88.891 149.4659
73.874102 88.854 149.3950
74.409424 88.817 149.3251
74.948626 88.780 149.2556
75.491734 88.744 149.1856
76.038779 88.708 149.1147
76.589787 88.671 149.0435
77.144788 88.635 148.9724
77.703811 88.599 148.9018
78.266885 88.563 148.8311
78.834039 88.528 148.7586
79.405303 88.493 148.6830
79.980706 88.457 148.6028
80.560280 88.422 148.5173
81.144053 88.386 148.4261
81.732056 88.349 148.3296
82.324320 88.310 148.2293
82.920876 88.270 148.1270
83.521755 88.229 148.0249
84.126988 88.186 147.9248
84.736607 88.142 147.8283
85.350643 88.097 147.7371
85.969129 88.051 147.6533
86.592097 88.004 147.5794
87.219579 87.957 147.5176
87.851608 87.911 147.4688
88.488217 87.866 147.4316
89.129439 87.823 147.4029
89.775308 87.781 147.3796
90.425856 87.740 147.3599
91.081119 87.699 147.3441
91.741131 87.659 147.3329
92.405925 87.618 147.3270
93.075536 87.577 147.3271
93.750000 87.535 147.3334
94.429351 87.494 147.3436
95.113625 87.453 147.3526
95.802858 87.413 147.3545
96.497085 87.372 147.3474
97.196342 87.330 147.3339
97.900667 87.287 147.3181
98.610096 87.244 147.3035
99.324665 87.202 147.2927
100.044413 87.159 147.2871
100.769376 87.117 147.2878
101.499592 87.076 147.2956
102.235100 87.035 147.3102
102.975938 86.994 147.3301
103.722144 86.955 147.3524
104.473757 86.915 147.3740
105.230817 86.876 147.3926
105.993363 86.837 147.4066
106.761435 86.798 147.4152
107.535072 86.758 147.4187
108.314315 86.718 147.4179
109.099206 86.679 147.4148
109.889783 86.639 147.4111
110.686090 86.598 147.4069
111.488167 86.558 147.4004
112.296056 86.517 147.3896
113.109800 86.474 147.3746
113.929440 86.430 147.3575
114.755020 86.383 147.3422
115.586582 86.333 147.3332
116.424170 86.282 147.3344
117.267827 86.230 147.3492
118.117598 86.178 147.3806
118.973527 86.127 147.4320
119.835658 86.079 147.5050
120.704037 86.033 147.5958
121.578708 85.992 147.6953
122.459718 85.952 147.7945
123.347111 85.914 147.8893
124.240935 85.877 147.9792
125.141236 85.839 148.0645
126.048061 85.800 148.1448
126.961458 85.761 148.2198
127.881473 85.722 148.2895
128.808154 85.682 148.3546
129.741551 85.642 148.4163
130.681712 85.602 148.4760
131.628686 85.562 148.5349
132.582521 85.521 148.5945
133.543269 85.480 148.6567
134.510979 85.439 148.7229
135.485701 85.396 148.7930
136.467486 85.353 148.8650
137.456386 85.309 148.9358
138.452451 85.265 149.0039
139.455735 85.220 149.0704
140.466288 85.174 149.1383
141.484165 85.127 149.2104
142.509418 85.080 149.2885
143.542100 85.033 149.3733
144.582265 84.985 149.4647
145.629968 84.936 149.5627
146.685262 84.886 149.6675
147.748204 84.835 149.7790
148.818849 84.782 149.8963
149.897251 84.729 150.0187
150.983469 84.675 150.1452
152.077557 84.620 150.2755
153.179574 84.566 150.4122
154.289576 84.511 150.5598
155.407622 84.457 150.7214
156.533770 84.403 150.8961
157.668078 84.350 151.0785
158.810606 84.296 151.2615
159.961413 84.241 151.4395
161.120559 84.185 151.6116
162.288105 84.127 151.7811
163.464112 84.066 151.9551
164.648640 84.003 152.1424
165.841752 83.938 152.3523
167.043510 83.871 152.5951
168.253976 83.801 152.8823
169.473213 83.728 153.2244
170.701286 83.654 153.6295
171.938258 83.580 154.1017
173.184194 83.506 154.6425
174.439158 83.434 155.2537
175.703216 83.366 155.9417
176.976434 83.304 156.7189
178.258878 83.254 157.5960
179.550615 83.222 158.5704
180.851713 83.216 159.6208
182.162239 83.241 160.7067
183.482262 83.300 161.7708
184.811850 83.390 162.7451
186.151073 83.507 163.5620
187.500000 83.642 164.1653
188.858702 83.785 164.5179
190.227250 83.927 164.6061
191.605715 84.059 164.4430
192.994169 84.172 164.0691
194.392685 84.262 163.5453
195.801334 84.326 162.9400
197.220191 84.364 162.3159
198.649330 84.379 161.7204
200.088825 84.375 161.1818
201.538751 84.355 160.7128
202.999184 84.323 160.3155
204.470200 84.284 159.9848
205.951875 84.240 159.7123
207.444287 84.192 159.4894
208.947514 84.143 159.3098
210.461634 84.093 159.1694
211.986726 84.041 159.0663
213.522869 83.987 158.9994
215.070144 83.934 158.9684
216.628631 83.880 158.9741
218.198411 83.826 159.0159
219.779567 83.775 159.0894
221.372180 83.726 159.1868
222.976334 83.680 159.2988
224.592112 83.636 159.4171
226.219600 83.594 159.5356
227.858880 83.552 159.6512
229.510039 83.511 159.7642
231.173164 83.471 159.8772
232.848340 83.430 159.9932
234.535655 83.391 160.1141
236.235197 83.352 160.2399
237.947054 83.315 160.3693
239.671317 83.278 160.5008
241.408074 83.241 160.6342
243.157416 83.204 160.7715
244.919435 83.166 160.9166
246.694223 83.127 161.0732
248.481871 83.087 161.2448
250.282473 83.048 161.4341
252.096123 83.010 161.6418
253.922915 82.975 161.8660
255.762945 82.942 162.1000
257.616309 82.913 162.3328
259.483103 82.886 162.5527
261.363424 82.861 162.7536
263.257372 82.836 162.9371
265.165043 82.810 163.1111
267.086538 82.783 163.2856
269.021957 82.754 163.4688
270.971401 82.725 163.6654
272.934972 82.696 163.8756
274.912771 82.668 164.0966
276.904902 82.642 164.3242
278.911469 82.618 164.5555
280.932577 82.595 164.7883
282.968330 82.574 165.0193
285.018835 82.556 165.2435
287.084199 82.540 165.4537
289.164530 82.525 165.6439
291.259935 82.509 165.8132
293.370525 82.491 165.9677
295.496408 82.471 166.1174
297.637697 82.448 166.2714
299.794503 82.424 166.4355
301.966937 82.398 166.6111
304.155114 82.372 166.7970
306.359147 82.346 166.9900
308.579152 82.320 167.1866
310.815244 82.294 167.3842
313.067539 82.269 167.5819
315.336156 82.242 167.7816
317.621211 82.215 167.9871
319.922826 82.187 168.2027
322.241118 82.159 168.4302
324.576210 82.132 168.6683
326.928223 82.107 168.9140
329.297280 82.082 169.1639
331.683504 82.060 169.4150
334.087019 82.038 169.6646
336.507952 82.017 169.9099
338.946427 81.997 170.1497
341.402572 81.976 170.3846
343.876516 81.954 170.6172
346.368387 81.932 170.8510
348.878315 81.910 171.0883
351.406431 81.888 171.3298
353.952867 81.865 171.5752
356.517756 81.843 171.8236
359.101230 81.822 172.0745
361.703426 81.801 172.3276
364.324478 81.780 172.5826
366.964523 81.760 172.8387
369.623699 81.740 173.0953
372.302145 81.720 173.3525
375.000000 81.700 173.6110
377.717405 81.680 173.8719
380.454501 81.661 174.1357
383.211431 81.641 174.4022
385.988339 81.622 174.6705
388.785369 81.604 174.9401
391.602668 81.585 175.2112
394.440383 81.568 175.4845
397.298660 81.551 175.7603
400.177650 81.535 176.0384
403.077502 81.520 176.3173
405.998368 81.506 176.5946
408.940400 81.493 176.8680
411.903750 81.479 177.1368
414.888575 81.465 177.4037
417.895028 81.451 177.6724
420.923268 81.437 177.9464
423.973452 81.423 178.2269
427.045738 81.410 178.5132
430.140287 81.398 178.8019
433.257261 81.387 179.0898
436.396822 81.377 179.3747
439.559133 81.367 179.6568
442.744360 81.359 179.9365
445.952668 81.352 -179.7880
449.184225 81.347 -179.5216
452.439199 81.342 -179.2704
455.717760 81.336 -179.0378
459.020079 81.328 -178.8205
462.346327 81.317 -178.6087
465.696680 81.302 -178.3910
469.071310 81.286 -178.1597
472.470394 81.268 -177.9127
475.894109 81.250 -177.6527
479.342634 81.233 -177.3850
482.816148 81.217 -177.1154
486.314833 81.200 -176.8451
489.838871 81.183 -176.5695
493.388445 81.166 -176.2812
496.963741 81.149 -175.9770
500.564945 81.133 -175.6617
504.192245 81.119 -175.3433
507.845830 81.106 -175.0290
511.525890 81.094 -174.7217
515.232618 81.082 -174.4206
518.966206 81.069 -174.1219
522.726849 81.056 -173.8201
526.514743 81.042 -173.5099
530.330086 81.028 -173.1883
534.173076 81.016 -172.8577
538.043915 81.005 -172.5230
541.942803 80.994 -172.1876
545.869944 80.985 -171.8511
549.825542 80.976 -171.5132
553.809805 80.968 -171.1760
557.822939 80.961 -170.8426
561.865154 80.955 -170.5145
565.936660 80.948 -170.1900
570.037671 80.941 -169.8651
574.168399 80.933 -169.5360
578.329060 80.926 -169.2010
582.519870 80.918 -168.8611
586.741049 80.911 -168.5167
590.992817 80.903 -168.1660
595.275394 80.896 -167.8067
599.589005 80.890 -167.4400
603.933874 80.884 -167.0707
608.310228 80.880 -166.7029
612.718295 80.876 -166.3380
617.158304 80.872 -165.9733
621.630488 80.867 -165.6027
626.135079 80.862 -165.2196
630.672311 80.858 -164.8216
635.242423 80.856 -164.4121
639.845651 80.856 -163.9967
644.482237 80.858 -163.5770
649.152421 80.862 -163.1523
653.856447 80.869 -162.7246
658.594560 80.879 -162.3016
663.367008 80.892 -161.8947
668.174039 80.906 -161.5128
673.015903 80.920 -161.1553
677.892854 80.931 -160.8139
682.805145 80.940 -160.4786
687.753032 80.946 -160.1415
692.736774 80.951 -159.7972
697.756631 80.955 -159.4422
702.812863 80.959 -159.0757
707.905735 80.963 -158.7002
713.035511 80.968 -158.3190
718.202461 80.974 -157.9348
723.406852 80.981 -157.5484
728.648956 80.989 -157.1597
733.929047 80.996 -156.7681
739.247399 81.004 -156.3728
744.604290 81.013 -155.9727
750.000000 81.021 -155.5670
755.434809 81.031 -155.1556
760.909001 81.041 -154.7390
766.422861 81.053 -154.3179
771.976677 81.065 -153.8935
777.570739 81.079 -153.4676
783.205337 81.094 -153.0409
788.880766 81.110 -152.6120
794.597321 81.126 -152.1774
800.355301 81.144 -151.7341
806.155005 81.165 -151.2828
811.996736 81.189 -150.8295
817.880799 81.217 -150.3836
823.807501 81.247 -149.9556
829.777150 81.280 -149.5545
835.790057 81.312 -149.1829
841.846536 81.344 -148.8335
847.946903 81.373 -148.4943
854.091476 81.400 -148.1554
860.280575 81.426 -147.8121
866.514523 81.450 -147.4617
872.793644 81.473 -147.1018
879.118267 81.497 -146.7338
885.488720 81.521 -146.3624
891.905336 81.547 -145.9913
898.368450 81.573 -145.6203
904.878398 81.599 -145.2467
911.435520 81.627 -144.8693
918.040157 81.656 -144.4901
924.692655 81.687 -144.1123
931.393359 81.719 -143.7396
938.142619 81.752 -143.3753
944.940787 81.786 -143.0208
951.788218 81.821 -142.6745
958.685268 81.856 -142.3331
965.632296 81.890 -141.9932
972.629666 81.925 -141.6519
979.677741 81.960 -141.3085
986.776890 81.995 -140.9641
993.927482 82.030 -140.6183
1001.129891 82.066 -140.2682
1008.384491 82.104 -139.9108
1015.691660 82.144 -139.5469
1023.051781 82.187 -139.1804
1030.465236 82.235 -138.8181
1037.932411 82.286 -138.4708
1045.453698 82.341 -138.1501
1053.029486 82.396 -137.8616
1060.660172 82.450 -137.6020
1068.346153 82.502 -137.3629
1076.087829 82.551 -137.1349
1083.885605 82.599 -136.9117
1091.739887 82.646 -136.6909
1099.651084 82.692 -136.4725
1107.619609 82.737 -136.2558
1115.645878 82.781 -136.0398
1123.730308 82.825 -135.8236
1131.873321 82.867 -135.6066
1140.075341 82.910 -135.3885
1148.336797 82.952 -135.1689
1156.658119 82.994 -134.9471
1165.039741 83.036 -134.7219
1173.482099 83.080 -134.4916
1181.985634 83.125 -134.2565
1190.550789 83.173 -134.0225
1199.178011 83.224 -133.8006
1207.867749 83.277 -133.6024
1216.620457 83.331 -133.4336
1225.436590 83.384 -133.2909
1234.316609 83.434 -133.1662
1243.260976 83.481 -133.0506
1252.270157 83.524 -132.9362
1261.344623 83.566 -132.8188
1270.484846 83.605 -132.6967
1279.691303 83.644 -132.5685
1288.964474 83.681 -132.4326
1298.304842 83.718 -132.2892
1307.712894 83.755 -132.1407
1317.189120 83.793 -131.9903
1326.734016 83.830 -131.8406
1336.348077 83.868 -131.6911
1346.031806 83.905 -131.5394
1355.785708 83.942 -131.3815
1365.610290 83.981 -131.2137
1375.506065 84.020 -131.0313
1385.473549 84.060 -130.8293
1395.513261 84.104 -130.6062
1405.625726 84.151 -130.3666
1415.811469 84.203 -130.1220
1426.071023 84.259 -129.8872
1436.404921 84.317 -129.6721
1446.813703 84.374 -129.4777
1457.297912 84.431 -129.2989
1467.858093 84.486 -129.1294
1478.494798 84.539 -128.9643
1489.208581 84.588 -128.7995
1500.000000 84.635 -128.6311
1510.869618 84.678 -128.4559
1521.818002 84.716 -128.2715
1532.845723 84.751 -128.0760
1543.953355 84.783 -127.8677
1555.141477 84.813 -127.6453
1566.410674 84.843 -127.4124
1577.761531 84.876 -127.1791
1589.194642 84.910 -126.9592
1600.710601 84.946 -126.7624
1612.310010 84.981 -126.5899
1623.993473 85.014 -126.4365
1635.761599 85.046 -126.2952
1647.615002 85.075 -126.1596
1659.554299 85.103 -126.0247
1671.580114 85.130 -125.8864
1683.693072 85.156 -125.7438
1695.893807 85.182 -125.5981
1708.182952 85.208 -125.4514
1720.561150 85.232 -125.3036
1733.029045 85.254 -125.1518
1745.587288 85.274 -124.9904
1758.236533 85.292 -124.8124
1770.977440 85.310 -124.6119
1783.810673 85.329 -124.3897
1796.736900 85.352 -124.1554
1809.756796 85.379 -123.9236
1822.871040 85.409 -123.7055
1836.080315 85.441 -123.5046
1849.385310 85.473 -123.3192
1862.786718 85.505 -123.1458
1876.285239 85.537 -122.9794
1889.881575 85.570 -122.8142
1903.576436 85.605 -122.6439
1917.370535 85.643 -122.4628
1931.264593 85.686 -122.2672
1945.259332 85.734 -122.0582
1959.355483 85.790 -121.8447
1973.553781 85.851 -121.6406
1987.854965 85.916 -121.4566
2002.259781 85.983 -121.2959
2016.768981 86.050 -121.1554
2031.383320 86.115 -121.0291
2046.103561 86.179 -120.9104
2060.930471 86.242 -120.7937
2075.864823 86.303 -120.6756
2090.907395 86.362 -120.5542
2106.058972 86.420 -120.4263
2121.320344 86.477 -120.2860
2136.692305 86.532 -120.1257
2152.175658 86.588 -119.9390
2167.771210 86.646 -119.7269
2183.479774 86.709 -119.5012
2199.302169 86.778 -119.2801
2215.239219 86.851 -119.0796
2231.291755 86.927 -118.9101
2247.460615 87.005 -118.7758
2263.746641 87.083 -118.6754
2280.150683 87.160 -118.6025
2296.673595 87.235 -118.5475
2313.316238 87.309 -118.5004
2330.079481 87.382 -118.4557
2346.964198 87.456 -118.4166
2363.971268 87.531 -118.3917
2381.101578 87.606 -118.3882
2398.356022 87.681 -118.4081
2415.735498 87.754 -118.4492
2433.240913 87.824 -118.5070
2450.873180 87.892 -118.5773
2468.633217 87.957 -118.6576
2486.521951 88.020 -118.7454
2504.540314 88.079 -118.8350
2522.689246 88.135 -118.9179
2540.969692 88.190 -118.9857
2559.382606 88.244 -119.0367
2577.928947 88.300 -119.0778
2596.609683 88.358 -119.1187
2615.425787 88.416 -119.1670
2634.378241 88.474 -119.2253
2653.468031 88.531 -119.2912
2672.696154 88.585 -119.3579
2692.063613 88.639 -119.4162
2711.571415 88.692 -119.4600
2731.220579 88.747 -119.4911
2751.012130 88.804 -119.5181
2770.947098 88.863 -119.5500
2791.026522 88.924 -119.5923
2811.251451 88.985 -119.6463
2831.622938 89.046 -119.7104
2852.142045 89.106 -119.7821
2872.809842 89.164 -119.8571
2893.627406 89.220 -119.9267
2914.595823 89.275 -119.9786
2935.716186 89.331 -120.0025
2956.989596 89.389 -119.9965
2978.417161 89.453 -119.9682
3000.000000 89.523 -119.9294
3021.739237 89.600 -119.8926
3043.636005 89.684 -119.8682
3065.691446 89.775 -119.8636
3087.906710 89.873 -119.8855
3110.282955 89.978 -119.9444
3132.821347 90.089 -120.0562
3155.523062 90.206 -120.2372
3178.389283 90.324 -120.4985
3201.421202 90.442 -120.8435
3224.620020 90.556 -121.2694
3247.986946 90.663 -121.7686
3271.523198 90.762 -122.3283
3295.230004 90.852 -122.9295
3319.108599 90.932 -123.5516
3343.160228 91.004 -124.1794
3367.386145 91.070 -124.8063
3391.787613 91.130 -125.4307
3416.365904 91.186 -126.0515
3441.122300 91.237 -126.6644
3466.058091 91.285 -127.2615
3491.174576 91.330 -127.8362
3516.473066 91.375 -128.3890
3541.954880 91.422 -128.9281
3567.621345 91.469 -129.4652
3593.473800 91.519 -130.0123
3619.513592 91.568 -130.5797
3645.742080 91.616 -131.1743
3672.160630 91.661 -131.7958
3698.770620 91.702 -132.4364
3725.573436 91.738 -133.0869
3752.570477 91.769 -133.7422
3779.763150 91.796 -134.4014
3807.152872 91.819 -135.0641
3834.741071 91.835 -135.7255
3862.529185 91.845 -136.3762
3890.518664 91.851 -137.0080
3918.710966 91.855 -137.6195
3947.107561 91.858 -138.2168
3975.709929 91.861 -138.8105
4004.519563 91.866 -139.4137
4033.537962 91.870 -140.0381
4062.766641 91.872 -140.6892
4092.207123 91.871 -141.3642
4121.860942 91.865 -142.0579
4151.729646 91.854 -142.7667
4181.814790 91.838 -143.4886
4212.117944 91.815 -144.2185
4242.640687 91.783 -144.9450
4273.384610 91.744 -145.6535
4304.351317 91.698 -146.3329
4335.542421 91.648 -146.9797
4366.959549 91.594 -147.5968
4398.604338 91.538 -148.1923
4430.478438 91.481 -148.7754
4462.583511 91.421 -149.3503
4494.921231 91.358 -149.9161
4527.493283 91.292 -150.4713
4560.301365 91.223 -151.0171
4593.347189 91.151 -151.5545
4626.632476 91.074 -152.0786
4660.158962 90.992 -152.5791
4693.928395 90.905 -153.0452
4727.942535 90.817 -153.4713
4762.203156 90.727 -153.8585
4796.712043 90.639 -154.2143
4831.470996 90.551 -154.5481
4866.481826 90.464 -154.8652
4901.746360 90.377 -155.1674
4937.266434 90.290 -155.4569
4973.043902 90.202 -155.7367
5009.080628 90.112 -156.0055
5045.378492 90.018 -156.2550
5081.939384 89.922 -156.4733
5118.765212 89.823 -156.6512
5155.857894 89.724 -156.7859
5193.219366 89.627 -156.8823
5230.851574 89.530 -156.9488
5268.756481 89.436 -156.9911
5306.936062 89.342 -157.0136
5345.392309 89.250 -157.0210
5384.127225 89.157 -157.0172
5423.142830 89.063 -157.0000
5462.441159 88.966 -156.9602
5502.024259 88.866 -156.8863
5541.894195 88.765 -156.7702
5582.053045 88.665 -156.6114
5622.502902 88.567 -156.4149
5663.245876 88.473 -156.1869
5704.284090 88.383 -155.9340
5745.619684 88.298 -155.6653
5787.254813 88.216 -155.3887
5829.191647 88.137 -155.1064
5871.432373 88.060 -154.8132
5913.979192 87.984 -154.5009
5956.834323 87.910 -154.1635
6000.000000 87.839 -153.8004
6043.478473 87.773 -153.4137
6087.272010 87.711 -153.0064
6131.382892 87.654 -152.5838
6175.813420 87.602 -152.1515
6220.565910 87.553 -151.7107
6265.642695 87.508 -151.2564
6311.046124 87.467 -150.7796
6356.778566 87.429 -150.2729
6402.842404 87.397 -149.7337
6449.240040 87.372 -149.1635
6495.973891 87.356 -148.5676
6543.046396 87.351 -147.9562
6590.460007 87.357 -147.3408
6638.217197 87.373 -146.7297
6686.320456 87.399 -146.1258
6734.772290 87.435 -145.5298
6783.575226 87.483 -144.9437
6832.731809 87.542 -144.3719
6882.244600 87.613 -143.8223
6932.116181 87.697 -143.3072
6982.349153 87.791 -142.8403
7032.946133 87.898 -142.4330
7083.909760 88.017 -142.0925
7135.242690 88.148 -141.8258
7186.947600 88.293 -141.6420
7239.027185 88.452 -141.5538
7291.484160 88.627 -141.5798
7344.321260 88.816 -141.7447
7397.541239 89.019 -142.0754
7451.146872 89.234 -142.5954
7505.140954 89.456 -143.3233
7559.526299 89.683 -144.2761
7614.305743 89.912 -145.4695
7669.482141 90.138 -146.9194
7725.058371 90.357 -148.6423
7781.037328 90.561 -150.6508
7837.421932 90.742 -152.9462
7894.215122 90.891 -155.5132
7951.419859 91.000 -158.3215
8009.039125 91.062 -161.3278
8067.075924 91.072 -164.4795
8125.533282 91.028 -167.7214
8184.414245 90.927 -170.9974
8243.721885 90.768 -174.2491
8303.459292 90.551 -177.4151
8363.629581 90.280 179.5654
8424.235888 89.957 176.7495
8485.281374 89.591 174.1842
8546.769221 89.189 171.9001
8608.702634 88.759 169.9118
8671.084842 88.309 168.2230
8733.919097 87.845 166.8317
8797.208675 87.372 165.7338
8860.956876 86.897 164.9236
8925.167022 86.425 164.3890
8989.842461 85.961 164.1095
9054.986566 85.509 164.0592
9120.602731 85.072 164.2130
9186.694378 84.651 164.5508
9253.264952 84.246 165.0593
9320.317925 83.861 165.7266
9387.856790 83.497 166.5363
9455.885071 83.155 167.4674
9524.406312 82.836 168.4982
9593.424086 82.540 169.6119
9662.941992 82.266 170.7999
9732.963653 82.016 172.0573
9803.492719 81.789 173.3763
9874.532869 81.585 174.7447
9946.087805 81.405 176.1484
10018.161257 81.247 177.5787
10090.756983 81.111 179.0345
10163.878768 80.995 -179.4841
10237.530423 80.902 -177.9816
10311.715789 80.832 -176.4677
10386.438732 80.784 -174.9525
10461.703149 80.759 -173.4402
10537.512962 80.757 -171.9319
10613.872125 80.779 -170.4321
10690.784618 80.827 -168.9529
10768.254450 80.901 -167.5103
10846.285661 81.002 -166.1166
10924.882318 81.130 -164.7794
11004.048518 81.286 -163.5089
11083.788390 81.472 -162.3227
11164.106090 81.691 -161.2460
11245.005805 81.942 -160.3038
11326.491752 82.226 -159.5199
11408.568180 82.546 -158.9217
11491.239368 82.900 -158.5463
11574.509626 83.290 -158.4404
11658.383294 83.711 -158.6535
11742.864745 84.160 -159.2337
11827.958384 84.633 -160.2294
11913.668646 85.120 -161.6904
12000.000000 85.611 -163.6639
12086.956947 86.092 -166.1841
12174.544019 86.549 -169.2661
12262.765784 86.964 -172.9031
12351.626840 87.321 -177.0661
12441.131819 87.603 178.3005
12531.285389 87.796 173.2825
12622.092249 87.889 167.9927
12713.557132 87.877 162.5600
12805.684808 87.758 157.1162
12898.480079 87.537 151.7857
12991.947783 87.222 146.6783
13086.092792 86.827 141.8806
13180.920015 86.367 137.4480
13276.434395 85.857 133.4044
13372.640911 85.312 129.7483
13469.544580 84.745 126.4598
13567.150452 84.168 123.5048
13665.463617 83.587 120.8387
13764.489200 83.009 118.4152
13864.232362 82.434 116.1940
13964.698305 81.865 114.1424
14065.892266 81.301 112.2339
14167.819519 80.740 110.4498
14270.485380 80.181 108.7822
14373.895200 79.624 107.2315
14478.054370 79.068 105.8006
14582.968320 78.514 104.4929
14688.642520 77.965 103.3142
14795.082478 77.423 102.2691
14902.293745 76.892 101.3550
15010.281908 76.379 100.5599
15119.052599 75.889 99.8632
15228.611486 75.429 99.2331
15338.964283 75.006 98.6237
15450.116741 74.627 97.9775
15562.074656 74.294 97.2283
15674.843864 74.006 96.3036
15788.430244 73.760 95.1269
15902.839718 73.546 93.6259
16018.078250 73.352 91.7418
16134.151848 73.161 89.4349
16251.066563 72.957 86.6918
16368.828491 72.721 83.5309
16487.443769 72.434 80.0029
16606.918584 72.080 76.1864
16727.259161 71.649 72.1812
16848.471777 71.130 68.1007
16970.562748 70.520 64.0599
17093.538442 69.822 60.1653
17217.405268 69.039 56.5110
17342.169684 68.181 53.1733
17467.838194 67.257 50.2065
17594.417350 66.280 47.6435
17721.913751 65.258 45.4996
17850.334044 64.201 43.7749
17979.684923 63.117 42.4571
18109.973131 62.014 41.5291
18241.205462 60.894 40.9728
18373.388756 59.760 40.7713
18506.529905 58.614 40.9124
18640.635849 57.452 41.3864
18775.713581 56.273 42.1843
18911.770141 55.074 43.3036
19048.812624 53.855 44.7535
19186.848172 52.618 46.5533
19325.883983 51.368 48.7141
19465.927305 50.119 51.2057
19606.985439 48.904 53.9298
19749.065738 47.790 56.6836
19892.175609 46.897 59.0691
20036.322514 46.387 60.5008
