* Measurement data measured by REW V5.31
* Source: EXCL: Microphone (USB Sound Device        ), MICROPHONE (Master Volume), R, volume: 0.390
* Format: 256k Log Swept Sine, 1 sweep at -5.0 dBFS with no timing reference
* Dated: Dec 5, 2024 1:22:04 AM
* REW Settings:
*  C-weighting compensation: Off
*  Target level: 75.0 dB
* Note: 
* Measurement: L Dec 5
* Smoothing: 1/12 octave
* Frequency Step: 96 ppo
* Start Frequency: 0.36621094 Hz
*
* Freq(Hz) SPL(dB) Phase(degrees)
0.366211 94.628 162.0994
0.368865 94.622 162.0809
0.371538 94.613 162.0531
0.374230 94.601 162.0181
0.376942 94.588 161.9778
0.379673 94.574 161.9335
0.382424 94.560 161.8860
0.385196 94.545 161.8359
0.387987 94.529 161.7835
0.390798 94.514 161.7290
0.393630 94.498 161.6724
0.396483 94.482 161.6138
0.399356 94.467 161.5531
0.402250 94.451 161.4904
0.405165 94.434 161.4256
0.408101 94.418 161.3588
0.411058 94.402 161.2899
0.414037 94.385 161.2188
0.417037 94.369 161.1457
0.420059 94.352 161.0704
0.423103 94.335 160.9929
0.426169 94.318 160.9132
0.429257 94.301 160.8313
0.432368 94.284 160.7473
0.435501 94.266 160.6609
0.438656 94.249 160.5723
0.441835 94.231 160.4814
0.445037 94.214 160.3883
0.448262 94.196 160.2928
0.451510 94.178 160.1950
0.454782 94.160 160.0948
0.458077 94.142 159.9923
0.461397 94.123 159.8874
0.464740 94.105 159.7801
0.468108 94.086 159.6704
0.471500 94.067 159.5582
0.474917 94.048 159.4437
0.478358 94.029 159.3267
0.481825 94.010 159.2072
0.485316 93.991 159.0853
0.488833 93.971 158.9610
0.492375 93.952 158.8341
0.495943 93.932 158.7047
0.499537 93.912 158.5729
0.503157 93.892 158.4385
0.506803 93.872 158.3017
0.510475 93.852 158.1623
0.514175 93.831 158.0205
0.517900 93.811 157.8761
0.521653 93.790 157.7292
0.525434 93.769 157.5798
0.529241 93.748 157.4280
0.533076 93.727 157.2736
0.536939 93.705 157.1168
0.540830 93.684 156.9575
0.544749 93.662 156.7957
0.548696 93.640 156.6315
0.552673 93.618 156.4649
0.556677 93.596 156.2959
0.560711 93.574 156.1245
0.564774 93.551 155.9507
0.568867 93.528 155.7747
0.572989 93.506 155.5963
0.577141 93.483 155.4156
0.581324 93.460 155.2328
0.585536 93.436 155.0477
0.589779 93.413 154.8606
0.594053 93.389 154.6713
0.598358 93.365 154.4800
0.602694 93.341 154.2867
0.607061 93.317 154.0914
0.611460 93.293 153.8944
0.615891 93.268 153.6955
0.620354 93.244 153.4949
0.624849 93.219 153.2927
0.629377 93.194 153.0889
0.633938 93.168 152.8837
0.638532 93.143 152.6771
0.643159 93.117 152.4692
0.647819 93.092 152.2602
0.652514 93.066 152.0501
0.657242 93.039 151.8392
0.662005 93.013 151.6274
0.666802 92.987 151.4150
0.671634 92.960 151.2021
0.676501 92.933 150.9888
0.681403 92.906 150.7753
0.686341 92.878 150.5618
0.691314 92.851 150.3485
0.696324 92.823 150.1354
0.701370 92.795 149.9228
0.706452 92.766 149.7108
0.711571 92.737 149.4995
0.716728 92.707 149.2887
0.721921 92.675 149.0784
0.727153 92.642 148.8681
0.732422 92.607 148.6572
0.737729 92.569 148.4449
0.743075 92.529 148.2303
0.748460 92.487 148.0125
0.753883 92.444 147.7911
0.759346 92.400 147.5656
0.764849 92.355 147.3356
0.770391 92.310 147.1010
0.775974 92.264 146.8616
0.781597 92.218 146.6174
0.787261 92.172 146.3682
0.792966 92.125 146.1140
0.798712 92.078 145.8548
0.804500 92.030 145.5904
0.810329 91.981 145.3208
0.816201 91.932 145.0460
0.822116 91.882 144.7659
0.828073 91.832 144.4805
0.834074 91.781 144.1897
0.840118 91.729 143.8935
0.846206 91.677 143.5919
0.852338 91.623 143.2849
0.858514 91.568 142.9724
0.864735 91.513 142.6543
0.871001 91.456 142.3308
0.877313 91.398 142.0018
0.883670 91.339 141.6673
0.890074 91.279 141.3273
0.896524 91.217 140.9819
0.903020 91.154 140.6310
0.909564 91.089 140.2748
0.916155 91.023 139.9133
0.922794 90.955 139.5465
0.929481 90.885 139.1746
0.936216 90.813 138.7976
0.943000 90.739 138.4158
0.949834 90.663 138.0291
0.956717 90.585 137.6378
0.963649 90.505 137.2421
0.970632 90.422 136.8421
0.977666 90.337 136.4381
0.984750 90.250 136.0304
0.991886 90.159 135.6193
0.999074 90.066 135.2050
1.006314 89.969 134.7880
1.013606 89.870 134.3686
1.020951 89.767 133.9472
1.028349 89.661 133.5244
1.035801 89.551 133.1007
1.043307 89.438 132.6766
1.050867 89.321 132.2527
1.058482 89.200 131.8297
1.066152 89.074 131.4080
1.073878 88.944 130.9884
1.081660 88.809 130.5711
1.089498 88.668 130.1565
1.097393 88.521 129.7444
1.105345 88.368 129.3345
1.113355 88.206 128.9260
1.121423 88.037 128.5184
1.129549 87.859 128.1110
1.137734 87.672 127.7031
1.145979 87.476 127.2943
1.154283 87.272 126.8840
1.162647 87.060 126.4717
1.171072 86.839 126.0571
1.179558 86.611 125.6395
1.188106 86.376 125.2185
1.196715 86.134 124.7934
1.205387 85.885 124.3638
1.214122 85.630 123.9289
1.222920 85.370 123.4881
1.231782 85.105 123.0406
1.240708 84.835 122.5855
1.249699 84.561 122.1219
1.258754 84.284 121.6489
1.267876 84.004 121.1652
1.277063 83.722 120.6698
1.286318 83.439 120.1613
1.295639 83.155 119.6381
1.305027 82.871 119.0986
1.314484 82.589 118.5411
1.324009 82.307 117.9633
1.333604 82.029 117.3632
1.343268 81.754 116.7379
1.353002 81.483 116.0848
1.362806 81.218 115.4006
1.372681 80.959 114.6815
1.382628 80.707 113.9235
1.392647 80.465 113.1218
1.402739 80.232 112.2711
1.412904 80.010 111.3654
1.423142 79.800 110.3978
1.433455 79.603 109.3606
1.443843 79.419 108.2447
1.454305 79.249 107.0397
1.464844 79.092 105.7331
1.475459 78.949 104.3093
1.486150 78.817 102.7486
1.496920 78.696 101.0250
1.507767 78.586 99.1050
1.518693 78.485 96.9449
1.529698 78.394 94.4875
1.540783 78.312 91.6576
1.551948 78.239 88.3563
1.563194 78.175 84.4529
1.574521 78.120 79.7768
1.585931 78.075 74.1112
1.597423 78.039 67.2004
1.608999 78.012 58.7911
1.620658 77.994 48.7446
1.632402 77.986 37.2281
1.644232 77.987 24.8753
1.656146 77.997 12.6747
1.668147 78.017 1.5470
1.680235 78.046 -8.0126
1.692411 78.084 -15.9465
1.704675 78.132 -22.4429
1.717028 78.190 -27.7636
1.729470 78.256 -32.1555
1.742003 78.333 -35.8223
1.754626 78.419 -38.9230
1.767341 78.515 -41.5790
1.780147 78.622 -43.8834
1.793047 78.739 -45.9079
1.806040 78.869 -47.7089
1.819128 79.013 -49.3317
1.832310 79.173 -50.8133
1.845587 79.351 -52.1835
1.858961 79.549 -53.4656
1.872432 79.767 -54.6767
1.886001 80.007 -55.8288
1.899667 80.267 -56.9302
1.913433 80.547 -57.9867
1.927299 80.844 -59.0024
1.941265 81.158 -59.9802
1.955332 81.485 -60.9225
1.969501 81.825 -61.8309
1.983773 82.175 -62.7070
1.998148 82.533 -63.5517
2.012627 82.896 -64.3661
2.027212 83.263 -65.1508
2.041902 83.630 -65.9065
2.056698 83.995 -66.6336
2.071602 84.357 -67.3326
2.086614 84.711 -68.0038
2.101734 85.056 -68.6477
2.116964 85.390 -69.2648
2.132304 85.710 -69.8558
2.147756 86.014 -70.4221
2.163320 86.302 -70.9653
2.178996 86.571 -71.4884
2.194786 86.823 -71.9949
2.210690 87.058 -72.4891
2.226710 87.278 -72.9753
2.242845 87.483 -73.4566
2.259098 87.677 -73.9351
2.275468 87.859 -74.4116
2.291957 88.030 -74.8864
2.308566 88.192 -75.3588
2.325295 88.344 -75.8280
2.342145 88.489 -76.2930
2.359117 88.626 -76.7527
2.376212 88.756 -77.2058
2.393431 88.881 -77.6511
2.410775 89.001 -78.0872
2.428244 89.116 -78.5129
2.445840 89.229 -78.9270
2.463564 89.339 -79.3282
2.481416 89.448 -79.7156
2.499397 89.557 -80.0882
2.517509 89.665 -80.4457
2.535752 89.773 -80.7882
2.554127 89.881 -81.1165
2.572635 89.987 -81.4320
2.591277 90.092 -81.7368
2.610055 90.195 -82.0325
2.628968 90.294 -82.3208
2.648019 90.390 -82.6024
2.667208 90.482 -82.8778
2.686535 90.571 -83.1474
2.706003 90.657 -83.4109
2.725612 90.739 -83.6682
2.745363 90.820 -83.9189
2.765257 90.897 -84.1626
2.785295 90.973 -84.3989
2.805478 91.048 -84.6273
2.825808 91.122 -84.8471
2.846285 91.195 -85.0579
2.866910 91.267 -85.2592
2.887685 91.340 -85.4505
2.908611 91.412 -85.6315
2.929688 91.484 -85.8021
2.950917 91.555 -85.9625
2.972301 91.625 -86.1129
2.993839 91.694 -86.2539
3.015534 91.762 -86.3859
3.037386 91.829 -86.5097
3.059396 91.894 -86.6258
3.081565 91.958 -86.7350
3.103896 92.022 -86.8378
3.126388 92.085 -86.9348
3.149043 92.147 -87.0268
3.171862 92.209 -87.1141
3.194847 92.271 -87.1972
3.217998 92.334 -87.2765
3.241317 92.397 -87.3520
3.264805 92.461 -87.4237
3.288463 92.525 -87.4911
3.312293 92.590 -87.5536
3.336295 92.656 -87.6107
3.360471 92.721 -87.6622
3.384822 92.787 -87.7085
3.409350 92.854 -87.7503
3.434056 92.920 -87.7889
3.458940 92.987 -87.8255
3.484005 93.054 -87.8618
3.509252 93.121 -87.8993
3.534681 93.188 -87.9396
3.560295 93.256 -87.9841
3.586094 93.323 -88.0341
3.612081 93.392 -88.0905
3.638255 93.460 -88.1539
3.664620 93.529 -88.2241
3.691175 93.598 -88.3007
3.717923 93.668 -88.3832
3.744864 93.738 -88.4711
3.772001 93.808 -88.5643
3.799335 93.879 -88.6630
3.826866 93.949 -88.7676
3.854597 94.020 -88.8785
3.882529 94.090 -88.9963
3.910664 94.160 -89.1219
3.939002 94.230 -89.2557
3.967546 94.298 -89.3984
3.996296 94.367 -89.5505
4.025255 94.434 -89.7123
4.054423 94.501 -89.8839
4.083804 94.567 -90.0653
4.113396 94.632 -90.2561
4.143204 94.696 -90.4559
4.173227 94.760 -90.6642
4.203468 94.823 -90.8805
4.233928 94.885 -91.1043
4.264609 94.945 -91.3352
4.295512 95.005 -91.5728
4.326639 95.063 -91.8171
4.357992 95.119 -92.0680
4.389572 95.174 -92.3260
4.421380 95.228 -92.5914
4.453419 95.280 -92.8644
4.485691 95.330 -93.1450
4.518196 95.378 -93.4325
4.550936 95.425 -93.7262
4.583914 95.471 -94.0247
4.617131 95.514 -94.3270
4.650589 95.557 -94.6318
4.684289 95.598 -94.9380
4.718233 95.637 -95.2450
4.752424 95.674 -95.5526
4.786862 95.710 -95.8609
4.821549 95.745 -96.1704
4.856488 95.777 -96.4810
4.891680 95.808 -96.7927
4.927127 95.838 -97.1050
4.962831 95.866 -97.4170
4.998794 95.893 -97.7279
5.035017 95.919 -98.0365
5.071503 95.944 -98.3423
5.108253 95.968 -98.6444
5.145270 95.991 -98.9429
5.182555 96.013 -99.2376
5.220110 96.035 -99.5289
5.257937 96.055 -99.8171
5.296038 96.075 -100.1024
5.334415 96.095 -100.3850
5.373071 96.114 -100.6649
5.412006 96.133 -100.9422
5.451224 96.153 -101.2168
5.490725 96.172 -101.4884
5.530514 96.192 -101.7570
5.570590 96.212 -102.0228
5.610957 96.233 -102.2861
5.651616 96.253 -102.5479
5.692570 96.275 -102.8089
5.733821 96.296 -103.0701
5.775370 96.319 -103.3325
5.817221 96.342 -103.5968
5.859375 96.366 -103.8633
5.901834 96.391 -104.1323
5.944602 96.417 -104.4039
5.987679 96.444 -104.6786
6.031068 96.471 -104.9572
6.074771 96.500 -105.2405
6.118792 96.529 -105.5296
6.163131 96.558 -105.8254
6.207792 96.589 -106.1286
6.252776 96.620 -106.4397
6.298086 96.651 -106.7588
6.343725 96.684 -107.0859
6.389694 96.716 -107.4210
6.435996 96.750 -107.7640
6.482634 96.783 -108.1150
6.529610 96.816 -108.4743
6.576926 96.850 -108.8419
6.624585 96.883 -109.2180
6.672590 96.916 -109.6024
6.720942 96.950 -109.9947
6.769645 96.983 -110.3942
6.818700 97.015 -110.8001
6.868111 97.048 -111.2117
6.917881 97.079 -111.6282
6.968010 97.111 -112.0492
7.018504 97.142 -112.4743
7.069362 97.172 -112.9032
7.120590 97.202 -113.3351
7.172189 97.232 -113.7689
7.224161 97.261 -114.2035
7.276511 97.290 -114.6381
7.329239 97.318 -115.0717
7.382350 97.347 -115.5039
7.435845 97.375 -115.9344
7.489729 97.403 -116.3628
7.544002 97.431 -116.7884
7.598669 97.459 -117.2107
7.653732 97.487 -117.6292
7.709194 97.515 -118.0434
7.765058 97.544 -118.4530
7.821327 97.574 -118.8582
7.878004 97.604 -119.2590
7.935091 97.635 -119.6555
7.992592 97.666 -120.0480
8.050510 97.698 -120.4365
8.108847 97.731 -120.8211
8.167607 97.766 -121.2020
8.226793 97.801 -121.5797
8.286408 97.837 -121.9546
8.346454 97.874 -122.3273
8.406936 97.912 -122.6982
8.467856 97.950 -123.0676
8.529218 97.990 -123.4358
8.591024 98.030 -123.8030
8.653278 98.072 -124.1695
8.715983 98.113 -124.5355
8.779143 98.156 -124.9014
8.842760 98.198 -125.2671
8.906839 98.241 -125.6327
8.971381 98.285 -125.9979
9.036392 98.328 -126.3625
9.101873 98.371 -126.7263
9.167829 98.415 -127.0890
9.234263 98.458 -127.4503
9.301178 98.500 -127.8098
9.368578 98.543 -128.1670
9.436467 98.585 -128.5213
9.504847 98.626 -128.8723
9.573723 98.667 -129.2194
9.643099 98.707 -129.5623
9.712976 98.745 -129.9006
9.783361 98.782 -130.2338
9.854255 98.816 -130.5616
9.925663 98.847 -130.8837
9.997588 98.876 -131.1999
10.070035 98.903 -131.5101
10.143007 98.927 -131.8143
10.216507 98.948 -132.1125
10.290540 98.969 -132.4049
10.365109 98.987 -132.6915
10.440219 99.005 -132.9727
10.515873 99.022 -133.2487
10.592076 99.038 -133.5200
10.668830 99.053 -133.7869
10.746141 99.068 -134.0498
10.824012 99.083 -134.3090
10.902447 99.098 -134.5650
10.981451 99.112 -134.8182
11.061027 99.125 -135.0690
11.141180 99.138 -135.3177
11.221913 99.150 -135.5646
11.303232 99.162 -135.8100
11.385140 99.173 -136.0543
11.467641 99.184 -136.2975
11.550741 99.194 -136.5400
11.634442 99.203 -136.7819
11.718750 99.212 -137.0233
11.803669 99.221 -137.2643
11.889203 99.229 -137.5052
11.975357 99.236 -137.7461
12.062136 99.244 -137.9871
12.149543 99.250 -138.2282
12.237583 99.256 -138.4698
12.326262 99.262 -138.7118
12.415583 99.266 -138.9546
12.505552 99.270 -139.1982
12.596172 99.273 -139.4428
12.687449 99.276 -139.6887
12.779387 99.277 -139.9360
12.871992 99.278 -140.1849
12.965268 99.278 -140.4355
13.059220 99.277 -140.6882
13.153852 99.277 -140.9431
13.249170 99.275 -141.2003
13.345179 99.274 -141.4602
13.441884 99.272 -141.7230
13.539289 99.270 -141.9887
13.637401 99.268 -142.2578
13.736223 99.266 -142.5304
13.835761 99.263 -142.8069
13.936021 99.261 -143.0873
14.037007 99.258 -143.3721
14.138725 99.255 -143.6613
14.241180 99.251 -143.9552
14.344377 99.248 -144.2540
14.448323 99.244 -144.5578
14.553021 99.241 -144.8667
14.658478 99.237 -145.1806
14.764700 99.233 -145.4994
14.871691 99.230 -145.8230
14.979457 99.226 -146.1513
15.088005 99.223 -146.4838
15.197339 99.220 -146.8204
15.307465 99.217 -147.1606
15.418389 99.215 -147.5039
15.530117 99.213 -147.8501
15.642655 99.211 -148.1987
15.756008 99.209 -148.5493
15.870182 99.208 -148.9016
15.985184 99.207 -149.2552
16.101019 99.206 -149.6099
16.217694 99.207 -149.9654
16.335214 99.207 -150.3216
16.453586 99.209 -150.6783
16.572815 99.211 -151.0352
16.692909 99.214 -151.3921
16.813872 99.218 -151.7488
16.935713 99.223 -152.1050
17.058436 99.229 -152.4604
17.182048 99.235 -152.8146
17.306556 99.242 -153.1671
17.431967 99.249 -153.5175
17.558286 99.256 -153.8654
17.685521 99.264 -154.2102
17.813677 99.272 -154.5517
17.942762 99.280 -154.8893
18.072783 99.288 -155.2228
18.203746 99.296 -155.5519
18.335658 99.304 -155.8766
18.468526 99.312 -156.1967
18.602356 99.321 -156.5123
18.737156 99.329 -156.8234
18.872934 99.337 -157.1302
19.009695 99.346 -157.4328
19.147447 99.354 -157.7314
19.286197 99.362 -158.0262
19.425953 99.369 -158.3173
19.566721 99.376 -158.6051
19.708510 99.383 -158.8898
19.851326 99.389 -159.1716
19.995177 99.394 -159.4509
20.140070 99.399 -159.7279
20.286013 99.402 -160.0031
20.433014 99.405 -160.2768
20.581080 99.407 -160.5496
20.730219 99.408 -160.8218
20.880439 99.409 -161.0939
21.031747 99.409 -161.3663
21.184152 99.408 -161.6396
21.337661 99.407 -161.9140
21.492282 99.405 -162.1901
21.648024 99.402 -162.4682
21.804895 99.399 -162.7487
21.962902 99.396 -163.0320
22.122054 99.392 -163.3186
22.282360 99.387 -163.6088
22.443827 99.382 -163.9030
22.606464 99.377 -164.2014
22.770280 99.371 -164.5045
22.935283 99.364 -164.8123
23.101481 99.358 -165.1248
23.268884 99.351 -165.4421
23.437500 99.344 -165.7638
23.607338 99.337 -166.0897
23.778406 99.329 -166.4193
23.950714 99.322 -166.7522
24.124271 99.314 -167.0880
24.299086 99.306 -167.4261
24.475167 99.299 -167.7662
24.652524 99.292 -168.1080
24.831166 99.285 -168.4511
25.011103 99.279 -168.7953
25.192344 99.273 -169.1403
25.374898 99.268 -169.4857
25.558775 99.263 -169.8310
25.743984 99.259 -170.1759
25.930536 99.255 -170.5196
26.118439 99.251 -170.8615
26.307704 99.247 -171.2009
26.498341 99.243 -171.5371
26.690359 99.240 -171.8696
26.883768 99.236 -172.1980
27.078579 99.232 -172.5220
27.274801 99.229 -172.8415
27.472446 99.225 -173.1567
27.671522 99.221 -173.4677
27.872042 99.217 -173.7751
28.074014 99.212 -174.0790
28.277450 99.207 -174.3800
28.482360 99.202 -174.6784
28.688755 99.196 -174.9744
28.896645 99.189 -175.2684
29.106042 99.181 -175.5606
29.316957 99.173 -175.8515
29.529400 99.164 -176.1415
29.743382 99.155 -176.4310
29.958915 99.145 -176.7208
30.176009 99.134 -177.0114
30.394677 99.123 -177.3037
30.614929 99.112 -177.5981
30.836778 99.100 -177.8951
31.060234 99.088 -178.1951
31.285309 99.075 -178.4983
31.512015 99.062 -178.8048
31.740364 99.048 -179.1146
31.970368 99.035 -179.4276
32.202039 99.021 -179.7439
32.435388 99.007 179.9365
32.670428 98.993 179.6139
32.907171 98.979 179.2883
33.145630 98.966 178.9600
33.385817 98.952 178.6295
33.627745 98.938 178.2974
33.871425 98.925 177.9643
34.116871 98.912 177.6307
34.364096 98.898 177.2972
34.613113 98.885 176.9645
34.863934 98.872 176.6331
35.116572 98.858 176.3035
35.371041 98.845 175.9763
35.627354 98.831 175.6521
35.885525 98.817 175.3314
36.145566 98.802 175.0145
36.407492 98.788 174.7015
36.671316 98.773 174.3922
36.937051 98.758 174.0862
37.204712 98.742 173.7831
37.474313 98.726 173.4820
37.745867 98.710 173.1826
38.019389 98.694 172.8845
38.294893 98.676 172.5874
38.572394 98.659 172.2913
38.851905 98.640 171.9963
39.133442 98.621 171.7023
39.417019 98.602 171.4092
39.702651 98.583 171.1171
39.990353 98.563 170.8256
40.280140 98.543 170.5345
40.572026 98.523 170.2436
40.866028 98.503 169.9523
41.162160 98.483 169.6604
41.460438 98.463 169.3676
41.760877 98.443 169.0738
42.063494 98.423 168.7790
42.368303 98.403 168.4833
42.675322 98.383 168.1868
42.984565 98.363 167.8899
43.296048 98.342 167.5926
43.609789 98.322 167.2952
43.925804 98.301 166.9980
44.244108 98.279 166.7012
44.564719 98.257 166.4054
44.887654 98.235 166.1109
45.212928 98.212 165.8181
45.540560 98.190 165.5269
45.870565 98.166 165.2373
46.202962 98.143 164.9490
46.537768 98.119 164.6618
46.875000 98.095 164.3755
47.214676 98.071 164.0903
47.556813 98.046 163.8064
47.901429 98.022 163.5241
48.248542 97.997 163.2437
48.598171 97.971 162.9652
48.950334 97.946 162.6890
49.305048 97.920 162.4153
49.662333 97.894 162.1447
50.022206 97.868 161.8776
50.384688 97.841 161.6143
50.749796 97.815 161.3547
51.117550 97.788 161.0979
51.487969 97.761 160.8425
51.861072 97.734 160.5869
52.236879 97.708 160.3297
52.615409 97.680 160.0704
52.996681 97.652 159.8098
53.380717 97.623 159.5493
53.767536 97.594 159.2905
54.157158 97.564 159.0349
54.549603 97.535 158.7822
54.944892 97.506 158.5316
55.343045 97.477 158.2814
55.744084 97.449 158.0299
56.148028 97.422 157.7760
56.554900 97.395 157.5193
56.964720 97.368 157.2598
57.377510 97.341 156.9978
57.793291 97.315 156.7336
58.212085 97.288 156.4677
58.633914 97.261 156.2006
59.058799 97.233 155.9331
59.486764 97.204 155.6664
59.917829 97.174 155.4021
60.352019 97.143 155.1413
60.789354 97.110 154.8851
61.229859 97.077 154.6338
61.673556 97.043 154.3870
62.120468 97.008 154.1439
62.570618 96.973 153.9032
63.024031 96.938 153.6638
63.480729 96.902 153.4250
63.940736 96.865 153.1870
64.404077 96.829 152.9506
64.870776 96.792 152.7161
65.340856 96.755 152.4837
65.814343 96.718 152.2529
66.291261 96.681 152.0229
66.771635 96.644 151.7938
67.255489 96.606 151.5661
67.742850 96.569 151.3408
68.233743 96.531 151.1186
68.728193 96.493 150.9000
69.226226 96.455 150.6849
69.727867 96.417 150.4728
70.233144 96.379 150.2630
70.742083 96.341 150.0547
71.254709 96.303 149.8471
71.771050 96.265 149.6395
72.291132 96.227 149.4315
72.814984 96.189 149.2231
73.342631 96.151 149.0153
73.874102 96.112 148.8091
74.409424 96.073 148.6058
74.948626 96.033 148.4067
75.491734 95.993 148.2123
76.038779 95.953 148.0228
76.589787 95.913 147.8379
77.144788 95.873 147.6565
77.703811 95.833 147.4765
78.266885 95.793 147.2947
78.834039 95.754 147.1083
79.405303 95.714 146.9159
79.980706 95.674 146.7173
80.560280 95.633 146.5135
81.144053 95.591 146.3052
81.732056 95.549 146.0933
82.324320 95.507 145.8785
82.920876 95.463 145.6625
83.521755 95.418 145.4477
84.126988 95.372 145.2367
84.736607 95.324 145.0316
85.350643 95.276 144.8344
85.969129 95.227 144.6468
86.592097 95.177 144.4701
87.219579 95.127 144.3037
87.851608 95.077 144.1465
88.488217 95.026 143.9974
89.129439 94.976 143.8558
89.775308 94.926 143.7210
90.425856 94.877 143.5916
91.081119 94.828 143.4657
91.741131 94.780 143.3419
92.405925 94.732 143.2194
93.075536 94.685 143.0981
93.750000 94.637 142.9784
94.429351 94.589 142.8610
95.113625 94.541 142.7462
95.802858 94.493 142.6342
96.497085 94.444 142.5247
97.196342 94.394 142.4179
97.900667 94.343 142.3153
98.610096 94.291 142.2189
99.324665 94.239 142.1299
100.044413 94.187 142.0480
100.769376 94.135 141.9717
101.499592 94.084 141.8989
102.235100 94.033 141.8278
102.975938 93.983 141.7573
103.722144 93.934 141.6866
104.473757 93.885 141.6156
105.230817 93.837 141.5441
105.993363 93.789 141.4718
106.761435 93.741 141.3979
107.535072 93.694 141.3217
108.314315 93.645 141.2430
109.099206 93.597 141.1619
109.889783 93.548 141.0783
110.686090 93.498 140.9929
111.488167 93.447 140.9062
112.296056 93.395 140.8198
113.109800 93.342 140.7364
113.929440 93.287 140.6610
114.755020 93.230 140.5991
115.586582 93.172 140.5558
116.424170 93.112 140.5344
117.267827 93.052 140.5353
118.117598 92.993 140.5548
118.973527 92.935 140.5845
119.835658 92.880 140.6137
120.704037 92.826 140.6345
121.578708 92.773 140.6456
122.459718 92.721 140.6509
123.347111 92.669 140.6545
124.240935 92.618 140.6599
125.141236 92.567 140.6693
126.048061 92.517 140.6837
126.961458 92.468 140.7022
127.881473 92.419 140.7228
128.808154 92.370 140.7432
129.741551 92.321 140.7609
130.681712 92.272 140.7748
131.628686 92.223 140.7853
132.582521 92.173 140.7935
133.543269 92.122 140.8013
134.510979 92.071 140.8104
135.485701 92.020 140.8226
136.467486 91.969 140.8396
137.456386 91.917 140.8625
138.452451 91.865 140.8921
139.455735 91.813 140.9283
140.466288 91.760 140.9702
141.484165 91.708 141.0167
142.509418 91.655 141.0664
143.542100 91.603 141.1183
144.582265 91.550 141.1717
145.629968 91.497 141.2260
146.685262 91.444 141.2815
147.748204 91.390 141.3395
148.818849 91.336 141.4017
149.897251 91.281 141.4703
150.983469 91.225 141.5476
152.077557 91.170 141.6360
153.179574 91.114 141.7372
154.289576 91.060 141.8512
155.407622 91.007 141.9756
156.533770 90.955 142.1063
157.668078 90.905 142.2380
158.810606 90.857 142.3658
159.961413 90.809 142.4865
161.120559 90.762 142.5989
162.288105 90.715 142.7042
163.464112 90.667 142.8049
164.648640 90.618 142.9043
165.841752 90.568 143.0063
167.043510 90.517 143.1145
168.253976 90.466 143.2318
169.473213 90.414 143.3604
170.701286 90.362 143.5007
171.938258 90.312 143.6515
173.184194 90.262 143.8094
174.439158 90.214 143.9707
175.703216 90.166 144.1319
176.976434 90.121 144.2900
178.258878 90.076 144.4438
179.550615 90.031 144.5936
180.851713 89.987 144.7407
182.162239 89.943 144.8864
183.482262 89.899 145.0311
184.811850 89.854 145.1747
186.151073 89.810 145.3174
187.500000 89.766 145.4593
188.858702 89.722 145.6010
190.227250 89.679 145.7435
191.605715 89.635 145.8878
192.994169 89.592 146.0358
194.392685 89.549 146.1896
195.801334 89.507 146.3516
197.220191 89.465 146.5234
198.649330 89.423 146.7051
200.088825 89.381 146.8957
201.538751 89.340 147.0930
202.999184 89.301 147.2938
204.470200 89.263 147.4938
205.951875 89.226 147.6894
207.444287 89.190 147.8778
208.947514 89.154 148.0587
210.461634 89.117 148.2340
211.986726 89.079 148.4071
213.522869 89.039 148.5828
215.070144 88.998 148.7663
216.628631 88.956 148.9622
218.198411 88.915 149.1724
219.779567 88.874 149.3954
221.372180 88.836 149.6260
222.976334 88.799 149.8583
224.592112 88.763 150.0878
226.219600 88.728 150.3126
227.858880 88.694 150.5327
229.510039 88.661 150.7490
231.173164 88.627 150.9629
232.848340 88.594 151.1748
234.535655 88.560 151.3849
236.235197 88.527 151.5926
237.947054 88.494 151.7975
239.671317 88.461 151.9999
241.408074 88.427 152.2012
243.157416 88.393 152.4036
244.919435 88.357 152.6097
246.694223 88.322 152.8223
248.481871 88.285 153.0443
250.282473 88.249 153.2791
252.096123 88.214 153.5287
253.922915 88.181 153.7921
255.762945 88.151 154.0631
257.616309 88.123 154.3315
259.483103 88.099 154.5872
261.363424 88.075 154.8250
263.257372 88.052 155.0467
265.165043 88.028 155.2592
267.086538 88.003 155.4710
269.021957 87.977 155.6892
270.971401 87.950 155.9178
272.934972 87.923 156.1573
274.912771 87.898 156.4056
276.904902 87.874 156.6604
278.911469 87.852 156.9202
280.932577 87.831 157.1826
282.968330 87.813 157.4434
285.018835 87.798 157.6960
287.084199 87.784 157.9326
289.164530 87.771 158.1468
291.259935 87.758 158.3374
293.370525 87.742 158.5101
295.496408 87.724 158.6749
297.637697 87.703 158.8419
299.794503 87.680 159.0178
301.966937 87.657 159.2048
304.155114 87.633 159.4019
306.359147 87.609 159.6061
308.579152 87.586 159.8140
310.815244 87.563 160.0223
313.067539 87.540 160.2300
315.336156 87.516 160.4385
317.621211 87.492 160.6515
319.922826 87.467 160.8725
322.241118 87.443 161.1029
324.576210 87.420 161.3406
326.928223 87.397 161.5825
329.297280 87.376 161.8253
331.683504 87.357 162.0661
334.087019 87.338 162.3027
336.507952 87.320 162.5330
338.946427 87.301 162.7567
341.402572 87.283 162.9753
343.876516 87.263 163.1913
346.368387 87.243 163.4075
348.878315 87.223 163.6255
351.406431 87.202 163.8458
353.952867 87.182 164.0679
356.517756 87.162 164.2911
359.101230 87.141 164.5148
361.703426 87.121 164.7393
364.324478 87.101 164.9645
366.964523 87.081 165.1904
369.623699 87.062 165.4171
372.302145 87.043 165.6447
375.000000 87.023 165.8739
377.717405 87.005 166.1048
380.454501 86.986 166.3372
383.211431 86.967 166.5703
385.988339 86.949 166.8040
388.785369 86.931 167.0379
391.602668 86.913 167.2720
394.440383 86.895 167.5068
397.298660 86.878 167.7428
400.177650 86.862 167.9797
403.077502 86.846 168.2158
405.998368 86.830 168.4495
408.940400 86.815 168.6802
411.903750 86.799 168.9094
414.888575 86.783 169.1400
417.895028 86.766 169.3754
420.923268 86.749 169.6183
423.973452 86.732 169.8695
427.045738 86.717 170.1274
430.140287 86.703 170.3878
433.257261 86.691 170.6458
436.396822 86.680 170.8990
439.559133 86.670 171.1472
442.744360 86.662 171.3908
445.952668 86.654 171.6274
449.184225 86.648 171.8518
452.439199 86.642 172.0581
455.717760 86.636 172.2435
459.020079 86.627 172.4120
462.346327 86.615 172.5743
465.696680 86.600 172.7421
469.071310 86.583 172.9226
472.470394 86.566 173.1174
475.894109 86.548 173.3234
479.342634 86.531 173.5347
482.816148 86.514 173.7455
486.314833 86.497 173.9537
489.838871 86.480 174.1637
493.388445 86.462 174.3826
496.963741 86.445 174.6139
500.564945 86.428 174.8531
504.192245 86.414 175.0916
507.845830 86.400 175.3214
511.525890 86.386 175.5390
515.232618 86.371 175.7460
518.966206 86.355 175.9477
522.726849 86.337 176.1514
526.514743 86.318 176.3643
530.330086 86.299 176.5905
534.173076 86.280 176.8282
538.043915 86.261 177.0721
541.942803 86.243 177.3190
545.869944 86.225 177.5684
549.825542 86.208 177.8206
553.809805 86.192 178.0740
557.822939 86.177 178.3261
561.865154 86.161 178.5754
565.936660 86.146 178.8225
570.037671 86.129 179.0700
574.168399 86.112 179.3214
578.329060 86.095 179.5782
582.519870 86.077 179.8401
586.741049 86.059 -179.8941
590.992817 86.040 -179.6227
595.275394 86.022 -179.3431
599.589005 86.005 -179.0561
603.933874 85.988 -178.7657
608.310228 85.972 -178.4762
612.718295 85.956 -178.1891
617.158304 85.940 -177.9019
621.630488 85.924 -177.6083
626.135079 85.907 -177.3014
630.672311 85.891 -176.9791
635.242423 85.876 -176.6455
639.845651 85.863 -176.3067
644.482237 85.852 -175.9649
649.152421 85.842 -175.6191
653.856447 85.834 -175.2709
658.594560 85.829 -174.9276
663.367008 85.827 -174.5999
668.174039 85.825 -174.2957
673.015903 85.823 -174.0144
677.892854 85.819 -173.7478
682.805145 85.812 -173.4863
687.753032 85.803 -173.2227
692.736774 85.792 -172.9509
697.756631 85.779 -172.6664
702.812863 85.766 -172.3677
707.905735 85.753 -172.0572
713.035511 85.741 -171.7395
718.202461 85.729 -171.4177
723.406852 85.718 -171.0926
728.648956 85.707 -170.7633
733.929047 85.697 -170.4291
739.247399 85.686 -170.0898
744.604290 85.676 -169.7453
750.000000 85.666 -169.3952
755.434809 85.656 -169.0390
760.909001 85.647 -168.6768
766.422861 85.638 -168.3089
771.976677 85.630 -167.9364
777.570739 85.622 -167.5601
783.205337 85.616 -167.1801
788.880766 85.609 -166.7952
794.597321 85.604 -166.4021
800.355301 85.601 -165.9981
806.155005 85.600 -165.5841
811.996736 85.602 -165.1654
817.880799 85.607 -164.7505
823.807501 85.615 -164.3494
829.777150 85.625 -163.9714
835.790057 85.635 -163.6196
841.846536 85.643 -163.2879
847.946903 85.649 -162.9654
854.091476 85.653 -162.6436
860.280575 85.656 -162.3179
866.514523 85.658 -161.9848
872.793644 85.659 -161.6412
879.118267 85.661 -161.2870
885.488720 85.664 -160.9264
891.905336 85.667 -160.5635
898.368450 85.671 -160.1991
904.878398 85.676 -159.8316
911.435520 85.682 -159.4602
918.040157 85.689 -159.0871
924.692655 85.698 -158.7156
931.393359 85.709 -158.3492
938.142619 85.721 -157.9919
944.940787 85.734 -157.6452
951.788218 85.747 -157.3080
958.685268 85.760 -156.9776
965.632296 85.773 -156.6514
972.629666 85.787 -156.3269
979.677741 85.800 -156.0029
986.776890 85.814 -155.6795
993.927482 85.827 -155.3554
1001.129891 85.841 -155.0262
1008.384491 85.855 -154.6881
1015.691660 85.870 -154.3421
1023.051781 85.888 -153.9933
1030.465236 85.908 -153.6492
1037.932411 85.932 -153.3210
1045.453698 85.958 -153.0202
1053.029486 85.984 -152.7519
1060.660172 86.008 -152.5120
1068.346153 86.030 -152.2914
1076.087829 86.049 -152.0802
1083.885605 86.065 -151.8721
1091.739887 86.079 -151.6646
1099.651084 86.091 -151.4575
1107.619609 86.102 -151.2496
1115.645878 86.110 -151.0395
1123.730308 86.117 -150.8254
1131.873321 86.122 -150.6059
1140.075341 86.126 -150.3797
1148.336797 86.128 -150.1456
1156.658119 86.129 -149.9029
1165.039741 86.130 -149.6500
1173.482099 86.131 -149.3849
1181.985634 86.133 -149.1075
1190.550789 86.136 -148.8229
1199.178011 86.142 -148.5417
1207.867749 86.149 -148.2754
1216.620457 86.156 -148.0291
1225.436590 86.160 -147.7989
1234.316609 86.161 -147.5757
1243.260976 86.158 -147.3501
1252.270157 86.150 -147.1134
1261.344623 86.140 -146.8603
1270.484846 86.127 -146.5878
1279.691303 86.112 -146.2934
1288.964474 86.095 -145.9742
1298.304842 86.077 -145.6297
1307.712894 86.059 -145.2619
1317.189120 86.040 -144.8737
1326.734016 86.022 -144.4665
1336.348077 86.004 -144.0387
1346.031806 85.986 -143.5864
1355.785708 85.969 -143.1049
1365.610290 85.953 -142.5893
1375.506065 85.939 -142.0341
1385.473549 85.928 -141.4334
1395.513261 85.921 -140.7853
1405.625726 85.920 -140.0950
1415.811469 85.925 -139.3746
1426.071023 85.936 -138.6394
1436.404921 85.952 -137.8988
1446.813703 85.972 -137.1535
1457.297912 85.994 -136.3977
1467.858093 86.018 -135.6251
1478.494798 86.044 -134.8315
1489.208581 86.073 -134.0144
1500.000000 86.103 -133.1724
1510.869618 86.135 -132.3044
1521.818002 86.170 -131.4104
1532.845723 86.206 -130.4913
1543.953355 86.247 -129.5492
1555.141477 86.293 -128.5881
1566.410674 86.346 -127.6168
1577.761531 86.409 -126.6515
1589.194642 86.482 -125.7115
1600.710601 86.563 -124.8107
1612.310010 86.651 -123.9531
1623.993473 86.744 -123.1368
1635.761599 86.842 -122.3577
1647.615002 86.944 -121.6129
1659.554299 87.051 -120.9013
1671.580114 87.162 -120.2233
1683.693072 87.277 -119.5817
1695.893807 87.397 -118.9814
1708.182952 87.520 -118.4275
1720.561150 87.645 -117.9221
1733.029045 87.771 -117.4639
1745.587288 87.896 -117.0485
1758.236533 88.021 -116.6695
1770.977440 88.146 -116.3214
1783.810673 88.272 -116.0049
1796.736900 88.401 -115.7288
1809.756796 88.531 -115.5058
1822.871040 88.662 -115.3443
1836.080315 88.791 -115.2446
1849.385310 88.917 -115.2020
1862.786718 89.040 -115.2093
1876.285239 89.158 -115.2582
1889.881575 89.272 -115.3393
1903.576436 89.384 -115.4431
1917.370535 89.494 -115.5607
1931.264593 89.604 -115.6852
1945.259332 89.715 -115.8143
1959.355483 89.827 -115.9536
1973.553781 89.940 -116.1132
1987.854965 90.052 -116.3006
2002.259781 90.161 -116.5162
2016.768981 90.266 -116.7550
2031.383320 90.365 -117.0100
2046.103561 90.459 -117.2738
2060.930471 90.547 -117.5403
2075.864823 90.630 -117.8064
2090.907395 90.709 -118.0702
2106.058972 90.782 -118.3286
2121.320344 90.850 -118.5757
2136.692305 90.912 -118.8028
2152.175658 90.970 -119.0012
2167.771210 91.026 -119.1680
2183.479774 91.082 -119.3094
2199.302169 91.138 -119.4371
2215.239219 91.194 -119.5607
2231.291755 91.250 -119.6851
2247.460615 91.305 -119.8105
2263.746641 91.358 -119.9337
2280.150683 91.409 -120.0488
2296.673595 91.459 -120.1481
2313.316238 91.509 -120.2253
2330.079481 91.561 -120.2798
2346.964198 91.615 -120.3196
2363.971268 91.674 -120.3582
2381.101578 91.734 -120.4066
2398.356022 91.797 -120.4702
2415.735498 91.860 -120.5493
2433.240913 91.922 -120.6418
2450.873180 91.984 -120.7453
2468.633217 92.044 -120.8586
2486.521951 92.104 -120.9795
2504.540314 92.161 -121.1026
2522.689246 92.217 -121.2188
2540.969692 92.272 -121.3196
2559.382606 92.328 -121.4029
2577.928947 92.387 -121.4755
2596.609683 92.449 -121.5472
2615.425787 92.514 -121.6262
2634.378241 92.580 -121.7165
2653.468031 92.647 -121.8174
2672.696154 92.715 -121.9238
2692.063613 92.784 -122.0288
2711.571415 92.856 -122.1291
2731.220579 92.932 -122.2293
2751.012130 93.014 -122.3417
2770.947098 93.100 -122.4792
2791.026522 93.190 -122.6520
2811.251451 93.283 -122.8659
2831.622938 93.379 -123.1239
2852.142045 93.475 -123.4282
2872.809842 93.571 -123.7792
2893.627406 93.666 -124.1739
2914.595823 93.759 -124.6049
2935.716186 93.852 -125.0667
2956.989596 93.944 -125.5605
2978.417161 94.038 -126.0941
3000.000000 94.131 -126.6774
3021.739237 94.224 -127.3179
3043.636005 94.314 -128.0184
3065.691446 94.401 -128.7763
3087.906710 94.483 -129.5867
3110.282955 94.562 -130.4489
3132.821347 94.638 -131.3687
3155.523062 94.709 -132.3554
3178.389283 94.774 -133.4169
3201.421202 94.830 -134.5577
3224.620020 94.875 -135.7781
3247.986946 94.905 -137.0747
3271.523198 94.919 -138.4379
3295.230004 94.913 -139.8506
3319.108599 94.885 -141.2902
3343.160228 94.836 -142.7353
3367.386145 94.764 -144.1681
3391.787613 94.670 -145.5717
3416.365904 94.553 -146.9271
3441.122300 94.411 -148.2093
3466.058091 94.246 -149.3868
3491.174576 94.059 -150.4270
3516.473066 93.852 -151.3022
3541.954880 93.629 -151.9930
3567.621345 93.395 -152.4858
3593.473800 93.153 -152.7718
3619.513592 92.907 -152.8467
3645.742080 92.660 -152.7101
3672.160630 92.417 -152.3616
3698.770620 92.181 -151.8003
3725.573436 91.958 -151.0298
3752.570477 91.752 -150.0658
3779.763150 91.568 -148.9351
3807.152872 91.408 -147.6707
3834.741071 91.275 -146.3038
3862.529185 91.170 -144.8604
3890.518664 91.093 -143.3670
3918.710966 91.046 -141.8554
3947.107561 91.028 -140.3624
3975.709929 91.040 -138.9245
4004.519563 91.077 -137.5749
4033.537962 91.137 -136.3389
4062.766641 91.213 -135.2297
4092.207123 91.302 -134.2478
4121.860942 91.401 -133.3887
4151.729646 91.506 -132.6491
4181.814790 91.616 -132.0267
4212.117944 91.726 -131.5152
4242.640687 91.835 -131.1007
4273.384610 91.942 -130.7664
4304.351317 92.046 -130.4993
4335.542421 92.148 -130.2941
4366.959549 92.249 -130.1516
4398.604338 92.348 -130.0766
4430.478438 92.444 -130.0739
4462.583511 92.536 -130.1421
4494.921231 92.622 -130.2741
4527.493283 92.702 -130.4625
4560.301365 92.776 -130.7025
4593.347189 92.842 -130.9892
4626.632476 92.900 -131.3128
4660.158962 92.948 -131.6581
4693.928395 92.989 -132.0106
4727.942535 93.022 -132.3618
4762.203156 93.050 -132.7106
4796.712043 93.074 -133.0618
4831.470996 93.093 -133.4207
4866.481826 93.108 -133.7872
4901.746360 93.117 -134.1570
4937.266434 93.120 -134.5268
4973.043902 93.116 -134.8945
5009.080628 93.105 -135.2541
5045.378492 93.087 -135.5928
5081.939384 93.061 -135.8948
5118.765212 93.030 -136.1483
5155.857894 92.995 -136.3490
5193.219366 92.958 -136.5013
5230.851574 92.922 -136.6126
5268.756481 92.885 -136.6884
5306.936062 92.849 -136.7323
5345.392309 92.812 -136.7495
5384.127225 92.775 -136.7446
5423.142830 92.737 -136.7162
5462.441159 92.696 -136.6561
5502.024259 92.654 -136.5542
5541.894195 92.612 -136.4045
5582.053045 92.573 -136.2086
5622.502902 92.538 -135.9748
5663.245876 92.509 -135.7122
5704.284090 92.486 -135.4312
5745.619684 92.470 -135.1442
5787.254813 92.459 -134.8625
5829.191647 92.453 -134.5911
5871.432373 92.450 -134.3273
5913.979192 92.449 -134.0645
5956.834323 92.452 -133.7978
6000.000000 92.458 -133.5266
6043.478473 92.468 -133.2534
6087.272010 92.484 -132.9821
6131.382892 92.505 -132.7192
6175.813420 92.530 -132.4722
6220.565910 92.559 -132.2447
6265.642695 92.591 -132.0342
6311.046124 92.625 -131.8341
6356.778566 92.661 -131.6382
6402.842404 92.701 -131.4442
6449.240040 92.745 -131.2529
6495.973891 92.795 -131.0681
6543.046396 92.850 -130.8967
6590.460007 92.911 -130.7463
6638.217197 92.977 -130.6209
6686.320456 93.049 -130.5208
6734.772290 93.125 -130.4455
6783.575226 93.208 -130.3972
6832.731809 93.298 -130.3811
6882.244600 93.393 -130.4058
6932.116181 93.494 -130.4837
6982.349153 93.601 -130.6276
7032.946133 93.711 -130.8474
7083.909760 93.826 -131.1478
7135.242690 93.944 -131.5331
7186.947600 94.066 -132.0098
7239.027185 94.191 -132.5881
7291.484160 94.321 -133.2828
7344.321260 94.452 -134.1124
7397.541239 94.582 -135.0938
7451.146872 94.708 -136.2373
7505.140954 94.826 -137.5449
7559.526299 94.931 -139.0122
7614.305743 95.021 -140.6298
7669.482141 95.092 -142.3854
7725.058371 95.142 -144.2672
7781.037328 95.169 -146.2620
7837.421932 95.168 -148.3512
7894.215122 95.137 -150.5079
7951.419859 95.073 -152.6996
8009.039125 94.976 -154.8904
8067.075924 94.847 -157.0459
8125.533282 94.686 -159.1386
8184.414245 94.497 -161.1482
8243.721885 94.280 -163.0570
8303.459292 94.037 -164.8457
8363.629581 93.768 -166.4928
8424.235888 93.475 -167.9756
8485.281374 93.163 -169.2750
8546.769221 92.835 -170.3805
8608.702634 92.493 -171.2900
8671.084842 92.142 -172.0030
8733.919097 91.782 -172.5164
8797.208675 91.415 -172.8210
8860.956876 91.043 -172.9027
8925.167022 90.669 -172.7475
8989.842461 90.295 -172.3451
9054.986566 89.926 -171.6857
9120.602731 89.565 -170.7553
9186.694378 89.217 -169.5325
9253.264952 88.887 -167.9901
9320.317925 88.586 -166.1050
9387.856790 88.326 -163.8727
9455.885071 88.122 -161.3184
9524.406312 87.991 -158.5043
9593.424086 87.945 -155.5331
9662.941992 87.994 -152.5455
9732.963653 88.141 -149.7142
9803.492719 88.378 -147.2238
9874.532869 88.686 -145.2374
9946.087805 89.040 -143.8630
10018.161257 89.411 -143.1349
10090.756983 89.774 -143.0167
10163.878768 90.107 -143.4223
10237.530423 90.394 -144.2370
10311.715789 90.629 -145.3331
10386.438732 90.806 -146.5797
10461.703149 90.929 -147.8505
10537.512962 91.006 -149.0353
10613.872125 91.047 -150.0522
10690.784618 91.065 -150.8527
10768.254450 91.075 -151.4186
10846.285661 91.088 -151.7522
10924.882318 91.115 -151.8703
11004.048518 91.166 -151.8045
11083.788390 91.250 -151.6010
11164.106090 91.373 -151.3173
11245.005805 91.541 -151.0134
11326.491752 91.755 -150.7475
11408.568180 92.020 -150.5803
11491.239368 92.336 -150.5806
11574.509626 92.703 -150.8265
11658.383294 93.117 -151.3998
11742.864745 93.572 -152.3816
11827.958384 94.061 -153.8531
11913.668646 94.571 -155.8958
12000.000000 95.085 -158.5835
12086.956947 95.583 -161.9697
12174.544019 96.042 -166.0761
12262.765784 96.438 -170.8859
12351.626840 96.747 -176.3392
12441.131819 96.947 177.6736
12531.285389 97.020 171.3140
12622.092249 96.955 164.7856
12713.557132 96.752 158.3111
12805.684808 96.414 152.1027
12898.480079 95.956 146.3391
12991.947783 95.395 141.1537
13086.092792 94.753 136.6291
13180.920015 94.053 132.7979
13276.434395 93.317 129.6490
13372.640911 92.567 127.1419
13469.544580 91.818 125.2175
13567.150452 91.087 123.8057
13665.463617 90.383 122.8293
13764.489200 89.714 122.2119
13864.232362 89.084 121.8851
13964.698305 88.496 121.7887
14065.892266 87.952 121.8666
14167.819519 87.451 122.0679
14270.485380 86.993 122.3505
14373.895200 86.578 122.6797
14478.054370 86.202 123.0236
14582.968320 85.866 123.3529
14688.642520 85.568 123.6438
14795.082478 85.307 123.8730
14902.293745 85.084 124.0117
15010.281908 84.898 124.0260
15119.052599 84.749 123.8819
15228.611486 84.634 123.5498
15338.964283 84.551 123.0066
15450.116741 84.497 122.2370
15562.074656 84.468 121.2288
15674.843864 84.463 119.9668
15788.430244 84.475 118.4284
15902.839718 84.501 116.5881
16018.078250 84.533 114.4230
16134.151848 84.566 111.9133
16251.066563 84.593 109.0412
16368.828491 84.607 105.7904
16487.443769 84.600 102.1452
16606.918584 84.564 98.0895
16727.259161 84.487 93.6122
16848.471777 84.353 88.7183
16970.562748 84.141 83.4411
17093.538442 83.826 77.8649
17217.405268 83.380 72.1571
17342.169684 82.776 66.5893
17467.838194 82.005 61.5146
17594.417350 81.079 57.2713
17721.913751 80.042 54.0452
17850.334044 78.948 51.7967
17979.684923 77.853 50.3114
18109.973131 76.790 49.3201
18241.205462 75.776 48.6012
18373.388756 74.806 48.0234
18506.529905 73.865 47.5403
18640.635849 72.939 47.1601
18775.713581 72.014 46.9160
18911.770141 71.081 46.8493
19048.812624 70.133 46.9982
19186.848172 69.168 47.3900
19325.883983 68.192 48.0373
19465.927305 67.221 48.9331
19606.985439 66.289 50.0333
19749.065738 65.458 51.2256
19892.175609 64.819 52.2985
20036.322514 64.466 52.9568
