* Measurement data measured by REW V5.31
* Source: EXCL: Microphone (USB Sound Device        ), MICROPHONE (Master Volume), R, volume: 0.390
* Format: 256k Log Swept Sine, 1 sweep at -15.0 dBFS with no timing reference
* Dated: Jan 2, 2025 6:32:23 PM
* REW Settings:
*  C-weighting compensation: Off
*  Target level: 75.0 dB
* Note: 7hz Timeless 2 Silver Bullet
* Measurement: L Timeless 2 Silver Bullet
* Smoothing: 1/12 octave
* Frequency Step: 96 ppo
* Start Frequency: 0.36621094 Hz
*
* Freq(Hz) SPL(dB) Phase(degrees)
0.366211 95.184 156.9185
0.368865 95.177 156.8946
0.371538 95.166 156.8587
0.374230 95.154 156.8136
0.376942 95.139 156.7615
0.379673 95.124 156.7042
0.382424 95.108 156.6428
0.385196 95.092 156.5780
0.387987 95.075 156.5101
0.390798 95.058 156.4395
0.393630 95.041 156.3660
0.396483 95.023 156.2899
0.399356 95.006 156.2111
0.402250 94.988 156.1296
0.405165 94.971 156.0454
0.408101 94.953 155.9585
0.411058 94.935 155.8687
0.414037 94.917 155.7762
0.417037 94.899 155.6808
0.420059 94.880 155.5826
0.423103 94.862 155.4815
0.426169 94.843 155.3775
0.429257 94.825 155.2706
0.432368 94.806 155.1606
0.435501 94.787 155.0477
0.438656 94.768 154.9318
0.441835 94.748 154.8129
0.445037 94.729 154.6908
0.448262 94.709 154.5657
0.451510 94.690 154.4374
0.454782 94.670 154.3060
0.458077 94.650 154.1715
0.461397 94.630 154.0337
0.464740 94.609 153.8928
0.468108 94.589 153.7486
0.471500 94.568 153.6011
0.474917 94.548 153.4504
0.478358 94.527 153.2964
0.481825 94.506 153.1391
0.485316 94.485 152.9784
0.488833 94.463 152.8144
0.492375 94.442 152.6471
0.495943 94.420 152.4763
0.499537 94.398 152.3022
0.503157 94.376 152.1248
0.506803 94.354 151.9439
0.510475 94.332 151.7596
0.514175 94.310 151.5719
0.517900 94.287 151.3808
0.521653 94.264 151.1863
0.525434 94.241 150.9884
0.529241 94.218 150.7871
0.533076 94.195 150.5824
0.536939 94.172 150.3743
0.540830 94.148 150.1628
0.544749 94.124 149.9480
0.548696 94.100 149.7298
0.552673 94.076 149.5083
0.556677 94.052 149.2835
0.560711 94.027 149.0554
0.564774 94.003 148.8241
0.568867 93.978 148.5895
0.572989 93.953 148.3519
0.577141 93.928 148.1110
0.581324 93.902 147.8671
0.585536 93.877 147.6202
0.589779 93.851 147.3703
0.594053 93.825 147.1175
0.598358 93.799 146.8619
0.602694 93.773 146.6035
0.607061 93.746 146.3424
0.611460 93.720 146.0787
0.615891 93.693 145.8125
0.620354 93.666 145.5438
0.624849 93.638 145.2729
0.629377 93.611 144.9998
0.633938 93.583 144.7245
0.638532 93.555 144.4473
0.643159 93.527 144.1683
0.647819 93.499 143.8876
0.652514 93.471 143.6054
0.657242 93.442 143.3219
0.662005 93.413 143.0371
0.666802 93.384 142.7513
0.671634 93.355 142.4647
0.676501 93.325 142.1774
0.681403 93.295 141.8897
0.686341 93.265 141.6019
0.691314 93.235 141.3140
0.696324 93.205 141.0264
0.701370 93.174 140.7393
0.706452 93.142 140.4527
0.711571 93.110 140.1668
0.716728 93.077 139.8815
0.721921 93.043 139.5965
0.727153 93.006 139.3114
0.732422 92.967 139.0251
0.737729 92.925 138.7366
0.743075 92.881 138.4446
0.748460 92.834 138.1480
0.753883 92.786 137.8459
0.759346 92.737 137.5379
0.764849 92.686 137.2233
0.770391 92.635 136.9019
0.775974 92.583 136.5736
0.781597 92.531 136.2380
0.787261 92.478 135.8951
0.792966 92.424 135.5448
0.798712 92.370 135.1868
0.804500 92.315 134.8212
0.810329 92.260 134.4477
0.816201 92.203 134.0663
0.822116 92.146 133.6769
0.828073 92.088 133.2794
0.834074 92.029 132.8737
0.840118 91.969 132.4596
0.846206 91.908 132.0371
0.852338 91.847 131.6062
0.858514 91.784 131.1667
0.864735 91.719 130.7186
0.871001 91.654 130.2618
0.877313 91.587 129.7963
0.883670 91.520 129.3220
0.890074 91.450 128.8389
0.896524 91.379 128.3470
0.903020 91.307 127.8464
0.909564 91.233 127.3369
0.916155 91.158 126.8187
0.922794 91.080 126.2918
0.929481 91.001 125.7563
0.936216 90.920 125.2123
0.943000 90.837 124.6598
0.949834 90.752 124.0992
0.956717 90.664 123.5304
0.963649 90.575 122.9538
0.970632 90.483 122.3697
0.977666 90.389 121.7781
0.984750 90.292 121.1796
0.991886 90.192 120.5744
0.999074 90.090 119.9630
1.006314 89.985 119.3458
1.013606 89.877 118.7233
1.020951 89.765 118.0961
1.028349 89.651 117.4648
1.035801 89.533 116.8301
1.043307 89.412 116.1926
1.050867 89.287 115.5532
1.058482 89.158 114.9127
1.066152 89.026 114.2716
1.073878 88.888 113.6306
1.081660 88.746 112.9901
1.089498 88.598 112.3501
1.097393 88.444 111.7099
1.105345 88.283 111.0684
1.113355 88.113 110.4240
1.121423 87.935 109.7751
1.129549 87.747 109.1200
1.137734 87.549 108.4572
1.145979 87.341 107.7851
1.154283 87.123 107.1025
1.162647 86.897 106.4078
1.171072 86.661 105.6996
1.179558 86.418 104.9764
1.188106 86.166 104.2365
1.196715 85.906 103.4782
1.205387 85.640 102.6994
1.214122 85.368 101.8982
1.222920 85.090 101.0722
1.231782 84.806 100.2189
1.240708 84.519 99.3355
1.249699 84.228 98.4192
1.258754 83.934 97.4664
1.267876 83.639 96.4737
1.277063 83.342 95.4369
1.286318 83.045 94.3518
1.295639 82.749 93.2133
1.305027 82.454 92.0161
1.314484 82.162 90.7544
1.324009 81.874 89.4215
1.333604 81.591 88.0104
1.343268 81.314 86.5131
1.353002 81.044 84.9212
1.362806 80.783 83.2254
1.372681 80.532 81.4156
1.382628 80.293 79.4812
1.392647 80.066 77.4109
1.402739 79.854 75.1932
1.412904 79.658 72.8159
1.423142 79.480 70.2671
1.433455 79.321 67.5346
1.443843 79.182 64.6060
1.454305 79.065 61.4683
1.464844 78.970 58.1071
1.475459 78.897 54.5062
1.486150 78.846 50.6491
1.496920 78.816 46.5216
1.507767 78.808 42.1148
1.518693 78.820 37.4295
1.529698 78.851 32.4790
1.540783 78.901 27.2920
1.551948 78.970 21.9138
1.563194 79.055 16.4054
1.574521 79.156 10.8397
1.585931 79.273 5.2959
1.597423 79.405 -0.1483
1.608999 79.550 -5.4233
1.620658 79.707 -10.4726
1.632402 79.876 -15.2560
1.644232 80.055 -19.7493
1.656146 80.242 -23.9425
1.668147 80.438 -27.8372
1.680235 80.640 -31.4433
1.692411 80.848 -34.7762
1.704675 81.059 -37.8544
1.717028 81.272 -40.6980
1.729470 81.487 -43.3272
1.742003 81.701 -45.7617
1.754626 81.914 -48.0204
1.767341 82.123 -50.1208
1.780147 82.329 -52.0800
1.793047 82.530 -53.9143
1.806040 82.727 -55.6399
1.819128 82.920 -57.2731
1.832310 83.110 -58.8301
1.845587 83.300 -60.3263
1.858961 83.492 -61.7749
1.872432 83.687 -63.1855
1.886001 83.886 -64.5645
1.899667 84.090 -65.9155
1.913433 84.298 -67.2406
1.927299 84.510 -68.5404
1.941265 84.727 -69.8149
1.955332 84.946 -71.0637
1.969501 85.168 -72.2862
1.983773 85.392 -73.4817
1.998148 85.617 -74.6492
2.012627 85.842 -75.7880
2.027212 86.066 -76.8972
2.041902 86.289 -77.9760
2.056698 86.510 -79.0235
2.071602 86.727 -80.0390
2.086614 86.940 -81.0217
2.101734 87.148 -81.9713
2.116964 87.350 -82.8875
2.132304 87.544 -83.7705
2.147756 87.731 -84.6212
2.163320 87.910 -85.4417
2.178996 88.080 -86.2354
2.194786 88.240 -87.0070
2.210690 88.392 -87.7626
2.226710 88.535 -88.5081
2.242845 88.670 -89.2484
2.259098 88.797 -89.9865
2.275468 88.916 -90.7240
2.291957 89.029 -91.4611
2.308566 89.134 -92.1974
2.325295 89.234 -92.9316
2.342145 89.328 -93.6622
2.359117 89.416 -94.3876
2.376212 89.499 -95.1057
2.393431 89.578 -95.8144
2.410775 89.653 -96.5117
2.428244 89.724 -97.1954
2.445840 89.792 -97.8630
2.463564 89.858 -98.5125
2.481416 89.921 -99.1419
2.499397 89.982 -99.7494
2.517509 90.042 -100.3340
2.535752 90.100 -100.8956
2.554127 90.157 -101.4352
2.572635 90.211 -101.9551
2.591277 90.262 -102.4585
2.610055 90.310 -102.9482
2.628968 90.354 -103.4267
2.648019 90.394 -103.8956
2.667208 90.430 -104.3556
2.686535 90.462 -104.8070
2.706003 90.491 -105.2494
2.725612 90.517 -105.6823
2.745363 90.540 -106.1047
2.765257 90.561 -106.5155
2.785295 90.579 -106.9136
2.805478 90.597 -107.2973
2.825808 90.612 -107.6653
2.846285 90.627 -108.0158
2.866910 90.642 -108.3472
2.887685 90.656 -108.6581
2.908611 90.670 -108.9472
2.929688 90.684 -109.2136
2.950917 90.696 -109.4570
2.972301 90.707 -109.6776
2.993839 90.717 -109.8760
3.015534 90.725 -110.0532
3.037386 90.732 -110.2103
3.059396 90.737 -110.3483
3.081565 90.741 -110.4685
3.103896 90.745 -110.5722
3.126388 90.749 -110.6606
3.149043 90.752 -110.7350
3.171862 90.757 -110.7964
3.194847 90.763 -110.8458
3.217998 90.771 -110.8840
3.241317 90.781 -110.9111
3.264805 90.793 -110.9266
3.288463 90.808 -110.9295
3.312293 90.825 -110.9181
3.336295 90.845 -110.8907
3.360471 90.867 -110.8467
3.384822 90.891 -110.7865
3.409350 90.917 -110.7118
3.434056 90.944 -110.6253
3.458940 90.974 -110.5301
3.484005 91.005 -110.4300
3.509252 91.039 -110.3290
3.534681 91.074 -110.2309
3.560295 91.111 -110.1397
3.586094 91.151 -110.0584
3.612081 91.192 -109.9897
3.638255 91.236 -109.9347
3.664620 91.283 -109.8936
3.691175 91.332 -109.8653
3.717923 91.385 -109.8485
3.744864 91.439 -109.8423
3.772001 91.497 -109.8467
3.799335 91.556 -109.8623
3.826866 91.618 -109.8904
3.854597 91.680 -109.9327
3.882529 91.743 -109.9910
3.910664 91.807 -110.0675
3.939002 91.871 -110.1639
3.967546 91.934 -110.2822
3.996296 91.996 -110.4237
4.025255 92.058 -110.5895
4.054423 92.119 -110.7798
4.083804 92.179 -110.9942
4.113396 92.239 -111.2318
4.143204 92.299 -111.4913
4.173227 92.357 -111.7711
4.203468 92.415 -112.0696
4.233928 92.471 -112.3852
4.264609 92.526 -112.7165
4.295512 92.578 -113.0627
4.326639 92.627 -113.4231
4.357992 92.674 -113.7981
4.389572 92.717 -114.1883
4.421380 92.758 -114.5950
4.453419 92.795 -115.0189
4.485691 92.829 -115.4598
4.518196 92.860 -115.9164
4.550936 92.888 -116.3863
4.583914 92.913 -116.8663
4.617131 92.935 -117.3531
4.650589 92.954 -117.8434
4.684289 92.969 -118.3345
4.718233 92.981 -118.8245
4.752424 92.990 -119.3128
4.786862 92.995 -119.7999
4.821549 92.996 -120.2868
4.856488 92.994 -120.7739
4.891680 92.988 -121.2608
4.927127 92.979 -121.7458
4.962831 92.967 -122.2264
4.998794 92.953 -122.6999
5.035017 92.936 -123.1630
5.071503 92.917 -123.6130
5.108253 92.896 -124.0478
5.145270 92.874 -124.4663
5.182555 92.849 -124.8684
5.220110 92.822 -125.2544
5.257937 92.794 -125.6249
5.296038 92.765 -125.9802
5.334415 92.735 -126.3205
5.373071 92.704 -126.6454
5.412006 92.675 -126.9545
5.451224 92.646 -127.2468
5.490725 92.618 -127.5212
5.530514 92.592 -127.7771
5.570590 92.568 -128.0143
5.610957 92.545 -128.2341
5.651616 92.524 -128.4387
5.692570 92.505 -128.6311
5.733821 92.489 -128.8146
5.775370 92.476 -128.9923
5.817221 92.466 -129.1665
5.859375 92.460 -129.3388
5.901834 92.458 -129.5096
5.944602 92.460 -129.6797
5.987679 92.466 -129.8507
6.031068 92.475 -130.0251
6.074771 92.488 -130.2066
6.118792 92.504 -130.3990
6.163131 92.523 -130.6060
6.207792 92.544 -130.8301
6.252776 92.569 -131.0730
6.298086 92.596 -131.3352
6.343725 92.625 -131.6166
6.389694 92.657 -131.9174
6.435996 92.690 -132.2378
6.482634 92.724 -132.5784
6.529610 92.759 -132.9399
6.576926 92.793 -133.3230
6.624585 92.828 -133.7279
6.672590 92.862 -134.1543
6.720942 92.895 -134.6007
6.769645 92.928 -135.0646
6.818700 92.959 -135.5435
6.868111 92.989 -136.0346
6.917881 93.017 -136.5358
6.968010 93.043 -137.0457
7.018504 93.067 -137.5632
7.069362 93.088 -138.0870
7.120590 93.108 -138.6145
7.172189 93.125 -139.1427
7.224161 93.140 -139.6680
7.276511 93.154 -140.1872
7.329239 93.166 -140.6979
7.382350 93.176 -141.1984
7.435845 93.184 -141.6879
7.489729 93.191 -142.1649
7.544002 93.198 -142.6281
7.598669 93.203 -143.0756
7.653732 93.209 -143.5057
7.709194 93.215 -143.9172
7.765058 93.221 -144.3095
7.821327 93.228 -144.6828
7.878004 93.237 -145.0381
7.935091 93.246 -145.3765
7.992592 93.258 -145.6990
8.050510 93.271 -146.0067
8.108847 93.287 -146.3002
8.167607 93.305 -146.5811
8.226793 93.326 -146.8510
8.286408 93.349 -147.1125
8.346454 93.375 -147.3683
8.406936 93.403 -147.6206
8.467856 93.433 -147.8712
8.529218 93.466 -148.1214
8.591024 93.501 -148.3725
8.653278 93.537 -148.6259
8.715983 93.574 -148.8829
8.779143 93.613 -149.1448
8.842760 93.651 -149.4122
8.906839 93.691 -149.6852
8.971381 93.730 -149.9632
9.036392 93.769 -150.2455
9.101873 93.807 -150.5315
9.167829 93.844 -150.8201
9.234263 93.879 -151.1106
9.301178 93.914 -151.4016
9.368578 93.946 -151.6916
9.436467 93.978 -151.9787
9.504847 94.007 -152.2612
9.573723 94.034 -152.5378
9.643099 94.059 -152.8074
9.712976 94.082 -153.0689
9.783361 94.102 -153.3213
9.854255 94.119 -153.5636
9.925663 94.132 -153.7952
9.997588 94.142 -154.0158
10.070035 94.150 -154.2258
10.143007 94.154 -154.4254
10.216507 94.157 -154.6152
10.290540 94.158 -154.7960
10.365109 94.157 -154.9685
10.440219 94.156 -155.1338
10.515873 94.153 -155.2932
10.592076 94.150 -155.4481
10.668830 94.146 -155.5996
10.746141 94.143 -155.7487
10.824012 94.138 -155.8964
10.902447 94.133 -156.0436
10.981451 94.128 -156.1912
11.061027 94.121 -156.3396
11.141180 94.114 -156.4893
11.221913 94.106 -156.6404
11.303232 94.096 -156.7930
11.385140 94.086 -156.9471
11.467641 94.074 -157.1027
11.550741 94.061 -157.2595
11.634442 94.047 -157.4176
11.718750 94.032 -157.5768
11.803669 94.016 -157.7370
11.889203 94.000 -157.8985
11.975357 93.982 -158.0616
12.062136 93.965 -158.2266
12.149543 93.946 -158.3939
12.237583 93.928 -158.5641
12.326262 93.908 -158.7380
12.415583 93.888 -158.9161
12.505552 93.867 -159.0991
12.596172 93.846 -159.2877
12.687449 93.824 -159.4823
12.779387 93.801 -159.6833
12.871992 93.777 -159.8909
12.965268 93.752 -160.1054
13.059220 93.727 -160.3265
13.153852 93.701 -160.5541
13.249170 93.675 -160.7879
13.345179 93.648 -161.0275
13.441884 93.621 -161.2725
13.539289 93.594 -161.5226
13.637401 93.567 -161.7775
13.736223 93.540 -162.0372
13.835761 93.513 -162.3017
13.936021 93.487 -162.5711
14.037007 93.461 -162.8459
14.138725 93.436 -163.1266
14.241180 93.411 -163.4139
14.344377 93.388 -163.7082
14.448323 93.365 -164.0103
14.553021 93.343 -164.3205
14.658478 93.322 -164.6392
14.764700 93.303 -164.9663
14.871691 93.284 -165.3015
14.979457 93.265 -165.6441
15.088005 93.248 -165.9932
15.197339 93.231 -166.3476
15.307465 93.216 -166.7057
15.418389 93.200 -167.0659
15.530117 93.186 -167.4267
15.642655 93.172 -167.7865
15.756008 93.159 -168.1439
15.870182 93.147 -168.4978
15.985184 93.136 -168.8474
16.101019 93.127 -169.1923
16.217694 93.119 -169.5323
16.335214 93.113 -169.8677
16.453586 93.109 -170.1988
16.572815 93.107 -170.5261
16.692909 93.106 -170.8500
16.813872 93.107 -171.1709
16.935713 93.109 -171.4887
17.058436 93.112 -171.8032
17.182048 93.116 -172.1138
17.306556 93.121 -172.4196
17.431967 93.125 -172.7194
17.558286 93.129 -173.0118
17.685521 93.133 -173.2954
17.813677 93.136 -173.5688
17.942762 93.139 -173.8310
18.072783 93.141 -174.0810
18.203746 93.143 -174.3185
18.335658 93.144 -174.5435
18.468526 93.146 -174.7565
18.602356 93.147 -174.9583
18.737156 93.148 -175.1501
18.872934 93.148 -175.3331
19.009695 93.149 -175.5087
19.147447 93.149 -175.6785
19.286197 93.149 -175.8435
19.425953 93.148 -176.0049
19.566721 93.146 -176.1637
19.708510 93.143 -176.3204
19.851326 93.138 -176.4758
19.995177 93.132 -176.6304
20.140070 93.124 -176.7847
20.286013 93.115 -176.9390
20.433014 93.104 -177.0941
20.581080 93.091 -177.2504
20.730219 93.077 -177.4086
20.880439 93.062 -177.5694
21.031747 93.045 -177.7332
21.184152 93.028 -177.9008
21.337661 93.009 -178.0727
21.492282 92.990 -178.2495
21.648024 92.969 -178.4316
21.804895 92.948 -178.6195
21.962902 92.927 -178.8139
22.122054 92.905 -179.0150
22.282360 92.882 -179.2233
22.443827 92.859 -179.4391
22.606464 92.837 -179.6624
22.770280 92.814 -179.8933
22.935283 92.791 179.8686
23.101481 92.769 179.6239
23.268884 92.746 179.3734
23.437500 92.725 179.1180
23.607338 92.704 178.8586
23.778406 92.684 178.5962
23.950714 92.665 178.3314
24.124271 92.647 178.0647
24.299086 92.631 177.7965
24.475167 92.616 177.5268
24.652524 92.603 177.2557
24.831166 92.591 176.9833
25.011103 92.581 176.7098
25.192344 92.572 176.4356
25.374898 92.565 176.1616
25.558775 92.558 175.8887
25.743984 92.552 175.6180
25.930536 92.546 175.3511
26.118439 92.540 175.0893
26.307704 92.534 174.8339
26.498341 92.528 174.5861
26.690359 92.522 174.3471
26.883768 92.515 174.1178
27.078579 92.508 173.8987
27.274801 92.499 173.6903
27.472446 92.491 173.4922
27.671522 92.481 173.3040
27.872042 92.471 173.1245
28.074014 92.460 172.9521
28.277450 92.449 172.7849
28.482360 92.437 172.6208
28.688755 92.423 172.4582
28.896645 92.409 172.2952
29.106042 92.393 172.1309
29.316957 92.376 171.9648
29.529400 92.357 171.7966
29.743382 92.337 171.6266
29.958915 92.315 171.4548
30.176009 92.293 171.2811
30.394677 92.269 171.1047
30.614929 92.246 170.9247
30.836778 92.222 170.7399
31.060234 92.198 170.5489
31.285309 92.175 170.3507
31.512015 92.151 170.1449
31.740364 92.127 169.9315
31.970368 92.104 169.7113
32.202039 92.080 169.4854
32.435388 92.057 169.2554
32.670428 92.034 169.0226
32.907171 92.012 168.7885
33.145630 91.990 168.5538
33.385817 91.969 168.3191
33.627745 91.949 168.0847
33.871425 91.930 167.8508
34.116871 91.911 167.6182
34.364096 91.893 167.3878
34.613113 91.874 167.1614
34.863934 91.856 166.9408
35.116572 91.837 166.7280
35.371041 91.818 166.5244
35.627354 91.799 166.3301
35.885525 91.780 166.1439
36.145566 91.761 165.9632
36.407492 91.743 165.7849
36.671316 91.724 165.6063
36.937051 91.705 165.4255
37.204712 91.684 165.2426
37.474313 91.662 165.0588
37.745867 91.638 164.8763
38.019389 91.613 164.6968
38.294893 91.586 164.5209
38.572394 91.560 164.3475
38.851905 91.533 164.1746
39.133442 91.505 164.0000
39.417019 91.478 163.8223
39.702651 91.451 163.6419
39.990353 91.423 163.4601
40.280140 91.394 163.2789
40.572026 91.366 163.0996
40.866028 91.338 162.9226
41.162160 91.312 162.7473
41.460438 91.285 162.5733
41.760877 91.259 162.4008
42.063494 91.233 162.2316
42.368303 91.208 162.0680
42.675322 91.182 161.9114
42.984565 91.158 161.7613
43.296048 91.134 161.6145
43.609789 91.112 161.4664
43.925804 91.089 161.3128
44.244108 91.066 161.1525
44.564719 91.040 160.9876
44.887654 91.013 160.8235
45.212928 90.983 160.6657
45.540560 90.951 160.5178
45.870565 90.919 160.3796
46.202962 90.887 160.2473
46.537768 90.856 160.1156
46.875000 90.825 159.9799
47.214676 90.795 159.8376
47.556813 90.764 159.6885
47.901429 90.734 159.5336
48.248542 90.703 159.3736
48.598171 90.673 159.2087
48.950334 90.642 159.0391
49.305048 90.612 158.8658
49.662333 90.580 158.6915
50.022206 90.547 158.5201
50.384688 90.513 158.3569
50.749796 90.478 158.2075
51.117550 90.442 158.0773
51.487969 90.406 157.9699
51.861072 90.371 157.8858
52.236879 90.338 157.8211
52.615409 90.307 157.7679
52.996681 90.280 157.7166
53.380717 90.254 157.6590
53.767536 90.229 157.5912
54.157158 90.203 157.5138
54.549603 90.176 157.4306
54.944892 90.147 157.3456
55.343045 90.118 157.2613
55.744084 90.088 157.1780
56.148028 90.058 157.0950
56.554900 90.028 157.0117
56.964720 89.997 156.9286
57.377510 89.965 156.8488
57.793291 89.933 156.7765
58.212085 89.901 156.7166
58.633914 89.870 156.6717
59.058799 89.840 156.6397
59.486764 89.814 156.6142
59.917829 89.790 156.5863
60.352019 89.769 156.5480
60.789354 89.749 156.4943
61.229859 89.729 156.4235
61.673556 89.709 156.3362
62.120468 89.688 156.2335
62.570618 89.665 156.1177
63.024031 89.640 155.9918
63.480729 89.614 155.8596
63.940736 89.585 155.7245
64.404077 89.556 155.5887
64.870776 89.525 155.4526
65.340856 89.495 155.3157
65.814343 89.464 155.1768
66.291261 89.433 155.0352
66.771635 89.401 154.8910
67.255489 89.368 154.7461
67.742850 89.334 154.6047
68.233743 89.298 154.4716
68.728193 89.262 154.3514
69.226226 89.225 154.2464
69.727867 89.188 154.1558
70.233144 89.152 154.0771
70.742083 89.116 154.0073
71.254709 89.082 153.9442
71.771050 89.049 153.8861
72.291132 89.018 153.8292
72.814984 88.989 153.7666
73.342631 88.960 153.6909
73.874102 88.932 153.5989
74.409424 88.902 153.4949
74.948626 88.870 153.3877
75.491734 88.837 153.2850
76.038779 88.803 153.1886
76.589787 88.771 153.0959
77.144788 88.739 153.0042
77.703811 88.708 152.9125
78.266885 88.677 152.8211
78.834039 88.647 152.7302
79.405303 88.618 152.6404
79.980706 88.587 152.5538
80.560280 88.557 152.4739
81.144053 88.525 152.4034
81.732056 88.492 152.3440
82.324320 88.459 152.2946
82.920876 88.426 152.2503
83.521755 88.393 152.2022
84.126988 88.359 152.1401
84.736607 88.324 152.0561
85.350643 88.286 151.9459
85.969129 88.244 151.8101
86.592097 88.197 151.6558
87.219579 88.145 151.4974
87.851608 88.087 151.3560
88.488217 88.027 151.2534
89.129439 87.969 151.2010
89.775308 87.916 151.1895
90.425856 87.872 151.1915
91.081119 87.833 151.1819
91.741131 87.795 151.1567
92.405925 87.758 151.1288
93.075536 87.719 151.1108
93.750000 87.679 151.1060
94.429351 87.639 151.1123
95.113625 87.599 151.1261
95.802858 87.560 151.1419
96.497085 87.521 151.1547
97.196342 87.483 151.1620
97.900667 87.445 151.1634
98.610096 87.408 151.1582
99.324665 87.370 151.1471
100.044413 87.332 151.1332
100.769376 87.293 151.1218
101.499592 87.253 151.1172
102.235100 87.214 151.1204
102.975938 87.174 151.1288
103.722144 87.136 151.1391
104.473757 87.098 151.1486
105.230817 87.061 151.1559
105.993363 87.025 151.1603
106.761435 86.990 151.1632
107.535072 86.956 151.1677
108.314315 86.921 151.1763
109.099206 86.887 151.1891
109.889783 86.852 151.2037
110.686090 86.817 151.2141
111.488167 86.779 151.2125
112.296056 86.740 151.1923
113.109800 86.697 151.1515
113.929440 86.651 151.0923
114.755020 86.601 151.0200
115.586582 86.550 150.9436
116.424170 86.497 150.8765
117.267827 86.444 150.8347
118.117598 86.392 150.8345
118.973527 86.343 150.8895
119.835658 86.299 151.0026
120.704037 86.262 151.1584
121.578708 86.229 151.3312
122.459718 86.198 151.5025
123.347111 86.166 151.6648
124.240935 86.133 151.8137
125.141236 86.097 151.9463
126.048061 86.060 152.0621
126.961458 86.021 152.1623
127.881473 85.981 152.2505
128.808154 85.942 152.3326
129.741551 85.903 152.4140
130.681712 85.865 152.4984
131.628686 85.829 152.5855
132.582521 85.794 152.6718
133.543269 85.759 152.7527
134.510979 85.724 152.8248
135.485701 85.687 152.8866
136.467486 85.649 152.9420
137.456386 85.610 152.9977
138.452451 85.569 153.0596
139.455735 85.528 153.1309
140.466288 85.487 153.2123
141.484165 85.446 153.3026
142.509418 85.407 153.3994
143.542100 85.368 153.4995
144.582265 85.330 153.5993
145.629968 85.292 153.6965
146.685262 85.253 153.7915
147.748204 85.214 153.8884
148.818849 85.172 153.9950
149.897251 85.129 154.1202
150.983469 85.084 154.2698
152.077557 85.038 154.4449
153.179574 84.992 154.6412
154.289576 84.948 154.8508
155.407622 84.904 155.0645
156.533770 84.861 155.2739
157.668078 84.820 155.4740
158.810606 84.779 155.6650
159.961413 84.740 155.8503
161.120559 84.702 156.0330
162.288105 84.667 156.2150
163.464112 84.635 156.4006
164.648640 84.604 156.5977
165.841752 84.575 156.8145
167.043510 84.547 157.0579
168.253976 84.521 157.3330
169.473213 84.497 157.6368
170.701286 84.477 157.9546
171.938258 84.460 158.2640
173.184194 84.447 158.5430
174.439158 84.435 158.7789
175.703216 84.425 158.9713
176.976434 84.414 159.1270
178.258878 84.403 159.2537
179.550615 84.392 159.3585
180.851713 84.380 159.4458
182.162239 84.367 159.5183
183.482262 84.353 159.5784
184.811850 84.338 159.6286
186.151073 84.323 159.6690
187.500000 84.306 159.6978
188.858702 84.289 159.7149
190.227250 84.269 159.7256
191.605715 84.246 159.7380
192.994169 84.219 159.7592
194.392685 84.189 159.7940
195.801334 84.156 159.8452
197.220191 84.122 159.9137
198.649330 84.087 160.0004
200.088825 84.051 160.1062
201.538751 84.016 160.2298
202.999184 83.983 160.3666
204.470200 83.951 160.5096
205.951875 83.921 160.6523
207.444287 83.891 160.7903
208.947514 83.862 160.9223
210.461634 83.831 161.0500
211.986726 83.799 161.1770
213.522869 83.766 161.3083
215.070144 83.731 161.4498
216.628631 83.694 161.6066
218.198411 83.658 161.7816
219.779567 83.622 161.9727
221.372180 83.588 162.1734
222.976334 83.556 162.3763
224.592112 83.525 162.5758
226.219600 83.494 162.7687
227.858880 83.464 162.9550
229.510039 83.434 163.1367
231.173164 83.405 163.3167
232.848340 83.376 163.4968
234.535655 83.347 163.6775
236.235197 83.317 163.8579
237.947054 83.288 164.0369
239.671317 83.258 164.2142
241.408074 83.228 164.3917
243.157416 83.197 164.5728
244.919435 83.166 164.7617
246.694223 83.135 164.9630
248.481871 83.104 165.1804
250.282473 83.073 165.4158
252.096123 83.044 165.6695
253.922915 83.016 165.9397
255.762945 82.991 166.2194
257.616309 82.968 166.4958
259.483103 82.948 166.7540
261.363424 82.928 166.9856
263.257372 82.908 167.1936
265.165043 82.887 167.3895
267.086538 82.864 167.5867
269.021957 82.840 167.7950
270.971401 82.816 168.0185
272.934972 82.793 168.2556
274.912771 82.771 168.5021
276.904902 82.750 168.7534
278.911469 82.731 169.0074
280.932577 82.714 169.2630
282.968330 82.699 169.5182
285.018835 82.687 169.7686
287.084199 82.676 170.0073
289.164530 82.667 170.2281
291.259935 82.656 170.4289
293.370525 82.643 170.6140
295.496408 82.627 170.7921
297.637697 82.609 170.9721
299.794503 82.588 171.1604
301.966937 82.566 171.3602
304.155114 82.544 171.5719
306.359147 82.523 171.7932
308.579152 82.502 172.0200
310.815244 82.481 172.2480
313.067539 82.460 172.4747
315.336156 82.438 172.7013
317.621211 82.416 172.9316
319.922826 82.393 173.1705
322.241118 82.371 173.4204
324.576210 82.350 173.6803
326.928223 82.330 173.9471
329.297280 82.312 174.2176
331.683504 82.295 174.4890
334.087019 82.278 174.7592
336.507952 82.262 175.0260
338.946427 82.246 175.2886
341.402572 82.229 175.5473
343.876516 82.212 175.8041
346.368387 82.193 176.0619
348.878315 82.175 176.3229
351.406431 82.157 176.5878
353.952867 82.139 176.8561
356.517756 82.122 177.1268
359.101230 82.105 177.3996
361.703426 82.089 177.6751
364.324478 82.073 177.9538
366.964523 82.057 178.2354
369.623699 82.042 178.5193
372.302145 82.026 178.8046
375.000000 82.011 179.0907
377.717405 81.997 179.3772
380.454501 81.983 179.6642
383.211431 81.969 179.9523
385.988339 81.956 -179.7573
388.785369 81.943 -179.4636
391.602668 81.930 -179.1660
394.440383 81.918 -178.8649
397.298660 81.906 -178.5620
400.177650 81.895 -178.2592
403.077502 81.885 -177.9584
405.998368 81.875 -177.6608
408.940400 81.865 -177.3656
411.903750 81.855 -177.0702
414.888575 81.844 -176.7703
417.895028 81.832 -176.4624
420.923268 81.821 -176.1447
423.973452 81.810 -175.8171
427.045738 81.801 -175.4815
430.140287 81.794 -175.1416
433.257261 81.788 -174.8024
436.396822 81.784 -174.4675
439.559133 81.782 -174.1388
442.744360 81.781 -173.8167
445.952668 81.781 -173.5028
449.184225 81.783 -173.2005
452.439199 81.785 -172.9150
455.717760 81.787 -172.6493
459.020079 81.787 -172.3997
462.346327 81.784 -172.1558
465.696680 81.777 -171.9061
469.071310 81.769 -171.6430
472.470394 81.760 -171.3644
475.894109 81.751 -171.0727
479.342634 81.744 -170.7730
482.816148 81.737 -170.4705
486.314833 81.729 -170.1666
489.838871 81.721 -169.8578
493.388445 81.712 -169.5376
496.963741 81.703 -169.2029
500.564945 81.696 -168.8571
504.192245 81.691 -168.5079
507.845830 81.687 -168.1621
511.525890 81.685 -167.8223
515.232618 81.683 -167.4869
518.966206 81.681 -167.1519
522.726849 81.678 -166.8134
526.514743 81.675 -166.4675
530.330086 81.673 -166.1128
534.173076 81.672 -165.7521
538.043915 81.672 -165.3900
541.942803 81.673 -165.0289
545.869944 81.675 -164.6673
549.825542 81.677 -164.3037
553.809805 81.681 -163.9388
557.822939 81.685 -163.5756
561.865154 81.690 -163.2166
565.936660 81.695 -162.8620
570.037671 81.700 -162.5091
574.168399 81.704 -162.1541
578.329060 81.709 -161.7953
582.519870 81.713 -161.4335
586.741049 81.718 -161.0689
590.992817 81.722 -160.6991
595.275394 81.728 -160.3210
599.589005 81.734 -159.9344
603.933874 81.741 -159.5432
608.310228 81.749 -159.1513
612.718295 81.758 -158.7608
617.158304 81.766 -158.3700
621.630488 81.774 -157.9734
626.135079 81.782 -157.5649
630.672311 81.792 -157.1425
635.242423 81.805 -156.7104
639.845651 81.819 -156.2748
644.482237 81.836 -155.8377
649.152421 81.855 -155.3975
653.856447 81.877 -154.9553
658.594560 81.902 -154.5180
663.367008 81.930 -154.0964
668.174039 81.959 -153.6988
673.015903 81.988 -153.3245
677.892854 82.015 -152.9657
682.805145 82.040 -152.6130
687.753032 82.063 -152.2595
692.736774 82.084 -151.8999
697.756631 82.105 -151.5306
702.812863 82.126 -151.1507
707.905735 82.147 -150.7624
713.035511 82.170 -150.3696
718.202461 82.193 -149.9749
723.406852 82.217 -149.5780
728.648956 82.242 -149.1778
733.929047 82.268 -148.7729
739.247399 82.294 -148.3633
744.604290 82.322 -147.9490
750.000000 82.350 -147.5302
755.434809 82.379 -147.1071
760.909001 82.410 -146.6799
766.422861 82.441 -146.2494
771.976677 82.474 -145.8163
777.570739 82.509 -145.3817
783.205337 82.545 -144.9457
788.880766 82.582 -144.5070
794.597321 82.621 -144.0623
800.355301 82.661 -143.6093
806.155005 82.705 -143.1500
811.996736 82.752 -142.6910
817.880799 82.803 -142.2418
823.807501 82.858 -141.8120
829.777150 82.914 -141.4100
835.790057 82.971 -141.0377
841.846536 83.027 -140.6885
847.946903 83.081 -140.3519
854.091476 83.134 -140.0203
860.280575 83.186 -139.6906
866.514523 83.238 -139.3606
872.793644 83.289 -139.0277
879.118267 83.342 -138.6925
885.488720 83.395 -138.3592
891.905336 83.450 -138.0320
898.368450 83.505 -137.7118
904.878398 83.561 -137.3969
911.435520 83.619 -137.0860
918.040157 83.678 -136.7802
924.692655 83.738 -136.4818
931.393359 83.799 -136.1941
938.142619 83.861 -135.9206
944.940787 83.923 -135.6626
951.788218 83.985 -135.4181
958.685268 84.046 -135.1838
965.632296 84.106 -134.9559
972.629666 84.166 -134.7308
979.677741 84.226 -134.5070
986.776890 84.285 -134.2842
993.927482 84.344 -134.0614
1001.129891 84.403 -133.8347
1008.384491 84.463 -133.6006
1015.691660 84.524 -133.3598
1023.051781 84.588 -133.1166
1030.465236 84.655 -132.8787
1037.932411 84.725 -132.6578
1045.453698 84.797 -132.4660
1053.029486 84.868 -132.3083
1060.660172 84.939 -132.1803
1068.346153 85.006 -132.0729
1076.087829 85.070 -131.9763
1083.885605 85.132 -131.8835
1091.739887 85.192 -131.7915
1099.651084 85.250 -131.6989
1107.619609 85.307 -131.6036
1115.645878 85.361 -131.5032
1123.730308 85.415 -131.3952
1131.873321 85.466 -131.2776
1140.075341 85.517 -131.1485
1148.336797 85.566 -131.0069
1156.658119 85.615 -130.8514
1165.039741 85.665 -130.6797
1173.482099 85.715 -130.4890
1181.985634 85.768 -130.2786
1190.550789 85.824 -130.0539
1199.178011 85.884 -129.8253
1207.867749 85.948 -129.6047
1216.620457 86.013 -129.3980
1225.436590 86.080 -129.2018
1234.316609 86.145 -129.0079
1243.260976 86.211 -128.8084
1252.270157 86.276 -128.5971
1261.344623 86.343 -128.3717
1270.484846 86.412 -128.1326
1279.691303 86.484 -127.8801
1288.964474 86.559 -127.6148
1298.304842 86.638 -127.3391
1307.712894 86.721 -127.0581
1317.189120 86.810 -126.7777
1326.734016 86.904 -126.5028
1336.348077 87.002 -126.2360
1346.031806 87.106 -125.9781
1355.785708 87.216 -125.7293
1365.610290 87.331 -125.4904
1375.506065 87.452 -125.2611
1385.473549 87.579 -125.0402
1395.513261 87.713 -124.8296
1405.625726 87.852 -124.6358
1415.811469 87.999 -124.4708
1426.071023 88.150 -124.3480
1436.404921 88.305 -124.2752
1446.813703 88.461 -124.2510
1457.297912 88.618 -124.2686
1467.858093 88.774 -124.3212
1478.494798 88.929 -124.4041
1489.208581 89.084 -124.5145
1500.000000 89.237 -124.6507
1510.869618 89.388 -124.8116
1521.818002 89.538 -124.9972
1532.845723 89.686 -125.2092
1543.953355 89.834 -125.4510
1555.141477 89.982 -125.7290
1566.410674 90.133 -126.0541
1577.761531 90.288 -126.4439
1589.194642 90.444 -126.9179
1600.710601 90.600 -127.4894
1612.310010 90.753 -128.1622
1623.993473 90.900 -128.9321
1635.761599 91.038 -129.7904
1647.615002 91.166 -130.7261
1659.554299 91.283 -131.7268
1671.580114 91.388 -132.7780
1683.693072 91.481 -133.8657
1695.893807 91.561 -134.9772
1708.182952 91.629 -136.1003
1720.561150 91.685 -137.2224
1733.029045 91.728 -138.3303
1745.587288 91.762 -139.4125
1758.236533 91.786 -140.4593
1770.977440 91.805 -141.4657
1783.810673 91.822 -142.4348
1796.736900 91.838 -143.3799
1809.756796 91.856 -144.3199
1822.871040 91.875 -145.2717
1836.080315 91.892 -146.2448
1849.385310 91.907 -147.2436
1862.786718 91.919 -148.2689
1876.285239 91.927 -149.3189
1889.881575 91.930 -150.3888
1903.576436 91.929 -151.4719
1917.370535 91.924 -152.5603
1931.264593 91.917 -153.6472
1945.259332 91.908 -154.7288
1959.355483 91.897 -155.8085
1973.553781 91.884 -156.8936
1987.854965 91.868 -157.9893
2002.259781 91.845 -159.0948
2016.768981 91.814 -160.2046
2031.383320 91.775 -161.3108
2046.103561 91.728 -162.4052
2060.930471 91.671 -163.4806
2075.864823 91.607 -164.5321
2090.907395 91.534 -165.5569
2106.058972 91.453 -166.5509
2121.320344 91.364 -167.5083
2136.692305 91.266 -168.4203
2152.175658 91.162 -169.2786
2167.771210 91.051 -170.0798
2183.479774 90.937 -170.8299
2199.302169 90.821 -171.5397
2215.239219 90.702 -172.2183
2231.291755 90.578 -172.8695
2247.460615 90.450 -173.4921
2263.746641 90.317 -174.0802
2280.150683 90.177 -174.6249
2296.673595 90.032 -175.1148
2313.316238 89.881 -175.5390
2330.079481 89.728 -175.8911
2346.964198 89.574 -176.1725
2363.971268 89.420 -176.3905
2381.101578 89.267 -176.5514
2398.356022 89.115 -176.6572
2415.735498 88.964 -176.7057
2433.240913 88.814 -176.6926
2450.873180 88.666 -176.6136
2468.633217 88.520 -176.4662
2486.521951 88.379 -176.2485
2504.540314 88.244 -175.9578
2522.689246 88.117 -175.5915
2540.969692 88.001 -175.1524
2559.382606 87.900 -174.6564
2577.928947 87.817 -174.1345
2596.609683 87.751 -173.6245
2615.425787 87.701 -173.1613
2634.378241 87.663 -172.7699
2653.468031 87.632 -172.4610
2672.696154 87.605 -172.2315
2692.063613 87.576 -172.0676
2711.571415 87.545 -171.9515
2731.220579 87.511 -171.8695
2751.012130 87.473 -171.8123
2770.947098 87.432 -171.7714
2791.026522 87.386 -171.7367
2811.251451 87.337 -171.6981
2831.622938 87.287 -171.6481
2852.142045 87.236 -171.5850
2872.809842 87.185 -171.5116
2893.627406 87.135 -171.4317
2914.595823 87.087 -171.3481
2935.716186 87.041 -171.2644
2956.989596 86.998 -171.1887
2978.417161 86.956 -171.1311
3000.000000 86.914 -171.0987
3021.739237 86.870 -171.0918
3043.636005 86.822 -171.1025
3065.691446 86.768 -171.1162
3087.906710 86.710 -171.1160
3110.282955 86.648 -171.0900
3132.821347 86.583 -171.0353
3155.523062 86.519 -170.9560
3178.389283 86.454 -170.8585
3201.421202 86.389 -170.7481
3224.620020 86.324 -170.6287
3247.986946 86.259 -170.5026
3271.523198 86.192 -170.3686
3295.230004 86.123 -170.2196
3319.108599 86.053 -170.0466
3343.160228 85.983 -169.8457
3367.386145 85.914 -169.6204
3391.787613 85.848 -169.3783
3416.365904 85.784 -169.1263
3441.122300 85.722 -168.8659
3466.058091 85.660 -168.5919
3491.174576 85.598 -168.2970
3516.473066 85.538 -167.9779
3541.954880 85.481 -167.6365
3567.621345 85.425 -167.2780
3593.473800 85.372 -166.9073
3619.513592 85.319 -166.5280
3645.742080 85.267 -166.1409
3672.160630 85.213 -165.7395
3698.770620 85.157 -165.3095
3725.573436 85.100 -164.8346
3752.570477 85.043 -164.3041
3779.763150 84.989 -163.7144
3807.152872 84.940 -163.0672
3834.741071 84.897 -162.3655
3862.529185 84.863 -161.6127
3890.518664 84.838 -160.8183
3918.710966 84.826 -160.0014
3947.107561 84.828 -159.1874
3975.709929 84.843 -158.4028
4004.519563 84.871 -157.6702
4033.537962 84.907 -157.0058
4062.766641 84.950 -156.4152
4092.207123 84.996 -155.8940
4121.860942 85.045 -155.4342
4151.729646 85.094 -155.0312
4181.814790 85.144 -154.6830
4212.117944 85.192 -154.3864
4242.640687 85.238 -154.1323
4273.384610 85.280 -153.9082
4304.351317 85.320 -153.7057
4335.542421 85.358 -153.5233
4366.959549 85.395 -153.3655
4398.604338 85.432 -153.2409
4430.478438 85.467 -153.1574
4462.583511 85.499 -153.1165
4494.921231 85.527 -153.1129
4527.493283 85.550 -153.1409
4560.301365 85.568 -153.1964
4593.347189 85.580 -153.2753
4626.632476 85.584 -153.3673
4660.158962 85.581 -153.4569
4693.928395 85.572 -153.5290
4727.942535 85.558 -153.5738
4762.203156 85.542 -153.5888
4796.712043 85.525 -153.5782
4831.470996 85.508 -153.5484
4866.481826 85.492 -153.5029
4901.746360 85.477 -153.4435
4937.266434 85.464 -153.3742
4973.043902 85.451 -153.3024
5009.080628 85.439 -153.2325
5045.378492 85.426 -153.1614
5081.939384 85.413 -153.0821
5118.765212 85.399 -152.9887
5155.857894 85.387 -152.8810
5193.219366 85.376 -152.7655
5230.851574 85.368 -152.6520
5268.756481 85.362 -152.5482
5306.936062 85.357 -152.4601
5345.392309 85.353 -152.3949
5384.127225 85.346 -152.3579
5423.142830 85.336 -152.3468
5462.441159 85.319 -152.3513
5502.024259 85.297 -152.3578
5541.894195 85.270 -152.3552
5582.053045 85.238 -152.3393
5622.502902 85.203 -152.3107
5663.245876 85.166 -152.2707
5704.284090 85.125 -152.2207
5745.619684 85.081 -152.1629
5787.254813 85.033 -152.0970
5829.191647 84.979 -152.0157
5871.432373 84.918 -151.9034
5913.979192 84.851 -151.7404
5956.834323 84.780 -151.5085
6000.000000 84.706 -151.1948
6043.478473 84.633 -150.7906
6087.272010 84.563 -150.2918
6131.382892 84.500 -149.7013
6175.813420 84.447 -149.0286
6220.565910 84.406 -148.2853
6265.642695 84.378 -147.4825
6311.046124 84.365 -146.6326
6356.778566 84.368 -145.7526
6402.842404 84.389 -144.8638
6449.240040 84.426 -143.9876
6495.973891 84.479 -143.1430
6543.046396 84.546 -142.3447
6590.460007 84.623 -141.6000
6638.217197 84.708 -140.9056
6686.320456 84.800 -140.2490
6734.772290 84.897 -139.6135
6783.575226 85.002 -138.9844
6832.731809 85.115 -138.3510
6882.244600 85.238 -137.7093
6932.116181 85.374 -137.0638
6982.349153 85.526 -136.4254
7032.946133 85.696 -135.8076
7083.909760 85.886 -135.2242
7135.242690 86.101 -134.6921
7186.947600 86.342 -134.2341
7239.027185 86.613 -133.8786
7291.484160 86.916 -133.6624
7344.321260 87.252 -133.6299
7397.541239 87.620 -133.8298
7451.146872 88.018 -134.3107
7505.140954 88.444 -135.1209
7559.526299 88.893 -136.3120
7614.305743 89.359 -137.9389
7669.482141 89.831 -140.0575
7725.058371 90.297 -142.7197
7781.037328 90.739 -145.9614
7837.421932 91.135 -149.7893
7894.215122 91.465 -154.1720
7951.419859 91.707 -159.0379
8009.039125 91.844 -164.2773
8067.075924 91.863 -169.7486
8125.533282 91.758 -175.2916
8184.414245 91.528 179.2599
8243.721885 91.179 174.0671
8303.459292 90.719 169.2755
8363.629581 90.166 165.0040
8424.235888 89.537 161.3385
8485.281374 88.854 158.3270
8546.769221 88.139 155.9761
8608.702634 87.415 154.2558
8671.084842 86.698 153.1098
8733.919097 86.005 152.4673
8797.208675 85.344 152.2546
8860.956876 84.722 152.4022
8925.167022 84.144 152.8447
8989.842461 83.612 153.5190
9054.986566 83.125 154.3663
9120.602731 82.682 155.3373
9186.694378 82.279 156.3966
9253.264952 81.913 157.5242
9320.317925 81.583 158.7084
9387.856790 81.288 159.9363
9455.885071 81.029 161.1901
9524.406312 80.804 162.4472
9593.424086 80.616 163.6837
9662.941992 80.463 164.8754
9732.963653 80.348 165.9926
9803.492719 80.270 166.9943
9874.532869 80.227 167.8302
9946.087805 80.213 168.4493
10018.161257 80.222 168.8113
10090.756983 80.244 168.8923
10163.878768 80.270 168.6817
10237.530423 80.290 168.1800
10311.715789 80.293 167.3996
10386.438732 80.270 166.3694
10461.703149 80.212 165.1372
10537.512962 80.114 163.7641
10613.872125 79.972 162.3134
10690.784618 79.785 160.8433
10768.254450 79.553 159.4059
10846.285661 79.276 158.0524
10924.882318 78.957 156.8363
11004.048518 78.599 155.8107
11083.788390 78.206 155.0234
11164.106090 77.784 154.5128
11245.005805 77.340 154.3097
11326.491752 76.883 154.4371
11408.568180 76.421 154.9058
11491.239368 75.963 155.7086
11574.509626 75.519 156.8209
11658.383294 75.094 158.2106
11742.864745 74.695 159.8472
11827.958384 74.325 161.7013
11913.668646 73.988 163.7393
12000.000000 73.687 165.9212
12086.956947 73.423 168.2077
12174.544019 73.195 170.5659
12262.765784 73.001 172.9678
12351.626840 72.841 175.3873
12441.131819 72.712 177.8047
12531.285389 72.611 -179.7854
12622.092249 72.539 -177.3748
12713.557132 72.496 -174.9536
12805.684808 72.486 -172.5229
12898.480079 72.511 -170.0992
12991.947783 72.575 -167.7127
13086.092792 72.678 -165.4030
13180.920015 72.819 -163.2120
13276.434395 72.995 -161.1734
13372.640911 73.202 -159.3038
13469.544580 73.437 -157.6053
13567.150452 73.698 -156.0788
13665.463617 73.986 -154.7323
13764.489200 74.301 -153.5799
13864.232362 74.643 -152.6380
13964.698305 75.013 -151.9262
14065.892266 75.412 -151.4687
14167.819519 75.840 -151.2910
14270.485380 76.295 -151.4145
14373.895200 76.780 -151.8609
14478.054370 77.296 -152.6575
14582.968320 77.844 -153.8385
14688.642520 78.428 -155.4458
14795.082478 79.049 -157.5348
14902.293745 79.707 -160.1795
15010.281908 80.397 -163.4681
15119.052599 81.108 -167.4972
15228.611486 81.820 -172.3627
15338.964283 82.503 -178.1453
15450.116741 83.120 175.1116
15562.074656 83.627 167.4247
15674.843864 83.981 158.8898
15788.430244 84.138 149.6969
15902.839718 84.067 140.1292
16018.078250 83.753 130.5338
16134.151848 83.199 121.2648
16251.066563 82.427 112.6243
16368.828491 81.467 104.8290
16487.443769 80.357 98.0022
16606.918584 79.136 92.1813
16727.259161 77.840 87.3331
16848.471777 76.504 83.3719
16970.562748 75.155 80.1766
17093.538442 73.813 77.6096
17217.405268 72.488 75.5426
17342.169684 71.180 73.8818
17467.838194 69.882 72.5923
17594.417350 68.576 71.7261
17721.913751 67.241 71.4578
17850.334044 65.862 72.1253
17979.684923 64.436 74.2731
18109.973131 62.990 78.6470
18241.205462 61.592 85.9742
18373.388756 60.355 96.2722
18506.529905 59.402 108.0286
18640.635849 58.790 118.8105
18775.713581 58.470 127.1732
18911.770141 58.324 133.1829
19048.812624 58.241 137.5671
19186.848172 58.156 141.0432
19325.883983 58.046 144.1142
19465.927305 57.917 147.0544
19606.985439 57.787 149.9246
19749.065738 57.680 152.5811
19892.175609 57.609 154.7088
20036.322514 57.575 155.9169
