* Measurement data measured by REW V5.31
* Source: EXCL: Microphone (USB Sound Device        ), MICROPHONE (Master Volume), L, volume: 0.390
* Format: 256k Log Swept Sine, 1 sweep at -18.0 dBFS with no timing reference
* Dated: Oct 17, 2024 12:23:16 AM
* REW Settings:
*  C-weighting compensation: Off
*  Target level: 75.0 dB
* Note: AFUL Cantor R
* Measurement: R AFUL Cantor
* Smoothing: 1/12 octave
* Frequency Step: 96 ppo
* Start Frequency: 0.36621094 Hz
*
* Freq(Hz)	SPL(dB)	Phase(degrees)
0.366211	90.529	160.9208
0.368865	90.524	160.9036
0.371538	90.516	160.8778
0.374230	90.505	160.8453
0.376942	90.494	160.8079
0.379673	90.482	160.7667
0.382424	90.469	160.7226
0.385196	90.455	160.6760
0.387987	90.442	160.6272
0.390798	90.428	160.5764
0.393630	90.414	160.5237
0.396483	90.400	160.4690
0.399356	90.386	160.4123
0.402250	90.372	160.3538
0.405165	90.358	160.2933
0.408101	90.344	160.2309
0.411058	90.329	160.1664
0.414037	90.315	160.1000
0.417037	90.300	160.0316
0.420059	90.285	159.9612
0.423103	90.270	159.8887
0.426169	90.255	159.8142
0.429257	90.240	159.7376
0.432368	90.225	159.6589
0.435501	90.210	159.5781
0.438656	90.194	159.4952
0.441835	90.179	159.4102
0.445037	90.163	159.3230
0.448262	90.147	159.2337
0.451510	90.131	159.1422
0.454782	90.116	159.0485
0.458077	90.099	158.9526
0.461397	90.083	158.8545
0.464740	90.067	158.7542
0.468108	90.050	158.6517
0.471500	90.034	158.5470
0.474917	90.017	158.4399
0.478358	90.000	158.3307
0.481825	89.983	158.2192
0.485316	89.966	158.1055
0.488833	89.949	157.9895
0.492375	89.932	157.8712
0.495943	89.914	157.7507
0.499537	89.897	157.6279
0.503157	89.879	157.5028
0.506803	89.861	157.3755
0.510475	89.843	157.2460
0.514175	89.825	157.1142
0.517900	89.807	156.9801
0.521653	89.789	156.8439
0.525434	89.770	156.7054
0.529241	89.752	156.5647
0.533076	89.733	156.4219
0.536939	89.714	156.2769
0.540830	89.695	156.1297
0.544749	89.676	155.9804
0.548696	89.656	155.8291
0.552673	89.637	155.6757
0.556677	89.617	155.5202
0.560711	89.598	155.3628
0.564774	89.578	155.2034
0.568867	89.558	155.0421
0.572989	89.538	154.8789
0.577141	89.517	154.7139
0.581324	89.497	154.5471
0.585536	89.476	154.3787
0.589779	89.456	154.2085
0.594053	89.435	154.0368
0.598358	89.414	153.8636
0.602694	89.393	153.6890
0.607061	89.371	153.5130
0.611460	89.350	153.3357
0.615891	89.328	153.1573
0.620354	89.306	152.9777
0.624849	89.284	152.7972
0.629377	89.262	152.6158
0.633938	89.240	152.4337
0.638532	89.217	152.2509
0.643159	89.195	152.0676
0.647819	89.172	151.8840
0.652514	89.149	151.7001
0.657242	89.126	151.5161
0.662005	89.103	151.3323
0.666802	89.079	151.1487
0.671634	89.056	150.9655
0.676501	89.032	150.7829
0.681403	89.008	150.6012
0.686341	88.984	150.4205
0.691314	88.959	150.2410
0.696324	88.935	150.0629
0.701370	88.910	149.8865
0.706452	88.885	149.7118
0.711571	88.859	149.5391
0.716728	88.833	149.3684
0.721921	88.806	149.1996
0.727153	88.778	149.0325
0.732422	88.748	148.8665
0.737729	88.717	148.7011
0.743075	88.684	148.5355
0.748460	88.650	148.3692
0.753883	88.614	148.2016
0.759346	88.578	148.0326
0.764849	88.540	147.8619
0.770391	88.501	147.6893
0.775974	88.462	147.5148
0.781597	88.422	147.3384
0.787261	88.381	147.1601
0.792966	88.340	146.9798
0.798712	88.298	146.7975
0.804500	88.255	146.6134
0.810329	88.211	146.4273
0.816201	88.167	146.2393
0.822116	88.122	146.0495
0.828073	88.076	145.8578
0.834074	88.030	145.6644
0.840118	87.983	145.4692
0.846206	87.935	145.2722
0.852338	87.886	145.0737
0.858514	87.837	144.8735
0.864735	87.787	144.6718
0.871001	87.737	144.4686
0.877313	87.686	144.2641
0.883670	87.634	144.0583
0.890074	87.582	143.8514
0.896524	87.529	143.6434
0.903020	87.475	143.4345
0.909564	87.421	143.2248
0.916155	87.366	143.0144
0.922794	87.310	142.8036
0.929481	87.254	142.5925
0.936216	87.198	142.3813
0.943000	87.141	142.1702
0.949834	87.083	141.9594
0.956717	87.025	141.7492
0.963649	86.967	141.5398
0.970632	86.908	141.3316
0.977666	86.848	141.1248
0.984750	86.789	140.9198
0.991886	86.728	140.7169
0.999074	86.668	140.5165
1.006314	86.607	140.3190
1.013606	86.546	140.1249
1.020951	86.484	139.9346
1.028349	86.422	139.7485
1.035801	86.360	139.5673
1.043307	86.298	139.3914
1.050867	86.235	139.2216
1.058482	86.173	139.0585
1.066152	86.110	138.9026
1.073878	86.047	138.7549
1.081660	85.984	138.6162
1.089498	85.920	138.4872
1.097393	85.856	138.3691
1.105345	85.791	138.2628
1.113355	85.725	138.1692
1.121423	85.658	138.0889
1.129549	85.590	138.0224
1.137734	85.521	137.9703
1.145979	85.450	137.9327
1.154283	85.378	137.9097
1.162647	85.305	137.9015
1.171072	85.230	137.9081
1.179558	85.155	137.9295
1.188106	85.078	137.9658
1.196715	85.001	138.0168
1.205387	84.923	138.0825
1.214122	84.843	138.1628
1.222920	84.764	138.2575
1.231782	84.684	138.3665
1.240708	84.603	138.4897
1.249699	84.522	138.6266
1.258754	84.441	138.7769
1.267876	84.360	138.9405
1.277063	84.279	139.1167
1.286318	84.198	139.3050
1.295639	84.117	139.5050
1.305027	84.037	139.7159
1.314484	83.958	139.9371
1.324009	83.879	140.1676
1.333604	83.802	140.4065
1.343268	83.726	140.6529
1.353002	83.651	140.9055
1.362806	83.577	141.1631
1.372681	83.506	141.4244
1.382628	83.436	141.6879
1.392647	83.368	141.9520
1.402739	83.303	142.2151
1.412904	83.241	142.4759
1.423142	83.181	142.7330
1.433455	83.124	142.9855
1.443843	83.071	143.2332
1.454305	83.020	143.4769
1.464844	82.973	143.7187
1.475459	82.929	143.9614
1.486150	82.888	144.2081
1.496920	82.851	144.4615
1.507767	82.816	144.7231
1.518693	82.784	144.9938
1.529698	82.755	145.2735
1.540783	82.729	145.5616
1.551948	82.706	145.8572
1.563194	82.685	146.1591
1.574521	82.667	146.4660
1.585931	82.652	146.7763
1.597423	82.639	147.0884
1.608999	82.629	147.4007
1.620658	82.621	147.7114
1.632402	82.615	148.0186
1.644232	82.612	148.3206
1.656146	82.611	148.6154
1.668147	82.612	148.9011
1.680235	82.615	149.1757
1.692411	82.621	149.4371
1.704675	82.628	149.6833
1.717028	82.637	149.9123
1.729470	82.648	150.1219
1.742003	82.660	150.3103
1.754626	82.674	150.4753
1.767341	82.689	150.6150
1.780147	82.706	150.7278
1.793047	82.724	150.8123
1.806040	82.744	150.8677
1.819128	82.766	150.8937
1.832310	82.790	150.8911
1.845587	82.817	150.8609
1.858961	82.847	150.8050
1.872432	82.880	150.7245
1.886001	82.916	150.6206
1.899667	82.956	150.4939
1.913433	82.999	150.3448
1.927299	83.046	150.1736
1.941265	83.095	149.9801
1.955332	83.148	149.7645
1.969501	83.202	149.5267
1.983773	83.259	149.2665
1.998148	83.318	148.9839
2.012627	83.379	148.6785
2.027212	83.441	148.3502
2.041902	83.504	147.9986
2.056698	83.567	147.6233
2.071602	83.631	147.2237
2.086614	83.694	146.7992
2.101734	83.757	146.3489
2.116964	83.819	145.8718
2.132304	83.880	145.3667
2.147756	83.939	144.8321
2.163320	83.997	144.2659
2.178996	84.053	143.6660
2.194786	84.107	143.0301
2.210690	84.159	142.3558
2.226710	84.211	141.6418
2.242845	84.261	140.8873
2.259098	84.311	140.0930
2.275468	84.360	139.2603
2.291957	84.408	138.3913
2.308566	84.456	137.4883
2.325295	84.504	136.5540
2.342145	84.551	135.5911
2.359117	84.598	134.6022
2.376212	84.644	133.5899
2.393431	84.689	132.5566
2.410775	84.734	131.5046
2.428244	84.779	130.4359
2.445840	84.822	129.3521
2.463564	84.865	128.2544
2.481416	84.907	127.1434
2.499397	84.948	126.0190
2.517509	84.988	124.8797
2.535752	85.027	123.7227
2.554127	85.065	122.5437
2.572635	85.103	121.3373
2.591277	85.139	120.0979
2.610055	85.174	118.8214
2.628968	85.208	117.5059
2.648019	85.241	116.1518
2.667208	85.272	114.7614
2.686535	85.303	113.3380
2.706003	85.333	111.8861
2.725612	85.362	110.4105
2.745363	85.389	108.9165
2.765257	85.416	107.4092
2.785295	85.442	105.8938
2.805478	85.466	104.3752
2.825808	85.490	102.8576
2.846285	85.513	101.3445
2.866910	85.535	99.8377
2.887685	85.557	98.3373
2.908611	85.577	96.8408
2.929688	85.597	95.3429
2.950917	85.616	93.8368
2.972301	85.634	92.3155
2.993839	85.651	90.7740
3.015534	85.667	89.2101
3.037386	85.683	87.6243
3.059396	85.697	86.0193
3.081565	85.710	84.3993
3.103896	85.721	82.7699
3.126388	85.731	81.1374
3.149043	85.740	79.5084
3.171862	85.746	77.8899
3.194847	85.751	76.2884
3.217998	85.754	74.7094
3.241317	85.754	73.1567
3.264805	85.753	71.6316
3.288463	85.749	70.1321
3.312293	85.743	68.6533
3.336295	85.734	67.1886
3.360471	85.724	65.7321
3.384822	85.710	64.2802
3.409350	85.695	62.8322
3.434056	85.677	61.3896
3.458940	85.657	59.9564
3.484005	85.634	58.5380
3.509252	85.609	57.1412
3.534681	85.581	55.7736
3.560295	85.551	54.4433
3.586094	85.517	53.1580
3.612081	85.481	51.9244
3.638255	85.441	50.7470
3.664620	85.398	49.6275
3.691175	85.350	48.5645
3.717923	85.298	47.5551
3.744864	85.242	46.5963
3.772001	85.183	45.6859
3.799335	85.120	44.8232
3.826866	85.055	44.0093
3.854597	84.989	43.2464
3.882529	84.924	42.5386
3.910664	84.859	41.8910
3.939002	84.796	41.3099
3.967546	84.735	40.8022
3.996296	84.678	40.3758
4.025255	84.624	40.0378
4.054423	84.572	39.7944
4.083804	84.523	39.6493
4.113396	84.476	39.6025
4.143204	84.433	39.6512
4.173227	84.393	39.7892
4.203468	84.360	40.0085
4.233928	84.335	40.2995
4.264609	84.319	40.6517
4.295512	84.316	41.0553
4.326639	84.327	41.5018
4.357992	84.354	41.9852
4.389572	84.398	42.5031
4.421380	84.461	43.0552
4.453419	84.541	43.6406
4.485691	84.639	44.2541
4.518196	84.752	44.8851
4.550936	84.880	45.5186
4.583914	85.021	46.1365
4.617131	85.172	46.7204
4.650589	85.333	47.2531
4.684289	85.503	47.7205
4.718233	85.679	48.1130
4.752424	85.863	48.4266
4.786862	86.055	48.6622
4.821549	86.254	48.8242
4.856488	86.461	48.9169
4.891680	86.674	48.9435
4.927127	86.890	48.9056
4.962831	87.108	48.8032
4.998794	87.326	48.6356
5.035017	87.541	48.4014
5.071503	87.751	48.0994
5.108253	87.954	47.7288
5.145270	88.152	47.2904
5.182555	88.343	46.7870
5.220110	88.527	46.2239
5.257937	88.705	45.6085
5.296038	88.877	44.9490
5.334415	89.041	44.2537
5.373071	89.197	43.5295
5.412006	89.344	42.7813
5.451224	89.483	42.0112
5.490725	89.611	41.2192
5.530514	89.730	40.4038
5.570590	89.838	39.5648
5.610957	89.936	38.7048
5.651616	90.025	37.8301
5.692570	90.103	36.9489
5.733821	90.172	36.0705
5.775370	90.231	35.2028
5.817221	90.281	34.3517
5.859375	90.320	33.5195
5.901834	90.349	32.7059
5.944602	90.369	31.9101
5.987679	90.378	31.1332
6.031068	90.378	30.3791
6.074771	90.369	29.6545
6.118792	90.352	28.9671
6.163131	90.328	28.3250
6.207792	90.296	27.7345
6.252776	90.258	27.1995
6.298086	90.212	26.7216
6.343725	90.161	26.3014
6.389694	90.104	25.9392
6.435996	90.043	25.6363
6.482634	89.980	25.3950
6.529610	89.916	25.2182
6.576926	89.852	25.1091
6.624585	89.789	25.0704
6.672590	89.728	25.1024
6.720942	89.670	25.2025
6.769645	89.615	25.3648
6.818700	89.564	25.5814
6.868111	89.520	25.8435
6.917881	89.484	26.1434
6.968010	89.456	26.4749
7.018504	89.438	26.8328
7.069362	89.429	27.2110
7.120590	89.428	27.6008
7.172189	89.436	27.9910
7.224161	89.451	28.3696
7.276511	89.472	28.7253
7.329239	89.501	29.0497
7.382350	89.535	29.3373
7.435845	89.575	29.5853
7.489729	89.618	29.7917
7.544002	89.664	29.9548
7.598669	89.710	30.0729
7.653732	89.755	30.1447
7.709194	89.798	30.1697
7.765058	89.838	30.1492
7.821327	89.875	30.0869
7.878004	89.907	29.9884
7.935091	89.935	29.8606
7.992592	89.957	29.7102
8.050510	89.972	29.5430
8.108847	89.981	29.3633
8.167607	89.983	29.1758
8.226793	89.979	28.9858
8.286408	89.969	28.8002
8.346454	89.955	28.6263
8.406936	89.935	28.4704
8.467856	89.912	28.3369
8.529218	89.886	28.2285
8.591024	89.858	28.1462
8.653278	89.829	28.0905
8.715983	89.800	28.0615
8.779143	89.774	28.0590
8.842760	89.751	28.0812
8.906839	89.732	28.1246
8.971381	89.718	28.1829
9.036392	89.709	28.2480
9.101873	89.707	28.3110
9.167829	89.711	28.3641
9.234263	89.723	28.3997
9.301178	89.742	28.4104
9.368578	89.766	28.3879
9.436467	89.796	28.3235
9.504847	89.830	28.2097
9.573723	89.868	28.0411
9.643099	89.907	27.8147
9.712976	89.947	27.5296
9.783361	89.985	27.1855
9.854255	90.019	26.7830
9.925663	90.048	26.3239
9.997588	90.071	25.8114
10.070035	90.086	25.2512
10.143007	90.094	24.6507
10.216507	90.094	24.0176
10.290540	90.086	23.3594
10.365109	90.068	22.6832
10.440219	90.043	21.9974
10.515873	90.010	21.3116
10.592076	89.971	20.6355
10.668830	89.925	19.9777
10.746141	89.873	19.3451
10.824012	89.818	18.7442
10.902447	89.759	18.1814
10.981451	89.700	17.6623
11.061027	89.640	17.1906
11.141180	89.583	16.7677
11.221913	89.528	16.3932
11.303232	89.479	16.0646
11.385140	89.437	15.7787
11.467641	89.403	15.5304
11.550741	89.378	15.3122
11.634442	89.363	15.1151
11.718750	89.360	14.9291
11.803669	89.367	14.7445
11.889203	89.386	14.5518
11.975357	89.415	14.3411
12.062136	89.454	14.1030
12.149543	89.502	13.8299
12.237583	89.557	13.5160
12.326262	89.618	13.1569
12.415583	89.683	12.7496
12.505552	89.750	12.2929
12.596172	89.818	11.7872
12.687449	89.886	11.2348
12.779387	89.951	10.6392
12.871992	90.013	10.0046
12.965268	90.071	9.3364
13.059220	90.123	8.6411
13.153852	90.169	7.9261
13.249170	90.208	7.1989
13.345179	90.239	6.4674
13.441884	90.263	5.7401
13.539289	90.279	5.0261
13.637401	90.287	4.3339
13.736223	90.287	3.6720
13.835761	90.280	3.0490
13.936021	90.266	2.4732
14.037007	90.247	1.9515
14.138725	90.222	1.4900
14.241180	90.194	1.0936
14.344377	90.164	0.7654
14.448323	90.134	0.5062
14.553021	90.106	0.3143
14.658478	90.081	0.1855
14.764700	90.061	0.1132
14.871691	90.048	0.0879
14.979457	90.042	0.0979
15.088005	90.045	0.1300
15.197339	90.056	0.1705
15.307465	90.076	0.2053
15.418389	90.102	0.2213
15.530117	90.134	0.2072
15.642655	90.170	0.1545
15.756008	90.208	0.0572
15.870182	90.246	-0.0875
15.985184	90.282	-0.2792
16.101019	90.315	-0.5143
16.217694	90.342	-0.7874
16.335214	90.364	-1.0910
16.453586	90.379	-1.4164
16.572815	90.387	-1.7546
16.692909	90.389	-2.0973
16.813872	90.386	-2.4367
16.935713	90.377	-2.7666
17.058436	90.365	-3.0832
17.182048	90.350	-3.3846
17.306556	90.334	-3.6712
17.431967	90.318	-3.9454
17.558286	90.302	-4.2114
17.685521	90.287	-4.4744
17.813677	90.273	-4.7398
17.942762	90.261	-5.0132
18.072783	90.250	-5.2987
18.203746	90.239	-5.5992
18.335658	90.228	-5.9161
18.468526	90.216	-6.2489
18.602356	90.203	-6.5956
18.737156	90.189	-6.9531
18.872934	90.173	-7.3174
19.009695	90.157	-7.6848
19.147447	90.139	-8.0517
19.286197	90.122	-8.4156
19.425953	90.105	-8.7752
19.566721	90.089	-9.1305
19.708510	90.074	-9.4828
19.851326	90.062	-9.8343
19.995177	90.051	-10.1878
20.140070	90.042	-10.5463
20.286013	90.035	-10.9121
20.433014	90.030	-11.2868
20.581080	90.025	-11.6708
20.730219	90.020	-12.0631
20.880439	90.014	-12.4615
21.031747	90.008	-12.8625
21.184152	90.001	-13.2620
21.337661	89.993	-13.6556
21.492282	89.984	-14.0390
21.648024	89.974	-14.4089
21.804895	89.965	-14.7630
21.962902	89.957	-15.1007
22.122054	89.950	-15.4235
22.282360	89.946	-15.7350
22.443827	89.944	-16.0405
22.606464	89.946	-16.3471
22.770280	89.951	-16.6630
22.935283	89.958	-16.9960
23.101481	89.967	-17.3534
23.268884	89.976	-17.7402
23.437500	89.984	-18.1585
23.607338	89.988	-18.6071
23.778406	89.988	-19.0810
23.950714	89.982	-19.5718
24.124271	89.970	-20.0686
24.299086	89.951	-20.5595
24.475167	89.927	-21.0330
24.652524	89.899	-21.4802
24.831166	89.870	-21.8961
25.011103	89.841	-22.2814
25.192344	89.816	-22.6420
25.374898	89.797	-22.9890
25.558775	89.783	-23.3366
25.743984	89.774	-23.6993
25.930536	89.771	-24.0893
26.118439	89.769	-24.5140
26.307704	89.768	-24.9741
26.498341	89.765	-25.4640
26.690359	89.759	-25.9722
26.883768	89.747	-26.4840
27.078579	89.732	-26.9843
27.274801	89.714	-27.4602
27.472446	89.696	-27.9038
27.671522	89.679	-28.3131
27.872042	89.664	-28.6920
28.074014	89.654	-29.0482
28.277450	89.648	-29.3915
28.482360	89.644	-29.7297
28.688755	89.643	-30.0670
28.896645	89.640	-30.4026
29.106042	89.637	-30.7309
29.316957	89.630	-31.0435
29.529400	89.621	-31.3318
29.743382	89.611	-31.5897
29.958915	89.601	-31.8154
30.176009	89.591	-32.0126
30.394677	89.583	-32.1896
30.614929	89.577	-32.3570
30.836778	89.573	-32.5256
31.060234	89.568	-32.7033
31.285309	89.561	-32.8938
31.512015	89.550	-33.0967
31.740364	89.536	-33.3080
31.970368	89.517	-33.5231
32.202039	89.495	-33.7383
32.435388	89.470	-33.9531
32.670428	89.443	-34.1706
32.907171	89.416	-34.3973
33.145630	89.389	-34.6417
33.385817	89.363	-34.9118
33.627745	89.336	-35.2137
33.871425	89.308	-35.5502
34.116871	89.278	-35.9206
34.364096	89.247	-36.3217
34.613113	89.214	-36.7485
34.863934	89.180	-37.1962
35.116572	89.147	-37.6612
35.371041	89.114	-38.1413
35.627354	89.084	-38.6359
35.885525	89.056	-39.1451
36.145566	89.030	-39.6688
36.407492	89.007	-40.2060
36.671316	88.987	-40.7537
36.937051	88.968	-41.3077
37.204712	88.951	-41.8626
37.474313	88.936	-42.4128
37.745867	88.923	-42.9534
38.019389	88.911	-43.4813
38.294893	88.902	-43.9948
38.572394	88.895	-44.4942
38.851905	88.890	-44.9807
39.133442	88.885	-45.4559
39.417019	88.881	-45.9209
39.702651	88.877	-46.3760
39.990353	88.872	-46.8206
40.280140	88.866	-47.2536
40.572026	88.858	-47.6740
40.866028	88.849	-48.0812
41.162160	88.838	-48.4760
41.460438	88.827	-48.8607
41.760877	88.815	-49.2393
42.063494	88.804	-49.6173
42.368303	88.793	-50.0013
42.675322	88.782	-50.3973
42.984565	88.771	-50.8098
43.296048	88.758	-51.2403
43.609789	88.744	-51.6871
43.925804	88.727	-52.1452
44.244108	88.708	-52.6087
44.564719	88.688	-53.0723
44.887654	88.667	-53.5331
45.212928	88.646	-53.9909
45.540560	88.625	-54.4468
45.870565	88.604	-54.9021
46.202962	88.584	-55.3560
46.537768	88.563	-55.8066
46.875000	88.542	-56.2523
47.214676	88.522	-56.6933
47.556813	88.502	-57.1327
47.901429	88.482	-57.5748
48.248542	88.462	-58.0228
48.598171	88.441	-58.4756
48.950334	88.417	-58.9276
49.305048	88.390	-59.3715
49.662333	88.363	-59.8016
50.022206	88.335	-60.2174
50.384688	88.309	-60.6240
50.749796	88.285	-61.0298
51.117550	88.262	-61.4420
51.487969	88.240	-61.8633
51.861072	88.218	-62.2911
52.236879	88.195	-62.7192
52.615409	88.172	-63.1416
52.996681	88.148	-63.5555
53.380717	88.126	-63.9616
53.767536	88.105	-64.3627
54.157158	88.084	-64.7614
54.549603	88.063	-65.1586
54.944892	88.041	-65.5540
55.343045	88.019	-65.9475
55.744084	87.996	-66.3409
56.148028	87.972	-66.7370
56.554900	87.947	-67.1384
56.964720	87.919	-67.5452
57.377510	87.889	-67.9557
57.793291	87.858	-68.3684
58.212085	87.826	-68.7843
58.633914	87.794	-69.2069
59.058799	87.762	-69.6409
59.486764	87.730	-70.0890
59.917829	87.698	-70.5515
60.352019	87.666	-71.0271
60.789354	87.635	-71.5146
61.229859	87.604	-72.0134
61.673556	87.572	-72.5215
62.120468	87.540	-73.0343
62.570618	87.507	-73.5448
63.024031	87.472	-74.0455
63.480729	87.437	-74.5316
63.940736	87.402	-75.0018
64.404077	87.368	-75.4574
64.870776	87.334	-75.9008
65.340856	87.300	-76.3348
65.814343	87.267	-76.7630
66.291261	87.233	-77.1896
66.771635	87.199	-77.6182
67.255489	87.165	-78.0499
67.742850	87.128	-78.4826
68.233743	87.089	-78.9128
68.728193	87.049	-79.3374
69.226226	87.009	-79.7551
69.727867	86.968	-80.1669
70.233144	86.928	-80.5752
70.742083	86.889	-80.9835
71.254709	86.851	-81.3953
71.771050	86.813	-81.8137
72.291132	86.776	-82.2403
72.814984	86.739	-82.6740
73.342631	86.702	-83.1122
73.874102	86.665	-83.5526
74.409424	86.628	-83.9957
74.948626	86.592	-84.4436
75.491734	86.556	-84.8971
76.038779	86.518	-85.3524
76.589787	86.481	-85.8034
77.144788	86.444	-86.2474
77.703811	86.408	-86.6885
78.266885	86.374	-87.1356
78.834039	86.342	-87.5972
79.405303	86.311	-88.0786
79.980706	86.279	-88.5802
80.560280	86.245	-89.0988
81.144053	86.211	-89.6289
81.732056	86.175	-90.1653
82.324320	86.140	-90.7059
82.920876	86.104	-91.2507
83.521755	86.068	-91.7991
84.126988	86.032	-92.3480
84.736607	85.995	-92.8933
85.350643	85.958	-93.4325
85.969129	85.919	-93.9656
86.592097	85.878	-94.4938
87.219579	85.835	-95.0159
87.851608	85.788	-95.5273
88.488217	85.737	-96.0219
89.129439	85.684	-96.4957
89.775308	85.629	-96.9485
90.425856	85.575	-97.3829
91.081119	85.521	-97.8026
91.741131	85.470	-98.2121
92.405925	85.423	-98.6171
93.075536	85.379	-99.0255
93.750000	85.339	-99.4447
94.429351	85.301	-99.8807
95.113625	85.265	-100.3370
95.802858	85.228	-100.8121
96.497085	85.188	-101.2980
97.196342	85.146	-101.7838
97.900667	85.103	-102.2630
98.610096	85.059	-102.7367
99.324665	85.016	-103.2090
100.044413	84.972	-103.6836
100.769376	84.928	-104.1633
101.499592	84.884	-104.6491
102.235100	84.839	-105.1395
102.975938	84.792	-105.6311
103.722144	84.743	-106.1205
104.473757	84.693	-106.6045
105.230817	84.643	-107.0820
105.993363	84.593	-107.5569
106.761435	84.546	-108.0370
107.535072	84.500	-108.5319
108.314315	84.455	-109.0494
109.099206	84.410	-109.5930
109.889783	84.362	-110.1600
110.686090	84.310	-110.7421
111.488167	84.255	-111.3313
112.296056	84.197	-111.9242
113.109800	84.139	-112.5234
113.929440	84.081	-113.1362
114.755020	84.026	-113.7719
115.586582	83.974	-114.4352
116.424170	83.923	-115.1177
117.267827	83.873	-115.7989
118.117598	83.823	-116.4509
118.973527	83.773	-117.0415
119.835658	83.724	-117.5429
120.704037	83.678	-117.9505
121.578708	83.637	-118.2906
122.459718	83.599	-118.6032
123.347111	83.564	-118.9203
124.240935	83.527	-119.2633
125.141236	83.491	-119.6467
126.048061	83.454	-120.0811
126.961458	83.417	-120.5679
127.881473	83.381	-121.0966
128.808154	83.346	-121.6506
129.741551	83.312	-122.2150
130.681712	83.278	-122.7777
131.628686	83.242	-123.3282
132.582521	83.203	-123.8613
133.543269	83.163	-124.3800
134.510979	83.120	-124.8936
135.485701	83.076	-125.4106
136.467486	83.031	-125.9336
137.456386	82.987	-126.4619
138.452451	82.944	-126.9937
139.455735	82.902	-127.5271
140.466288	82.860	-128.0601
141.484165	82.820	-128.5924
142.509418	82.780	-129.1267
143.542100	82.740	-129.6678
144.582265	82.701	-130.2204
145.629968	82.663	-130.7850
146.685262	82.624	-131.3578
147.748204	82.585	-131.9317
148.818849	82.545	-132.4998
149.897251	82.503	-133.0574
150.983469	82.459	-133.6028
152.077557	82.413	-134.1371
153.179574	82.366	-134.6632
154.289576	82.318	-135.1846
155.407622	82.271	-135.7048
156.533770	82.226	-136.2283
157.668078	82.184	-136.7602
158.810606	82.144	-137.3045
159.961413	82.105	-137.8628
161.120559	82.068	-138.4340
162.288105	82.030	-139.0148
163.464112	81.991	-139.6008
164.648640	81.952	-140.1880
165.841752	81.912	-140.7737
167.043510	81.872	-141.3567
168.253976	81.831	-141.9364
169.473213	81.791	-142.5108
170.701286	81.750	-143.0777
171.938258	81.710	-143.6358
173.184194	81.670	-144.1864
174.439158	81.631	-144.7326
175.703216	81.593	-145.2782
176.976434	81.555	-145.8276
178.258878	81.518	-146.3854
179.550615	81.482	-146.9547
180.851713	81.446	-147.5356
182.162239	81.409	-148.1250
183.482262	81.373	-148.7171
184.811850	81.337	-149.3054
186.151073	81.302	-149.8853
187.500000	81.267	-150.4568
188.858702	81.233	-151.0240
190.227250	81.200	-151.5922
191.605715	81.168	-152.1652
192.994169	81.135	-152.7439
194.392685	81.103	-153.3265
195.801334	81.070	-153.9099
197.220191	81.039	-154.4912
198.649330	81.008	-155.0685
200.088825	80.978	-155.6414
201.538751	80.949	-156.2108
202.999184	80.921	-156.7793
204.470200	80.895	-157.3506
205.951875	80.870	-157.9285
207.444287	80.846	-158.5156
208.947514	80.822	-159.1120
210.461634	80.797	-159.7157
211.986726	80.770	-160.3223
213.522869	80.741	-160.9258
215.070144	80.711	-161.5202
216.628631	80.680	-162.1016
218.198411	80.648	-162.6698
219.779567	80.618	-163.2288
221.372180	80.589	-163.7855
222.976334	80.562	-164.3459
224.592112	80.536	-164.9135
226.219600	80.512	-165.4893
227.858880	80.488	-166.0733
229.510039	80.465	-166.6652
231.173164	80.442	-167.2639
232.848340	80.419	-167.8678
234.535655	80.396	-168.4753
236.235197	80.374	-169.0858
237.947054	80.351	-169.6991
239.671317	80.328	-170.3148
241.408074	80.305	-170.9313
243.157416	80.281	-171.5466
244.919435	80.256	-172.1584
246.694223	80.230	-172.7639
248.481871	80.204	-173.3598
250.282473	80.179	-173.9431
252.096123	80.154	-174.5121
253.922915	80.132	-175.0673
255.762945	80.113	-175.6142
257.616309	80.097	-176.1628
259.483103	80.084	-176.7246
261.363424	80.071	-177.3064
263.257372	80.058	-177.9066
265.165043	80.044	-178.5189
267.086538	80.029	-179.1354
269.021957	80.014	-179.7493
270.971401	79.999	179.6440
272.934972	79.984	179.0469
274.912771	79.971	178.4597
276.904902	79.959	177.8813
278.911469	79.949	177.3094
280.932577	79.942	176.7398
282.968330	79.938	176.1655
285.018835	79.937	175.5781
287.084199	79.938	174.9695
289.164530	79.939	174.3344
291.259935	79.941	173.6732
293.370525	79.940	172.9930
295.496408	79.937	172.3053
297.637697	79.932	171.6205
299.794503	79.925	170.9448
301.966937	79.918	170.2798
304.155114	79.910	169.6247
306.359147	79.902	168.9769
308.579152	79.895	168.3331
310.815244	79.888	167.6902
313.067539	79.880	167.0467
315.336156	79.872	166.4043
317.621211	79.863	165.7679
319.922826	79.853	165.1426
322.241118	79.843	164.5299
324.576210	79.834	163.9266
326.928223	79.825	163.3273
329.297280	79.819	162.7275
331.683504	79.814	162.1245
334.087019	79.810	161.5168
336.507952	79.807	160.9039
338.946427	79.805	160.2864
341.402572	79.802	159.6651
343.876516	79.799	159.0416
346.368387	79.795	158.4178
348.878315	79.790	157.7952
351.406431	79.786	157.1753
353.952867	79.782	156.5584
356.517756	79.778	155.9440
359.101230	79.776	155.3308
361.703426	79.774	154.7178
364.324478	79.773	154.1053
366.964523	79.773	153.4939
369.623699	79.773	152.8842
372.302145	79.773	152.2760
375.000000	79.774	151.6682
377.717405	79.776	151.0591
380.454501	79.778	150.4470
383.211431	79.781	149.8302
385.988339	79.784	149.2085
388.785369	79.788	148.5826
391.602668	79.792	147.9543
394.440383	79.797	147.3254
397.298660	79.802	146.6967
400.177650	79.807	146.0681
403.077502	79.813	145.4389
405.998368	79.818	144.8090
408.940400	79.823	144.1786
411.903750	79.827	143.5496
414.888575	79.830	142.9246
417.895028	79.833	142.3067
420.923268	79.836	141.6974
423.973452	79.840	141.0959
427.045738	79.847	140.4996
430.140287	79.855	139.9046
433.257261	79.866	139.3069
436.396822	79.878	138.7040
439.559133	79.892	138.0957
442.744360	79.907	137.4817
445.952668	79.923	136.8604
449.184225	79.941	136.2281
452.439199	79.958	135.5804
455.717760	79.975	134.9151
459.020079	79.990	134.2354
462.346327	80.001	133.5504
465.696680	80.008	132.8710
469.071310	80.014	132.2051
472.470394	80.018	131.5552
475.894109	80.022	130.9187
479.342634	80.026	130.2897
482.816148	80.030	129.6622
486.314833	80.033	129.0341
489.838871	80.036	128.4090
493.388445	80.038	127.7943
496.963741	80.041	127.1937
500.564945	80.044	126.6042
504.192245	80.049	126.0183
507.845830	80.055	125.4297
511.525890	80.061	124.8359
515.232618	80.068	124.2385
518.966206	80.073	123.6409
522.726849	80.079	123.0478
526.514743	80.083	122.4630
530.330086	80.088	121.8885
534.173076	80.093	121.3225
538.043915	80.099	120.7612
541.942803	80.105	120.2021
545.869944	80.112	119.6457
549.825542	80.120	119.0916
553.809805	80.129	118.5371
557.822939	80.138	117.9792
561.865154	80.148	117.4160
565.936660	80.157	116.8488
570.037671	80.166	116.2809
574.168399	80.175	115.7162
578.329060	80.183	115.1565
582.519870	80.191	114.6015
586.741049	80.198	114.0510
590.992817	80.205	113.5075
595.275394	80.213	112.9741
599.589005	80.221	112.4500
603.933874	80.230	111.9305
608.310228	80.240	111.4114
612.718295	80.250	110.8917
617.158304	80.259	110.3746
621.630488	80.268	109.8662
626.135079	80.277	109.3730
630.672311	80.287	108.8967
635.242423	80.300	108.4333
639.845651	80.316	107.9761
644.482237	80.333	107.5218
649.152421	80.354	107.0696
653.856447	80.377	106.6169
658.594560	80.403	106.1566
663.367008	80.431	105.6793
668.174039	80.460	105.1786
673.015903	80.489	104.6567
677.892854	80.514	104.1225
682.805145	80.537	103.5857
687.753032	80.558	103.0537
692.736774	80.575	102.5314
697.756631	80.592	102.0223
702.812863	80.607	101.5267
707.905735	80.623	101.0421
713.035511	80.639	100.5654
718.202461	80.656	100.0941
723.406852	80.673	99.6276
728.648956	80.690	99.1668
733.929047	80.707	98.7125
739.247399	80.724	98.2651
744.604290	80.741	97.8243
750.000000	80.759	97.3893
755.434809	80.778	96.9588
760.909001	80.798	96.5314
766.422861	80.818	96.1071
771.976677	80.839	95.6865
777.570739	80.860	95.2706
783.205337	80.881	94.8600
788.880766	80.903	94.4569
794.597321	80.926	94.0639
800.355301	80.950	93.6827
806.155005	80.977	93.3113
811.996736	81.007	92.9434
817.880799	81.040	92.5699
823.807501	81.076	92.1811
829.777150	81.114	91.7690
835.790057	81.151	91.3322
841.846536	81.188	90.8771
847.946903	81.222	90.4141
854.091476	81.254	89.9512
860.280575	81.284	89.4923
866.514523	81.314	89.0402
872.793644	81.343	88.5979
879.118267	81.372	88.1657
885.488720	81.403	87.7402
891.905336	81.434	87.3176
898.368450	81.466	86.8973
904.878398	81.498	86.4807
911.435520	81.531	86.0685
918.040157	81.565	85.6585
924.692655	81.602	85.2478
931.393359	81.640	84.8328
938.142619	81.679	84.4093
944.940787	81.720	83.9752
951.788218	81.762	83.5311
958.685268	81.805	83.0795
965.632296	81.847	82.6232
972.629666	81.890	82.1648
979.677741	81.934	81.7057
986.776890	81.979	81.2461
993.927482	82.023	80.7872
1001.129891	82.068	80.3334
1008.384491	82.112	79.8889
1015.691660	82.159	79.4531
1023.051781	82.207	79.0209
1030.465236	82.259	78.5836
1037.932411	82.315	78.1288
1045.453698	82.373	77.6438
1053.029486	82.431	77.1233
1060.660172	82.487	76.5713
1068.346153	82.541	75.9975
1076.087829	82.591	75.4120
1083.885605	82.639	74.8216
1091.739887	82.684	74.2290
1099.651084	82.728	73.6346
1107.619609	82.770	73.0395
1115.645878	82.811	72.4448
1123.730308	82.850	71.8524
1131.873321	82.888	71.2635
1140.075341	82.926	70.6792
1148.336797	82.962	70.0993
1156.658119	82.998	69.5242
1165.039741	83.034	68.9547
1173.482099	83.071	68.3921
1181.985634	83.110	67.8350
1190.550789	83.152	67.2771
1199.178011	83.197	66.7069
1207.867749	83.244	66.1126
1216.620457	83.291	65.4882
1225.436590	83.336	64.8364
1234.316609	83.378	64.1657
1243.260976	83.417	63.4852
1252.270157	83.452	62.8028
1261.344623	83.484	62.1233
1270.484846	83.514	61.4482
1279.691303	83.541	60.7790
1288.964474	83.567	60.1175
1298.304842	83.592	59.4636
1307.712894	83.616	58.8158
1317.189120	83.640	58.1716
1326.734016	83.663	57.5290
1336.348077	83.686	56.8880
1346.031806	83.708	56.2504
1355.785708	83.730	55.6191
1365.610290	83.752	54.9982
1375.506065	83.775	54.3932
1385.473549	83.799	53.8103
1395.513261	83.826	53.2521
1405.625726	83.856	52.7143
1415.811469	83.890	52.1858
1426.071023	83.928	51.6518
1436.404921	83.969	51.1023
1446.813703	84.010	50.5356
1457.297912	84.051	49.9566
1467.858093	84.091	49.3720
1478.494798	84.128	48.7874
1489.208581	84.164	48.2069
1500.000000	84.196	47.6337
1510.869618	84.225	47.0699
1521.818002	84.251	46.5171
1532.845723	84.273	45.9768
1543.953355	84.293	45.4505
1555.141477	84.312	44.9381
1566.410674	84.332	44.4350
1577.761531	84.356	43.9295
1589.194642	84.383	43.4066
1600.710601	84.411	42.8563
1612.310010	84.441	42.2767
1623.993473	84.470	41.6722
1635.761599	84.499	41.0490
1647.615002	84.526	40.4119
1659.554299	84.553	39.7642
1671.580114	84.580	39.1078
1683.693072	84.607	38.4419
1695.893807	84.634	37.7643
1708.182952	84.662	37.0728
1720.561150	84.688	36.3675
1733.029045	84.712	35.6513
1745.587288	84.733	34.9290
1758.236533	84.752	34.2066
1770.977440	84.771	33.4887
1783.810673	84.791	32.7742
1796.736900	84.813	32.0535
1809.756796	84.838	31.3127
1822.871040	84.866	30.5420
1836.080315	84.894	29.7388
1849.385310	84.921	28.9059
1862.786718	84.948	28.0477
1876.285239	84.972	27.1699
1889.881575	84.996	26.2789
1903.576436	85.020	25.3809
1917.370535	85.045	24.4819
1931.264593	85.073	23.5864
1945.259332	85.106	22.6943
1959.355483	85.144	21.7979
1973.553781	85.187	20.8848
1987.854965	85.233	19.9458
2002.259781	85.279	18.9786
2016.768981	85.324	17.9863
2031.383320	85.367	16.9740
2046.103561	85.407	15.9470
2060.930471	85.445	14.9097
2075.864823	85.481	13.8641
2090.907395	85.515	12.8112
2106.058972	85.546	11.7534
2121.320344	85.574	10.6956
2136.692305	85.600	9.6454
2152.175658	85.624	8.6099
2167.771210	85.649	7.5912
2183.479774	85.676	6.5826
2199.302169	85.705	5.5726
2215.239219	85.737	4.5519
2231.291755	85.771	3.5156
2247.460615	85.805	2.4633
2263.746641	85.839	1.3975
2280.150683	85.872	0.3235
2296.673595	85.906	-0.7526
2313.316238	85.940	-1.8260
2330.079481	85.978	-2.8975
2346.964198	86.020	-3.9752
2363.971268	86.067	-5.0731
2381.101578	86.118	-6.2021
2398.356022	86.171	-7.3679
2415.735498	86.225	-8.5714
2433.240913	86.278	-9.8103
2450.873180	86.332	-11.0826
2468.633217	86.384	-12.3870
2486.521951	86.435	-13.7217
2504.540314	86.483	-15.0818
2522.689246	86.529	-16.4582
2540.969692	86.573	-17.8420
2559.382606	86.616	-19.2303
2577.928947	86.660	-20.6284
2596.609683	86.704	-22.0449
2615.425787	86.747	-23.4859
2634.378241	86.789	-24.9529
2653.468031	86.828	-26.4421
2672.696154	86.864	-27.9452
2692.063613	86.896	-29.4509
2711.571415	86.925	-30.9507
2731.220579	86.954	-32.4433
2751.012130	86.982	-33.9333
2770.947098	87.011	-35.4265
2791.026522	87.038	-36.9251
2811.251451	87.064	-38.4283
2831.622938	87.087	-39.9335
2852.142045	87.108	-41.4379
2872.809842	87.127	-42.9381
2893.627406	87.142	-44.4277
2914.595823	87.154	-45.8972
2935.716186	87.165	-47.3386
2956.989596	87.175	-48.7513
2978.417161	87.187	-50.1411
3000.000000	87.200	-51.5160
3021.739237	87.214	-52.8817
3043.636005	87.228	-54.2393
3065.691446	87.240	-55.5842
3087.906710	87.252	-56.9097
3110.282955	87.263	-58.2123
3132.821347	87.275	-59.4955
3155.523062	87.289	-60.7668
3178.389283	87.303	-62.0333
3201.421202	87.317	-63.2996
3224.620020	87.329	-64.5679
3247.986946	87.339	-65.8375
3271.523198	87.343	-67.1039
3295.230004	87.342	-68.3567
3319.108599	87.335	-69.5830
3343.160228	87.323	-70.7745
3367.386145	87.307	-71.9297
3391.787613	87.287	-73.0506
3416.365904	87.262	-74.1375
3441.122300	87.232	-75.1854
3466.058091	87.197	-76.1833
3491.174576	87.156	-77.1194
3516.473066	87.113	-77.9871
3541.954880	87.066	-78.7865
3567.621345	87.019	-79.5209
3593.473800	86.970	-80.1943
3619.513592	86.921	-80.8104
3645.742080	86.871	-81.3711
3672.160630	86.819	-81.8738
3698.770620	86.766	-82.3110
3725.573436	86.713	-82.6768
3752.570477	86.659	-82.9708
3779.763150	86.608	-83.1982
3807.152872	86.557	-83.3644
3834.741071	86.507	-83.4695
3862.529185	86.458	-83.5078
3890.518664	86.409	-83.4739
3918.710966	86.364	-83.3696
3947.107561	86.324	-83.2030
3975.709929	86.289	-82.9863
4004.519563	86.260	-82.7327
4033.537962	86.237	-82.4530
4062.766641	86.217	-82.1511
4092.207123	86.200	-81.8224
4121.860942	86.186	-81.4607
4151.729646	86.174	-81.0632
4181.814790	86.164	-80.6298
4212.117944	86.156	-80.1591
4242.640687	86.150	-79.6431
4273.384610	86.146	-79.0723
4304.351317	86.145	-78.4415
4335.542421	86.151	-77.7548
4366.959549	86.164	-77.0234
4398.604338	86.186	-76.2645
4430.478438	86.216	-75.4957
4462.583511	86.254	-74.7279
4494.921231	86.300	-73.9662
4527.493283	86.352	-73.2152
4560.301365	86.411	-72.4828
4593.347189	86.474	-71.7767
4626.632476	86.540	-71.0986
4660.158962	86.609	-70.4446
4693.928395	86.678	-69.8105
4727.942535	86.749	-69.1962
4762.203156	86.821	-68.6068
4796.712043	86.893	-68.0499
4831.470996	86.963	-67.5303
4866.481826	87.029	-67.0442
4901.746360	87.088	-66.5809
4937.266434	87.141	-66.1293
4973.043902	87.184	-65.6778
5009.080628	87.219	-65.2120
5045.378492	87.243	-64.7118
5081.939384	87.259	-64.1565
5118.765212	87.268	-63.5308
5155.857894	87.274	-62.8285
5193.219366	87.278	-62.0541
5230.851574	87.284	-61.2169
5268.756481	87.290	-60.3257
5306.936062	87.299	-59.3888
5345.392309	87.310	-58.4167
5384.127225	87.323	-57.4194
5423.142830	87.336	-56.4006
5462.441159	87.350	-55.3574
5502.024259	87.363	-54.2856
5541.894195	87.378	-53.1849
5582.053045	87.396	-52.0634
5622.502902	87.416	-50.9330
5663.245876	87.438	-49.8036
5704.284090	87.461	-48.6801
5745.619684	87.483	-47.5656
5787.254813	87.504	-46.4626
5829.191647	87.522	-45.3694
5871.432373	87.535	-44.2761
5913.979192	87.542	-43.1663
5956.834323	87.545	-42.0204
6000.000000	87.544	-40.8209
6043.478473	87.543	-39.5583
6087.272010	87.545	-38.2404
6131.382892	87.553	-36.8961
6175.813420	87.566	-35.5613
6220.565910	87.580	-34.2573
6265.642695	87.591	-32.9818
6311.046124	87.596	-31.7163
6356.778566	87.595	-30.4382
6402.842404	87.587	-29.1299
6449.240040	87.574	-27.7792
6495.973891	87.558	-26.3801
6543.046396	87.539	-24.9317
6590.460007	87.519	-23.4347
6638.217197	87.497	-21.8864
6686.320456	87.473	-20.2786
6734.772290	87.450	-18.6017
6783.575226	87.429	-16.8480
6832.731809	87.412	-15.0137
6882.244600	87.401	-13.1008
6932.116181	87.398	-11.1184
6982.349153	87.405	-9.0801
7032.946133	87.423	-6.9988
7083.909760	87.455	-4.8840
7135.242690	87.501	-2.7456
7186.947600	87.566	-0.5969
7239.027185	87.650	1.5417
7291.484160	87.758	3.6398
7344.321260	87.890	5.6541
7397.541239	88.046	7.5334
7451.146872	88.225	9.2254
7505.140954	88.423	10.6791
7559.526299	88.636	11.8440
7614.305743	88.855	12.6722
7669.482141	89.074	13.1199
7725.058371	89.281	13.1510
7781.037328	89.459	12.7460
7837.421932	89.594	11.9143
7894.215122	89.668	10.7017
7951.419859	89.665	9.1909
8009.039125	89.574	7.4969
8067.075924	89.388	5.7537
8125.533282	89.106	4.0961
8184.414245	88.732	2.6476
8243.721885	88.272	1.5161
8303.459292	87.735	0.7944
8363.629581	87.129	0.5607
8424.235888	86.467	0.8804
8485.281374	85.761	1.8026
8546.769221	85.025	3.3550
8608.702634	84.273	5.5421
8671.084842	83.517	8.3512
8733.919097	82.770	11.7591
8797.208675	82.041	15.7384
8860.956876	81.341	20.2593
8925.167022	80.677	25.2833
8989.842461	80.059	30.7562
9054.986566	79.494	36.6088
9120.602731	78.985	42.7653
9186.694378	78.537	49.1529
9253.264952	78.149	55.7080
9320.317925	77.823	62.3700
9387.856790	77.558	69.0730
9455.885071	77.350	75.7485
9524.406312	77.197	82.3340
9593.424086	77.090	88.7860
9662.941992	77.024	95.0862
9732.963653	76.993	101.2312
9803.492719	76.990	107.2209
9874.532869	77.011	113.0552
9946.087805	77.050	118.7396
10018.161257	77.103	124.2931
10090.756983	77.165	129.7472
10163.878768	77.234	135.1332
10237.530423	77.311	140.4710
10311.715789	77.396	145.7687
10386.438732	77.488	151.0314
10461.703149	77.588	156.2702
10537.512962	77.696	161.4958
10613.872125	77.815	166.7086
10690.784618	77.944	171.8944
10768.254450	78.085	177.0316
10846.285661	78.234	-177.8958
10924.882318	78.391	-172.8947
11004.048518	78.554	-167.9696
11083.788390	78.720	-163.1286
11164.106090	78.889	-158.3805
11245.005805	79.057	-153.7263
11326.491752	79.223	-149.1573
11408.568180	79.384	-144.6628
11491.239368	79.540	-140.2377
11574.509626	79.689	-135.8810
11658.383294	79.827	-131.5842
11742.864745	79.952	-127.3251
11827.958384	80.064	-123.0719
11913.668646	80.163	-118.7910
12000.000000	80.251	-114.4511
12086.956947	80.330	-110.0231
12174.544019	80.404	-105.4868
12262.765784	80.478	-100.8391
12351.626840	80.556	-96.0975
12441.131819	80.639	-91.2878
12531.285389	80.728	-86.4284
12622.092249	80.823	-81.5268
12713.557132	80.926	-76.5886
12805.684808	81.038	-71.6256
12898.480079	81.159	-66.6525
12991.947783	81.290	-61.6812
13086.092792	81.431	-56.7229
13180.920015	81.581	-51.7946
13276.434395	81.740	-46.9153
13372.640911	81.905	-42.0972
13469.544580	82.074	-37.3411
13567.150452	82.247	-32.6434
13665.463617	82.422	-27.9983
13764.489200	82.598	-23.3950
13864.232362	82.778	-18.8144
13964.698305	82.964	-14.2393
14065.892266	83.161	-9.6633
14167.819519	83.373	-5.0937
14270.485380	83.606	-0.5520
14373.895200	83.867	3.9178
14478.054370	84.160	8.2420
14582.968320	84.487	12.3222
14688.642520	84.845	16.0462
14795.082478	85.228	19.2951
14902.293745	85.624	21.9549
15010.281908	86.015	23.9365
15119.052599	86.378	25.1956
15228.611486	86.688	25.7436
15338.964283	86.920	25.6538
15450.116741	87.050	25.0646
15562.074656	87.061	24.1715
15674.843864	86.941	23.2079
15788.430244	86.690	22.4194
15902.839718	86.319	22.0381
16018.078250	85.846	22.2599
16134.151848	85.294	23.2240
16251.066563	84.693	24.9999
16368.828491	84.073	27.5828
16487.443769	83.462	30.8923
16606.918584	82.883	34.7708
16727.259161	82.356	38.9970
16848.471777	81.888	43.3115
16970.562748	81.477	47.4501
17093.538442	81.109	51.1832
17217.405268	80.759	54.3562
17342.169684	80.396	56.9135
17467.838194	79.983	58.9028
17594.417350	79.486	60.4703
17721.913751	78.879	61.8441
17850.334044	78.142	63.3077
17979.684923	77.268	65.1810
18109.973131	76.260	67.8207
18241.205462	75.132	71.6378
18373.388756	73.912	77.1192
18506.529905	72.641	84.7947
18640.635849	71.382	95.0214
18775.713581	70.206	107.5483
18911.770141	69.171	121.2860
19048.812624	68.305	134.8333
19186.848172	67.596	147.2603
19325.883983	67.012	158.3156
19465.927305	66.513	168.1176
19606.985439	66.082	176.7884
19749.065738	65.723	-175.7983
19892.175609	65.460	-170.1412
20036.322514	65.320	-167.0027
