* Measurement data measured by REW V5.30 beta 5
* Source: EXCL: Microphone (Realtek(R) Audio), MICROPHONE (Master Volume), L, volume: 1.000
* Format: 256k Log Swept Sine, 1 sweep at -1.0 dBFS with no timing reference
* Dated: Dec 21, 2023 12:17:49 AM
* REW Settings:
*  C-weighting compensation: Off
*  Target level: 75.0 dB
* Note: AFUL MagicOne L
* Measurement: L AFUL MagicOne
* Smoothing: 1/12 octave
* Frequency Step: 96 ppo
* Start Frequency: 0.36621094 Hz
*
* Freq(Hz) SPL(dB) Phase(degrees)
0.366211 78.027 -130.2355
0.368865 78.049 -130.3162
0.371538 78.080 -130.4365
0.374230 78.118 -130.5863
0.376942 78.161 -130.7570
0.379673 78.208 -130.9424
0.382424 78.256 -131.1383
0.385196 78.305 -131.3422
0.387987 78.356 -131.5526
0.390798 78.407 -131.7686
0.393630 78.458 -131.9897
0.396483 78.510 -132.2157
0.399356 78.562 -132.4463
0.402250 78.615 -132.6815
0.405165 78.668 -132.9211
0.408101 78.721 -133.1651
0.411058 78.775 -133.4135
0.414037 78.829 -133.6661
0.417037 78.884 -133.9228
0.420059 78.939 -134.1835
0.423103 78.994 -134.4483
0.426169 79.050 -134.7169
0.429257 79.106 -134.9894
0.432367 79.163 -135.2656
0.435501 79.220 -135.5453
0.438656 79.278 -135.8286
0.441835 79.335 -136.1152
0.445037 79.394 -136.4052
0.448262 79.452 -136.6983
0.451510 79.512 -136.9944
0.454782 79.571 -137.2935
0.458077 79.631 -137.5954
0.461397 79.692 -137.9000
0.464740 79.752 -138.2072
0.468108 79.814 -138.5168
0.471500 79.876 -138.8287
0.474917 79.938 -139.1428
0.478358 80.000 -139.4589
0.481825 80.064 -139.7769
0.485316 80.127 -140.0967
0.488833 80.191 -140.4181
0.492375 80.256 -140.7410
0.495943 80.321 -141.0652
0.499537 80.386 -141.3906
0.503157 80.452 -141.7171
0.506803 80.518 -142.0445
0.510475 80.585 -142.3726
0.514174 80.653 -142.7014
0.517900 80.720 -143.0307
0.521653 80.789 -143.3603
0.525433 80.858 -143.6901
0.529241 80.927 -144.0200
0.533076 80.997 -144.3498
0.536939 81.067 -144.6794
0.540830 81.138 -145.0086
0.544749 81.209 -145.3373
0.548696 81.281 -145.6653
0.552673 81.354 -145.9926
0.556677 81.426 -146.3190
0.560711 81.500 -146.6444
0.564774 81.574 -146.9686
0.568867 81.648 -147.2915
0.572989 81.724 -147.6130
0.577141 81.799 -147.9330
0.581324 81.875 -148.2513
0.585536 81.952 -148.5678
0.589779 82.029 -148.8825
0.594053 82.107 -149.1951
0.598358 82.186 -149.5057
0.602694 82.264 -149.8140
0.607061 82.344 -150.1200
0.611460 82.424 -150.4236
0.615891 82.505 -150.7247
0.620354 82.586 -151.0231
0.624849 82.668 -151.3189
0.629377 82.750 -151.6118
0.633938 82.833 -151.9019
0.638532 82.917 -152.1890
0.643159 83.001 -152.4730
0.647819 83.086 -152.7540
0.652514 83.172 -153.0317
0.657242 83.258 -153.3061
0.662005 83.345 -153.5771
0.666802 83.432 -153.8448
0.671634 83.520 -154.1090
0.676501 83.609 -154.3697
0.681403 83.698 -154.6269
0.686341 83.788 -154.8807
0.691314 83.878 -155.1313
0.696324 83.969 -155.3791
0.701369 84.061 -155.6248
0.706452 84.153 -155.8699
0.711571 84.244 -156.1167
0.716727 84.336 -156.3689
0.721921 84.427 -156.6318
0.727153 84.516 -156.9120
0.732422 84.603 -157.2158
0.737729 84.688 -157.5471
0.743075 84.770 -157.9040
0.748460 84.851 -158.2818
0.753883 84.930 -158.6752
0.759346 85.009 -159.0798
0.764849 85.087 -159.4925
0.770391 85.164 -159.9109
0.775974 85.241 -160.3340
0.781597 85.318 -160.7607
0.787261 85.394 -161.1905
0.792965 85.471 -161.6231
0.798712 85.547 -162.0582
0.804499 85.623 -162.4955
0.810329 85.698 -162.9349
0.816201 85.774 -163.3762
0.822116 85.849 -163.8193
0.828073 85.924 -164.2641
0.834073 85.999 -164.7103
0.840118 86.074 -165.1579
0.846205 86.149 -165.6067
0.852337 86.223 -166.0567
0.858514 86.297 -166.5078
0.864735 86.372 -166.9598
0.871001 86.446 -167.4128
0.877313 86.519 -167.8665
0.883670 86.593 -168.3210
0.890074 86.667 -168.7762
0.896523 86.740 -169.2321
0.903020 86.814 -169.6886
0.909564 86.887 -170.1457
0.916155 86.960 -170.6034
0.922793 87.034 -171.0617
0.929480 87.107 -171.5206
0.936216 87.180 -171.9801
0.943000 87.253 -172.4402
0.949833 87.326 -172.9010
0.956716 87.399 -173.3626
0.963649 87.472 -173.8249
0.970632 87.546 -174.2881
0.977666 87.619 -174.7523
0.984750 87.692 -175.2174
0.991886 87.766 -175.6837
0.999074 87.839 -176.1512
1.006313 87.913 -176.6201
1.013605 87.987 -177.0905
1.020950 88.061 -177.5626
1.028349 88.136 -178.0365
1.035801 88.211 -178.5124
1.043306 88.286 -178.9905
1.050867 88.361 -179.4711
1.058482 88.437 -179.9543
1.066152 88.513 179.5594
1.073878 88.589 179.0698
1.081659 88.666 178.5763
1.089498 88.743 178.0784
1.097393 88.820 177.5754
1.105345 88.898 177.0668
1.113355 88.975 176.5518
1.121422 89.053 176.0302
1.129549 89.130 175.5016
1.137734 89.207 174.9663
1.145978 89.285 174.4243
1.154283 89.362 173.8758
1.162647 89.439 173.3212
1.171072 89.515 172.7608
1.179558 89.592 172.1949
1.188106 89.668 171.6240
1.196715 89.744 171.0483
1.205387 89.821 170.4683
1.214122 89.896 169.8844
1.222920 89.972 169.2968
1.231781 90.048 168.7061
1.240708 90.123 168.1125
1.249698 90.199 167.5164
1.258754 90.274 166.9182
1.267875 90.349 166.3183
1.277063 90.424 165.7169
1.286317 90.499 165.1146
1.295638 90.574 164.5115
1.305027 90.648 163.9081
1.314484 90.723 163.3048
1.324009 90.797 162.7017
1.333603 90.872 162.0993
1.343267 90.946 161.4978
1.353001 91.021 160.8976
1.362805 91.095 160.2990
1.372681 91.170 159.7022
1.382628 91.244 159.1075
1.392647 91.318 158.5151
1.402739 91.393 157.9252
1.412904 91.467 157.3381
1.423142 91.542 156.7535
1.433455 91.616 156.1716
1.443842 91.691 155.5920
1.454305 91.765 155.0141
1.464843 91.840 154.4370
1.475458 91.914 153.8596
1.486150 91.988 153.2811
1.496919 92.062 152.7006
1.507766 92.136 152.1176
1.518692 92.210 151.5317
1.529697 92.283 150.9431
1.540782 92.356 150.3517
1.551947 92.428 149.7578
1.563193 92.501 149.1613
1.574521 92.573 148.5627
1.585931 92.644 147.9621
1.597423 92.716 147.3597
1.608998 92.787 146.7558
1.620658 92.858 146.1505
1.632402 92.928 145.5442
1.644231 92.999 144.9370
1.656146 93.069 144.3291
1.668147 93.138 143.7207
1.680235 93.208 143.1121
1.692410 93.277 142.5034
1.704674 93.347 141.8948
1.717027 93.416 141.2864
1.729469 93.484 140.6785
1.742002 93.553 140.0711
1.754625 93.621 139.4644
1.767340 93.690 138.8583
1.780147 93.758 138.2527
1.793046 93.826 137.6476
1.806040 93.894 137.0424
1.819127 93.961 136.4365
1.832309 94.029 135.8289
1.845587 94.096 135.2185
1.858961 94.162 134.6045
1.872431 94.228 133.9861
1.886000 94.294 133.3632
1.899666 94.360 132.7355
1.913432 94.424 132.1034
1.927298 94.489 131.4673
1.941264 94.553 130.8275
1.955331 94.616 130.1847
1.969500 94.679 129.5393
1.983772 94.742 128.8920
1.998147 94.804 128.2433
2.012626 94.866 127.5939
2.027211 94.927 126.9443
2.041901 94.988 126.2953
2.056697 95.049 125.6474
2.071601 95.110 125.0012
2.086613 95.170 124.3573
2.101733 95.229 123.7162
2.116963 95.289 123.0786
2.132303 95.348 122.4446
2.147755 95.407 121.8147
2.163318 95.466 121.1887
2.178995 95.524 120.5661
2.194785 95.582 119.9462
2.210689 95.640 119.3279
2.226709 95.697 118.7100
2.242844 95.754 118.0916
2.259097 95.810 117.4720
2.275467 95.866 116.8509
2.291956 95.921 116.2284
2.308565 95.975 115.6047
2.325294 96.029 114.9802
2.342144 96.082 114.3553
2.359116 96.135 113.7305
2.376211 96.188 113.1065
2.393430 96.240 112.4836
2.410774 96.291 111.8627
2.428243 96.343 111.2442
2.445839 96.394 110.6288
2.463562 96.444 110.0171
2.481415 96.495 109.4097
2.499396 96.545 108.8069
2.517508 96.595 108.2091
2.535750 96.645 107.6163
2.554126 96.694 107.0281
2.572634 96.743 106.4441
2.591276 96.792 105.8633
2.610054 96.840 105.2852
2.628967 96.888 104.7089
2.648018 96.935 104.1343
2.667206 96.982 103.5610
2.686534 97.028 102.9893
2.706002 97.074 102.4192
2.725610 97.119 101.8509
2.745361 97.164 101.2847
2.765255 97.209 100.7209
2.785294 97.254 100.1599
2.805477 97.298 99.6021
2.825807 97.342 99.0479
2.846284 97.386 98.4975
2.866909 97.430 97.9513
2.887684 97.474 97.4095
2.908609 97.517 96.8722
2.929686 97.561 96.3393
2.950916 97.604 95.8103
2.972299 97.648 95.2851
2.993838 97.691 94.7632
3.015532 97.733 94.2443
3.037384 97.776 93.7284
3.059394 97.818 93.2153
3.081564 97.860 92.7050
3.103894 97.902 92.1978
3.126386 97.943 91.6935
3.149041 97.985 91.1923
3.171861 98.026 90.6944
3.194845 98.067 90.1999
3.217996 98.109 89.7090
3.241315 98.150 89.2219
3.264803 98.192 88.7386
3.288461 98.233 88.2592
3.312291 98.275 87.7837
3.336293 98.316 87.3119
3.360469 98.358 86.8439
3.384820 98.399 86.3793
3.409348 98.440 85.9181
3.434054 98.482 85.4600
3.458938 98.523 85.0049
3.484003 98.564 84.5526
3.509250 98.605 84.1030
3.534679 98.646 83.6560
3.560293 98.687 83.2113
3.586092 98.728 82.7689
3.612079 98.769 82.3286
3.638253 98.810 81.8904
3.664618 98.851 81.4541
3.691173 98.891 81.0197
3.717921 98.932 80.5872
3.744862 98.973 80.1566
3.771999 99.013 79.7281
3.799332 99.054 79.3016
3.826864 99.094 78.8774
3.854595 99.134 78.4555
3.882527 99.174 78.0360
3.910661 99.213 77.6191
3.938999 99.253 77.2048
3.967543 99.292 76.7931
3.996294 99.331 76.3840
4.025252 99.369 75.9773
4.054421 99.407 75.5729
4.083801 99.445 75.1707
4.113394 99.482 74.7706
4.143201 99.519 74.3728
4.173225 99.556 73.9776
4.203466 99.592 73.5853
4.233926 99.628 73.1963
4.264606 99.663 72.8111
4.295509 99.698 72.4300
4.326636 99.733 72.0533
4.357989 99.767 71.6812
4.389569 99.801 71.3138
4.421378 99.834 70.9509
4.453417 99.867 70.5924
4.485688 99.899 70.2383
4.518193 99.930 69.8887
4.550934 99.961 69.5440
4.583912 99.992 69.2045
4.617129 100.023 68.8709
4.650587 100.053 68.5436
4.684287 100.083 68.2232
4.718231 100.112 67.9102
4.752421 100.142 67.6047
4.786859 100.171 67.3071
4.821547 100.200 67.0172
4.856485 100.229 66.7350
4.891677 100.258 66.4603
4.927125 100.287 66.1929
4.962829 100.316 65.9328
4.998791 100.345 65.6799
5.035015 100.375 65.4342
5.071500 100.405 65.1958
5.108251 100.436 64.9651
5.145267 100.467 64.7421
5.182552 100.499 64.5270
5.220107 100.531 64.3196
5.257934 100.565 64.1193
5.296035 100.599 63.9252
5.334412 100.634 63.7362
5.373067 100.670 63.5514
5.412003 100.706 63.3698
5.451221 100.745 63.1908
5.490722 100.784 63.0141
5.530510 100.825 62.8396
5.570587 100.867 62.6671
5.610953 100.910 62.4962
5.651613 100.954 62.3256
5.692567 101.000 62.1541
5.733818 101.046 61.9802
5.775367 101.094 61.8023
5.817218 101.143 61.6193
5.859372 101.192 61.4304
5.901831 101.243 61.2353
5.944598 101.294 61.0338
5.987675 101.347 60.8256
6.031065 101.399 60.6104
6.074768 101.453 60.3872
6.118788 101.506 60.1554
6.163127 101.559 59.9140
6.207788 101.612 59.6623
6.252772 101.665 59.4000
6.298082 101.717 59.1271
6.343721 101.768 58.8440
6.389690 101.819 58.5512
6.435992 101.869 58.2497
6.482630 101.917 57.9400
6.529606 101.964 57.6228
6.576922 102.009 57.2982
6.624581 102.053 56.9665
6.672585 102.094 56.6281
6.720938 102.134 56.2839
6.769640 102.171 55.9356
6.818696 102.206 55.5851
6.868107 102.239 55.2342
6.917876 102.269 54.8846
6.968006 102.297 54.5373
7.018499 102.323 54.1933
7.069358 102.346 53.8533
7.120586 102.367 53.5187
7.172184 102.385 53.1915
7.224157 102.402 52.8737
7.276506 102.416 52.5674
7.329235 102.429 52.2739
7.382345 102.441 51.9944
7.435841 102.450 51.7294
7.489724 102.459 51.4792
7.543997 102.467 51.2445
7.598664 102.475 51.0260
7.653728 102.482 50.8243
7.709189 102.490 50.6398
7.765053 102.499 50.4724
7.821322 102.508 50.3213
7.877998 102.519 50.1849
7.935086 102.531 50.0615
7.992587 102.545 49.9492
8.050504 102.561 49.8461
8.108841 102.581 49.7508
8.167601 102.602 49.6613
8.226787 102.627 49.5749
8.286402 102.654 49.4883
8.346449 102.684 49.3979
8.406931 102.716 49.3005
8.467851 102.751 49.1936
8.529212 102.789 49.0752
8.591018 102.829 48.9432
8.653272 102.870 48.7953
8.715977 102.913 48.6290
8.779137 102.957 48.4424
8.842754 103.001 48.2345
8.906833 103.045 48.0047
8.971375 103.089 47.7535
9.036386 103.131 47.4815
9.101867 103.172 47.1895
9.167823 103.211 46.8786
9.234257 103.247 46.5500
9.301172 103.281 46.2060
9.368572 103.311 45.8497
9.436460 103.338 45.4846
9.504841 103.361 45.1143
9.573717 103.380 44.7419
9.643092 103.395 44.3705
9.712970 103.407 44.0040
9.783354 103.414 43.6468
9.854248 103.419 43.3030
9.925656 103.420 42.9765
9.997581 103.418 42.6701
10.070028 103.415 42.3865
10.143000 103.410 42.1281
10.216500 103.404 41.8972
10.290533 103.398 41.6952
10.365103 103.394 41.5226
10.440212 103.390 41.3784
10.515866 103.390 41.2609
10.592069 103.392 41.1675
10.668823 103.399 41.0952
10.746134 103.411 41.0400
10.824005 103.427 40.9967
10.902440 103.450 40.9591
10.981443 103.478 40.9208
11.061020 103.511 40.8758
11.141172 103.551 40.8179
11.221906 103.595 40.7412
11.303225 103.644 40.6396
11.385133 103.697 40.5081
11.467634 103.753 40.3430
11.550734 103.811 40.1417
11.634435 103.869 39.9025
11.718742 103.928 39.6247
11.803661 103.985 39.3089
11.889195 104.040 38.9570
11.975349 104.092 38.5724
12.062128 104.140 38.1593
12.149535 104.182 37.7224
12.237576 104.220 37.2670
12.326254 104.251 36.7997
12.415575 104.276 36.3275
12.505544 104.295 35.8573
12.596164 104.308 35.3959
12.687441 104.315 34.9502
12.779379 104.317 34.5270
12.871984 104.314 34.1325
12.965260 104.306 33.7719
13.059211 104.296 33.4491
13.153843 104.284 33.1673
13.249161 104.272 32.9281
13.345170 104.259 32.7311
13.441875 104.249 32.5748
13.539280 104.241 32.4567
13.637391 104.237 32.3734
13.736214 104.238 32.3198
13.835752 104.245 32.2896
13.936011 104.257 32.2750
14.036998 104.275 32.2675
14.138716 104.299 32.2589
14.241171 104.328 32.2411
14.344368 104.361 32.2072
14.448313 104.399 32.1519
14.553011 104.439 32.0708
14.658468 104.481 31.9614
14.764689 104.523 31.8226
14.871680 104.565 31.6550
14.979446 104.604 31.4609
15.087994 104.641 31.2438
15.197328 104.675 31.0081
15.307454 104.704 30.7594
15.418378 104.730 30.5039
15.530106 104.750 30.2476
15.642643 104.767 29.9967
15.755996 104.779 29.7570
15.870171 104.789 29.5334
15.985172 104.795 29.3298
16.101007 104.800 29.1487
16.217682 104.805 28.9913
16.335201 104.810 28.8571
16.453573 104.815 28.7439
16.572803 104.824 28.6480
16.692898 104.834 28.5645
16.813862 104.848 28.4872
16.935701 104.866 28.4098
17.058424 104.887 28.3255
17.182035 104.910 28.2279
17.306543 104.936 28.1115
17.431953 104.964 27.9722
17.558273 104.991 27.8072
17.685509 105.019 27.6156
17.813665 105.045 27.3982
17.942751 105.068 27.1578
18.072771 105.088 26.8984
18.203733 105.104 26.6252
18.335646 105.117 26.3446
18.468513 105.125 26.0626
18.602345 105.129 25.7858
18.737144 105.130 25.5197
18.872921 105.129 25.2686
19.009682 105.126 25.0356
19.147434 105.122 24.8220
19.286184 105.119 24.6273
19.425940 105.117 24.4492
19.566708 105.118 24.2841
19.708496 105.121 24.1274
19.851313 105.126 23.9740
19.995163 105.134 23.8190
20.140057 105.145 23.6580
20.285999 105.157 23.4878
20.433001 105.171 23.3067
20.581066 105.185 23.1145
20.730206 105.199 22.9122
20.880424 105.213 22.7023
21.031733 105.226 22.4875
21.184137 105.238 22.2712
21.337646 105.250 22.0562
21.492268 105.261 21.8445
21.648010 105.273 21.6375
21.804880 105.284 21.4354
21.962887 105.297 21.2375
22.122040 105.310 21.0425
22.282345 105.324 20.8485
22.443811 105.339 20.6541
22.606449 105.354 20.4581
22.770266 105.369 20.2603
22.935268 105.384 20.0610
23.101467 105.398 19.8614
23.268869 105.412 19.6630
23.437485 105.425 19.4675
23.607323 105.437 19.2762
23.778391 105.449 19.0902
23.950699 105.460 18.9096
24.124256 105.471 18.7343
24.299070 105.482 18.5637
24.475151 105.493 18.3972
24.652508 105.503 18.2345
24.831150 105.513 18.0759
25.011087 105.523 17.9220
25.192327 105.532 17.7736
25.374882 105.542 17.6312
25.558758 105.551 17.4948
25.743967 105.562 17.3628
25.930519 105.574 17.2325
26.118422 105.587 17.0997
26.307686 105.601 16.9595
26.498322 105.617 16.8069
26.690340 105.633 16.6384
26.883749 105.649 16.4523
27.078560 105.663 16.2495
27.274782 105.674 16.0336
27.472427 105.683 15.8102
27.671503 105.689 15.5859
27.872023 105.692 15.3667
28.073996 105.693 15.1575
28.277431 105.693 14.9600
28.482342 105.693 14.7737
28.688736 105.694 14.5962
28.896626 105.696 14.4236
29.106022 105.698 14.2531
29.316936 105.701 14.0837
29.529379 105.703 13.9167
29.743361 105.705 13.7551
29.958893 105.707 13.6030
30.175987 105.709 13.4636
30.394655 105.713 13.3370
30.614908 105.718 13.2202
30.836756 105.727 13.1066
31.060211 105.739 12.9879
31.285286 105.753 12.8564
31.511992 105.767 12.7073
31.740341 105.781 12.5405
31.970345 105.792 12.3611
32.202015 105.800 12.1780
32.435364 105.805 12.0011
32.670403 105.808 11.8384
32.907146 105.810 11.6927
33.145607 105.813 11.5614
33.385796 105.818 11.4363
33.627724 105.825 11.3063
33.871403 105.833 11.1617
34.116848 105.841 10.9967
34.364071 105.847 10.8120
34.613087 105.849 10.6144
34.863907 105.847 10.4144
35.116547 105.842 10.2230
35.371017 105.835 10.0477
35.627331 105.828 9.8901
35.885502 105.822 9.7457
36.145542 105.819 9.6053
36.407467 105.818 9.4590
36.671291 105.819 9.2993
36.937027 105.821 9.1236
37.204689 105.822 8.9354
37.474289 105.822 8.7422
37.745842 105.820 8.5524
38.019363 105.818 8.3727
38.294868 105.818 8.2050
38.572369 105.819 8.0471
38.851879 105.824 7.8928
39.133415 105.831 7.7358
39.416992 105.839 7.5714
39.702625 105.848 7.3988
39.990326 105.857 7.2212
40.280113 105.864 7.0435
40.571999 105.871 6.8707
40.866001 105.877 6.7055
41.162132 105.883 6.5467
41.460411 105.889 6.3902
41.760849 105.894 6.2303
42.063465 105.899 6.0623
42.368275 105.902 5.8839
42.675293 105.901 5.6973
42.984535 105.895 5.5083
43.296021 105.886 5.3245
43.609760 105.873 5.1528
43.925774 105.857 4.9966
44.244080 105.841 4.8537
44.564690 105.826 4.7170
44.887623 105.812 4.5780
45.212898 105.799 4.4304
45.540531 105.787 4.2738
45.870537 105.774 4.1140
46.202934 105.762 3.9588
46.537739 105.752 3.8134
46.874969 105.747 3.6760
47.214645 105.748 3.5394
47.556782 105.756 3.3948
47.901398 105.770 3.2373
48.248512 105.790 3.0660
48.598141 105.816 2.8778
48.950302 105.849 2.6604
49.305016 105.887 2.3915
49.662300 105.925 2.0496
50.022175 105.956 1.6320
50.384655 105.971 1.1700
50.749763 105.964 0.7280
51.117516 105.936 0.3833
51.487934 105.896 0.1945
51.861038 105.856 0.1738
52.236843 105.828 0.2802
52.615372 105.816 0.4399
52.996643 105.816 0.5851
53.380680 105.822 0.6815
53.767498 105.826 0.7320
54.157120 105.828 0.7572
54.549564 105.829 0.7717
54.944855 105.830 0.7731
55.343006 105.834 0.7469
55.744045 105.838 0.6804
56.147991 105.842 0.5709
56.554863 105.845 0.4261
56.964684 105.845 0.2592
57.377472 105.843 0.0842
57.793251 105.840 -0.0848
58.212044 105.836 -0.2375
58.633873 105.835 -0.3705
59.058758 105.835 -0.4893
59.486721 105.835 -0.5999
59.917786 105.832 -0.6970
60.351974 105.824 -0.7592
60.789310 105.810 -0.7595
61.229816 105.794 -0.6847
61.673512 105.780 -0.5444
62.120422 105.770 -0.3592
62.570572 105.764 -0.1428
63.023983 105.764 0.0961
63.480682 105.775 0.3271
63.940689 105.802 0.4782
64.404030 105.840 0.4564
64.870728 105.873 0.2086
65.340805 105.886 -0.2305
65.814293 105.868 -0.7468
66.291214 105.825 -1.2090
66.771591 105.774 -1.5377
67.255447 105.733 -1.7380
67.742805 105.713 -1.8780
68.233696 105.715 -2.0381
68.728142 105.731 -2.2686
69.226173 105.751 -2.5743
69.727814 105.767 -2.9233
70.233093 105.773 -3.2667
70.742035 105.769 -3.5615
71.254662 105.759 -3.7848
71.771004 105.744 -3.9335
72.291084 105.727 -4.0165
72.814934 105.711 -4.0498
73.342583 105.698 -4.0583
73.874054 105.688 -4.0745
74.409378 105.681 -4.1271
74.948578 105.674 -4.2281
75.491684 105.665 -4.3718
76.038727 105.655 -4.5447
76.589737 105.645 -4.7366
77.144737 105.637 -4.9432
77.703758 105.630 -5.1620
78.266830 105.624 -5.3893
78.833984 105.618 -5.6219
79.405251 105.612 -5.8567
79.980652 105.602 -6.0876
80.560226 105.588 -6.3033
81.143997 105.570 -6.4917
81.732002 105.550 -6.6505
82.324265 105.529 -6.7900
82.920822 105.509 -6.9240
83.521698 105.488 -7.0562
84.126930 105.466 -7.1790
84.736549 105.446 -7.2857
85.350586 105.429 -7.3829
85.969070 105.416 -7.4889
86.592041 105.405 -7.6198
87.219521 105.392 -7.7751
87.851547 105.375 -7.9387
88.488159 105.355 -8.0917
89.129379 105.334 -8.2244
89.775246 105.313 -8.3369
90.425797 105.295 -8.4347
91.081062 105.282 -8.5248
91.741074 105.273 -8.6133
92.405869 105.267 -8.7014
93.075478 105.263 -8.7829
93.749939 105.258 -8.8483
94.429291 105.251 -8.8912
95.113564 105.241 -8.9110
95.802795 105.227 -8.9122
96.497025 105.209 -8.9030
97.196281 105.189 -8.8942
97.900604 105.169 -8.8973
98.610031 105.152 -8.9210
99.324600 105.142 -8.9694
100.044350 105.140 -9.0454
100.769310 105.146 -9.1483
101.499527 105.154 -9.2633
102.235031 105.158 -9.3571
102.975868 105.153 -9.3955
103.722076 105.136 -9.3667
104.473686 105.105 -9.2843
105.230743 105.060 -9.1802
105.993286 105.003 -9.0976
106.761360 104.942 -9.0771
107.534996 104.883 -9.1389
108.314240 104.839 -9.2824
109.099129 104.817 -9.4893
109.889709 104.817 -9.7103
110.686012 104.833 -9.8641
111.488091 104.855 -9.8701
112.295982 104.868 -9.6912
113.109726 104.861 -9.3684
113.929367 104.820 -9.0273
114.754944 104.737 -8.8435
115.586502 104.606 -8.9819
116.424088 104.437 -9.5212
117.267746 104.258 -10.3776
118.117516 104.124 -11.2594
118.973442 104.112 -11.7760
119.835571 104.299 -11.8542
120.703949 104.690 -12.0001
121.578621 105.200 -12.7302
122.459633 105.708 -14.0063
123.347023 106.113 -15.4529
124.240845 106.344 -16.6415
125.141144 106.381 -17.1743
126.047966 106.260 -16.8766
126.961365 106.040 -15.9418
127.881378 105.773 -14.7645
128.808060 105.495 -13.6607
129.741455 105.236 -12.7423
130.681610 105.028 -11.9720
131.628586 104.902 -11.2990
132.582428 104.868 -10.7471
133.543182 104.905 -10.4289
134.510895 104.962 -10.4989
135.485611 104.972 -11.0291
136.467392 104.885 -11.8632
137.456284 104.701 -12.6760
138.452347 104.477 -13.2561
139.455627 104.293 -13.6746
140.466187 104.196 -14.1415
141.484070 104.185 -14.7462
142.509323 104.225 -15.3838
143.542007 104.276 -15.8734
144.582169 104.308 -16.0818
145.629868 104.309 -15.9632
146.685165 104.285 -15.5726
147.748108 104.252 -15.0682
148.818756 104.222 -14.6385
149.897156 104.197 -14.3933
150.983368 104.177 -14.3096
152.077454 104.159 -14.2617
153.179474 104.149 -14.1245
154.289474 104.151 -13.8663
155.407516 104.164 -13.5501
156.533661 104.180 -13.2609
157.667969 104.189 -13.0509
158.810501 104.187 -12.9381
159.961304 104.174 -12.9194
161.120453 104.153 -12.9783
162.287994 104.130 -13.0861
163.464005 104.105 -13.2034
164.648529 104.080 -13.2900
165.841644 104.053 -13.3217
167.043396 104.023 -13.3058
168.253860 103.991 -13.2817
169.473099 103.958 -13.3026
170.701172 103.926 -13.4009
171.938141 103.901 -13.5671
173.184082 103.885 -13.7603
174.439041 103.880 -13.9404
175.703094 103.880 -14.1069
176.976318 103.881 -14.3199
178.258759 103.877 -14.6886
179.550491 103.872 -15.3302
180.851593 103.872 -16.3151
182.162125 103.879 -17.6077
183.482147 103.881 -19.0136
184.811737 103.860 -20.1897
186.150955 103.808 -20.7844
187.499878 103.739 -20.7122
188.858582 103.676 -20.2489
190.227127 103.623 -19.7695
191.605591 103.571 -19.4744
192.994049 103.509 -19.3083
194.392563 103.433 -19.0613
195.801208 103.347 -18.5735
197.220062 103.256 -17.8802
198.649200 103.161 -17.1295
200.088699 103.065 -16.4466
201.538620 102.984 -15.8973
202.999054 102.941 -15.5213
204.470062 102.946 -15.3265
205.951736 102.990 -15.2594
207.444153 103.053 -15.2579
208.947372 103.111 -15.2983
210.461487 103.150 -15.3755
211.986572 103.165 -15.4767
213.522720 103.159 -15.5883
215.069992 103.140 -15.6968
216.628479 103.111 -15.7812
218.198257 103.075 -15.8101
219.779419 103.040 -15.7574
221.372025 103.009 -15.6282
222.976181 102.985 -15.4560
224.591965 102.965 -15.2818
226.219452 102.947 -15.1464
227.858734 102.927 -15.0784
229.509888 102.904 -15.0812
231.173004 102.878 -15.1340
232.848175 102.850 -15.2070
234.535492 102.818 -15.2795
236.235031 102.783 -15.3452
237.946884 102.743 -15.4019
239.671143 102.701 -15.4451
241.407898 102.655 -15.4705
243.157242 102.607 -15.4790
244.919266 102.558 -15.4768
246.694046 102.507 -15.4702
248.481689 102.456 -15.4598
250.282288 102.405 -15.4356
252.095932 102.354 -15.3770
253.922729 102.304 -15.2607
255.762756 102.254 -15.0695
257.616119 102.207 -14.7964
259.482910 102.166 -14.4423
261.363220 102.139 -14.0103
263.257172 102.130 -13.5043
265.164856 102.143 -12.9350
267.086365 102.177 -12.3461
269.021790 102.225 -11.8332
270.971222 102.273 -11.4997
272.934784 102.305 -11.3682
274.912567 102.311 -11.3709
276.904694 102.288 -11.4059
278.911255 102.245 -11.3972
280.932373 102.192 -11.3306
282.968140 102.143 -11.2314
285.018646 102.102 -11.1350
287.084015 102.071 -11.0753
289.164337 102.049 -11.0758
291.259735 102.032 -11.1331
293.370331 102.016 -11.2141
295.496216 101.998 -11.2777
297.637512 101.976 -11.3008
299.794312 101.951 -11.2830
301.966736 101.925 -11.2345
304.154907 101.899 -11.1658
306.358948 101.875 -11.0833
308.578949 101.851 -10.9907
310.815033 101.827 -10.8903
313.067322 101.804 -10.7822
315.335938 101.780 -10.6647
317.621002 101.756 -10.5352
319.922607 101.732 -10.3943
322.240906 101.708 -10.2461
324.575989 101.685 -10.0930
326.928009 101.663 -9.9327
329.297058 101.640 -9.7598
331.683289 101.618 -9.5748
334.086792 101.598 -9.3912
336.507721 101.580 -9.2316
338.946198 101.566 -9.1132
341.402344 101.552 -9.0300
343.876282 101.539 -8.9606
346.368164 101.523 -8.8868
348.878082 101.506 -8.8013
351.406189 101.487 -8.7023
353.952637 101.469 -8.5901
356.517517 101.453 -8.4670
359.100983 101.437 -8.3364
361.703186 101.423 -8.2008
364.324249 101.408 -8.0621
366.964294 101.394 -7.9222
369.623474 101.379 -7.7822
372.301910 101.364 -7.6426
374.999756 101.349 -7.5023
377.717163 101.335 -7.3602
380.454254 101.320 -7.2164
383.211182 101.305 -7.0714
385.988098 101.290 -6.9252
388.785126 101.275 -6.7772
391.602417 101.259 -6.6268
394.440125 101.244 -6.4743
397.298401 101.230 -6.3207
400.177399 101.215 -6.1671
403.077240 101.202 -6.0143
405.998108 101.187 -5.8629
408.940125 101.172 -5.7137
411.903473 101.157 -5.5663
414.888306 101.141 -5.4187
417.894745 101.125 -5.2686
420.922974 101.110 -5.1130
423.973145 101.095 -4.9498
427.045441 101.082 -4.7787
430.139984 101.070 -4.6014
433.256958 101.059 -4.4213
436.396515 101.050 -4.2419
439.558838 101.042 -4.0651
442.744049 101.035 -3.8917
445.952362 101.030 -3.7244
449.183929 101.025 -3.5683
452.438904 101.020 -3.4305
455.717468 101.014 -3.3159
459.019775 101.006 -3.2217
462.346008 100.994 -3.1364
465.696350 100.978 -3.0455
469.070984 100.961 -2.9392
472.470062 100.943 -2.8151
475.893768 100.925 -2.6767
479.342285 100.907 -2.5308
482.815796 100.890 -2.3838
486.314484 100.872 -2.2372
489.838531 100.854 -2.0854
493.388092 100.835 -1.9204
496.963379 100.816 -1.7382
500.564575 100.798 -1.5426
504.191864 100.782 -1.3417
507.845459 100.767 -1.1429
511.525513 100.753 -0.9493
515.232239 100.738 -0.7606
518.965820 100.723 -0.5735
522.726440 100.706 -0.3837
526.514343 100.688 -0.1868
530.329712 100.671 0.0195
534.172729 100.654 0.2341
538.043579 100.639 0.4537
541.942444 100.624 0.6759
545.869568 100.610 0.9004
549.825134 100.597 1.1267
553.809387 100.585 1.3528
557.822510 100.574 1.5760
561.864746 100.564 1.7941
565.936279 100.553 2.0078
570.037292 100.541 2.2203
574.168030 100.528 2.4360
578.328674 100.515 2.6581
582.519470 100.501 2.8873
586.740662 100.487 3.1235
590.992432 100.472 3.3685
595.275024 100.458 3.6241
599.588623 100.444 3.8893
603.933472 100.431 4.1597
608.309814 100.419 4.4310
612.717896 100.406 4.7016
617.157898 100.393 4.9735
621.630066 100.380 5.2527
626.134644 100.367 5.5457
630.671875 100.355 5.8536
635.242004 100.345 6.1714
639.845215 100.338 6.4922
644.481812 100.333 6.8151
649.151978 100.329 7.1426
653.856018 100.328 7.4744
658.594116 100.330 7.8040
663.366577 100.334 8.1201
668.173584 100.339 8.4138
673.015442 100.344 8.6849
677.892395 100.346 8.9421
682.804688 100.347 9.1956
687.752563 100.345 9.4535
692.736328 100.341 9.7213
697.756165 100.336 10.0031
702.812378 100.330 10.3004
707.905273 100.325 10.6107
713.035034 100.322 10.9291
718.201965 100.319 11.2511
723.406372 100.317 11.5754
728.648499 100.316 11.9031
733.928589 100.315 12.2358
739.246948 100.315 12.5752
744.603821 100.315 12.9221
749.999512 100.316 13.2770
755.434326 100.317 13.6389
760.908508 100.319 14.0066
766.422363 100.321 14.3788
771.976196 100.325 14.7551
777.570251 100.331 15.1355
783.204834 100.338 15.5200
788.880249 100.346 15.9102
794.596802 100.355 16.3087
800.354797 100.366 16.7177
806.154480 100.381 17.1354
811.996216 100.399 17.5555
817.880249 100.421 17.9694
823.806946 100.446 18.3673
829.776611 100.473 18.7417
835.789490 100.500 19.0906
841.845947 100.526 19.4214
847.946289 100.550 19.7452
854.090881 100.572 20.0707
860.279968 100.593 20.4014
866.513916 100.614 20.7394
872.793030 100.634 21.0874
879.117676 100.656 21.4446
885.488098 100.678 21.8066
891.904724 100.702 22.1698
898.367859 100.726 22.5343
904.877808 100.752 22.9028
911.434937 100.779 23.2760
918.039551 100.808 23.6514
924.692017 100.840 24.0258
931.392700 100.873 24.3954
938.141968 100.908 24.7565
944.940125 100.944 25.1068
951.787537 100.981 25.4478
958.684570 101.018 25.7823
965.631592 101.055 26.1138
972.628967 101.092 26.4445
979.677063 101.129 26.7750
986.776184 101.167 27.1046
993.926758 101.204 27.4348
1001.129150 101.242 27.7701
1008.383728 101.280 28.1138
1015.690918 101.321 28.4644
1023.051025 101.365 28.8172
1030.464478 101.413 29.1653
1037.931641 101.464 29.4980
1045.452881 101.519 29.8037
1053.028687 101.573 30.0769
1060.659424 101.627 30.3211
1068.345459 101.678 30.5451
1076.087158 101.727 30.7587
1083.884888 101.773 30.9691
1091.739136 101.817 31.1801
1099.650269 101.859 31.3932
1107.618774 101.900 31.6099
1115.645020 101.940 31.8324
1123.729492 101.979 32.0630
1131.872559 102.017 32.3045
1140.074585 102.055 32.5596
1148.336060 102.093 32.8316
1156.657349 102.131 33.1241
1165.038940 102.170 33.4400
1173.481323 102.212 33.7809
1181.984863 102.259 34.1438
1190.550049 102.312 34.5185
1199.177246 102.373 34.8880
1207.866943 102.441 35.2324
1216.619629 102.515 35.5358
1225.435791 102.591 35.7911
1234.315796 102.669 35.9972
1243.260132 102.746 36.1572
1252.269287 102.819 36.2767
1261.343750 102.890 36.3628
1270.484009 102.955 36.4231
1279.690430 103.016 36.4672
1288.963623 103.071 36.5059
1298.303955 103.122 36.5474
1307.712036 103.169 36.5964
1317.188232 103.213 36.6548
1326.733154 103.254 36.7240
1336.347168 103.292 36.8065
1346.030884 103.328 36.9057
1355.784790 103.363 37.0248
1365.609375 103.396 37.1668
1375.505127 103.429 37.3356
1385.472656 103.462 37.5353
1395.512329 103.498 37.7659
1405.624756 103.537 38.0202
1415.810547 103.582 38.2846
1426.070068 103.631 38.5434
1436.403931 103.683 38.7866
1446.812744 103.737 39.0133
1457.296997 103.791 39.2293
1467.857178 103.844 39.4409
1478.493896 103.898 39.6525
1489.207642 103.952 39.8665
1499.999023 104.006 40.0857
1510.868652 104.060 40.3130
1521.817017 104.115 40.5506
1532.844727 104.172 40.8004
1543.952393 104.231 41.0635
1555.140503 104.293 41.3400
1566.409668 104.361 41.6248
1577.760498 104.434 41.9059
1589.193604 104.512 42.1685
1600.709595 104.594 42.4027
1612.308960 104.676 42.6079
1623.992432 104.760 42.7892
1635.760498 104.843 42.9533
1647.613892 104.925 43.1054
1659.553223 105.008 43.2494
1671.578979 105.091 43.3876
1683.691895 105.175 43.5201
1695.892578 105.260 43.6439
1708.181763 105.347 43.7554
1720.559937 105.434 43.8537
1733.027832 105.521 43.9415
1745.586060 105.608 44.0235
1758.235352 105.696 44.1056
1770.976196 105.785 44.1922
1783.809448 105.878 44.2813
1796.735718 105.975 44.3627
1809.755615 106.077 44.4211
1822.869873 106.183 44.4445
1836.079102 106.290 44.4283
1849.384033 106.397 44.3728
1862.785400 106.502 44.2810
1876.283936 106.607 44.1570
1889.880249 106.709 44.0063
1903.575073 106.809 43.8349
1917.369141 106.907 43.6486
1931.263184 107.004 43.4510
1945.257935 107.102 43.2413
1959.354126 107.200 43.0117
1973.552368 107.298 42.7499
1987.853516 107.395 42.4474
2002.258301 107.488 42.1033
2016.767456 107.577 41.7234
2031.381836 107.658 41.3167
2046.102051 107.733 40.8943
2060.928955 107.801 40.4667
2075.863281 107.863 40.0422
2090.905762 107.918 39.6279
2106.057373 107.967 39.2322
2121.318848 108.012 38.8658
2136.690918 108.052 38.5399
2152.174316 108.093 38.2628
2167.769775 108.137 38.0326
2183.478271 108.186 37.8326
2199.300537 108.244 37.6364
2215.237549 108.309 37.4169
2231.290039 108.378 37.1528
2247.458984 108.449 36.8309
2263.745117 108.519 36.4477
2280.149170 108.583 36.0101
2296.672119 108.640 35.5333
2313.314697 108.688 35.0364
2330.077881 108.730 34.5352
2346.962646 108.765 34.0364
2363.969727 108.796 33.5390
2381.100098 108.821 33.0410
2398.354492 108.841 32.5433
2415.733887 108.855 32.0503
2433.239258 108.862 31.5695
2450.871582 108.864 31.1090
2468.631592 108.859 30.6767
2486.520264 108.849 30.2806
2504.538574 108.834 29.9299
2522.687500 108.817 29.6344
2540.968018 108.800 29.3997
2559.380859 108.786 29.2203
2577.927246 108.779 29.0781
2596.607910 108.778 28.9493
2615.424072 108.783 28.8123
2634.376465 108.791 28.6532
2653.466309 108.800 28.4684
2672.694336 108.807 28.2653
2692.061768 108.810 28.0582
2711.569580 108.811 27.8622
2731.218750 108.809 27.6858
2751.010254 108.807 27.5297
2770.945312 108.805 27.3925
2791.024658 108.803 27.2731
2811.249512 108.803 27.1716
2831.621094 108.803 27.0878
2852.140137 108.806 27.0198
2872.807861 108.810 26.9661
2893.625488 108.816 26.9268
2914.593994 108.825 26.9053
2935.714355 108.838 26.9031
2956.987793 108.857 26.9130
2978.415283 108.881 26.9211
2999.998047 108.912 26.9119
3021.737305 108.946 26.8738
3043.634033 108.983 26.8031
3065.689453 109.020 26.7042
3087.904785 109.056 26.5858
3110.281006 109.093 26.4540
3132.819336 109.129 26.3085
3155.520996 109.166 26.1456
3178.387207 109.203 25.9622
3201.419189 109.239 25.7566
3224.617920 109.273 25.5289
3247.984863 109.305 25.2797
3271.520996 109.333 25.0135
3295.227783 109.357 24.7407
3319.106445 109.376 24.4749
3343.157959 109.392 24.2249
3367.383789 109.406 23.9928
3391.785156 109.420 23.7767
3416.363525 109.433 23.5739
3441.119873 109.446 23.3845
3466.055664 109.460 23.2120
3491.172119 109.476 23.0573
3516.470703 109.496 22.9131
3541.952393 109.520 22.7654
3567.618896 109.548 22.5977
3593.471436 109.580 22.3962
3619.511230 109.613 22.1515
3645.739746 109.644 21.8601
3672.158203 109.671 21.5273
3698.768066 109.692 21.1672
3725.570801 109.707 20.7946
3752.567871 109.716 20.4198
3779.760498 109.719 20.0475
3807.150146 109.717 19.6816
3834.738281 109.710 19.3291
3862.526367 109.697 19.0012
3890.515869 109.682 18.7067
3918.708252 109.665 18.4467
3947.104736 109.650 18.2147
3975.707031 109.636 17.9991
4004.516602 109.625 17.7862
4033.534912 109.614 17.5639
4062.763672 109.603 17.3269
4092.204102 109.590 17.0785
4121.857910 109.573 16.8246
4151.726562 109.553 16.5689
4181.811523 109.529 16.3132
4212.114746 109.500 16.0625
4242.637695 109.464 15.8283
4273.381836 109.423 15.6260
4304.348633 109.378 15.4672
4335.539551 109.331 15.3561
4366.956543 109.284 15.2897
4398.601074 109.238 15.2593
4430.475098 109.194 15.2556
4462.580078 109.150 15.2737
4494.917969 109.108 15.3151
4527.490234 109.065 15.3811
4560.298340 109.024 15.4710
4593.344238 108.982 15.5841
4626.629395 108.940 15.7251
4660.155762 108.899 15.9038
4693.925293 108.858 16.1296
4727.939453 108.820 16.4061
4762.200195 108.786 16.7303
4796.708984 108.759 17.0932
4831.467773 108.739 17.4855
4866.478516 108.724 17.9031
4901.743164 108.717 18.3458
4937.263184 108.716 18.8123
4973.040527 108.723 19.2981
5009.077148 108.739 19.8014
5045.375000 108.763 20.3247
5081.936035 108.797 20.8712
5118.761719 108.843 21.4382
5155.854492 108.905 22.0137
5193.215820 108.984 22.5754
5230.848145 109.080 23.0972
5268.752930 109.193 23.5543
5306.932617 109.321 23.9236
5345.388672 109.463 24.1819
5384.123535 109.615 24.3091
5423.139160 109.773 24.2939
5462.437500 109.932 24.1355
5502.020508 110.091 23.8382
5541.890625 110.246 23.4075
5582.049316 110.395 22.8468
5622.499023 110.535 22.1599
5663.242188 110.664 21.3547
5704.280273 110.779 20.4432
5745.615723 110.879 19.4384
5787.250977 110.960 18.3550
5829.187988 111.022 17.2141
5871.428711 111.064 16.0408
5913.975586 111.085 14.8604
5956.830566 111.088 13.6933
5999.996094 111.075 12.5530
6043.474609 111.047 11.4478
6087.268066 111.008 10.3828
6131.378906 110.957 9.3593
6175.809570 110.896 8.3759
6220.562012 110.825 7.4340
6265.638672 110.745 6.5391
6311.041992 110.655 5.7006
6356.774414 110.559 4.9259
6402.838379 110.456 4.2191
6449.235840 110.350 3.5801
6495.969727 110.242 3.0057
6543.041992 110.134 2.4888
6590.455566 110.025 2.0210
6638.212891 109.917 1.5974
6686.315918 109.810 1.2174
6734.767578 109.703 0.8818
6783.570312 109.598 0.5903
6832.727051 109.496 0.3392
6882.239746 109.399 0.1210
6932.111328 109.308 -0.0768
6982.344238 109.223 -0.2692
7032.941406 109.143 -0.4688
7083.904785 109.068 -0.6833
7135.237793 108.996 -0.9177
7186.942871 108.926 -1.1758
7239.022461 108.859 -1.4617
7291.479492 108.793 -1.7815
7344.316406 108.728 -2.1445
7397.536133 108.662 -2.5599
7451.141602 108.593 -3.0342
7505.135742 108.519 -3.5693
7559.520996 108.437 -4.1641
7614.300293 108.345 -4.8140
7669.476562 108.242 -5.5129
7725.052734 108.125 -6.2568
7781.031738 107.991 -7.0420
7837.416504 107.837 -7.8588
7894.209473 107.658 -8.6868
7951.414062 107.452 -9.4956
8009.033203 107.216 -10.2445
8067.069824 106.948 -10.8837
8125.527344 106.648 -11.3560
8184.408203 106.318 -11.5897
8243.715820 105.961 -11.4869
8303.453125 105.589 -10.9144
8363.623047 105.222 -9.7201
8424.229492 104.899 -7.7986
8485.275391 104.669 -5.2320
8546.763672 104.569 -2.4366
8608.697266 104.589 -0.0823
8671.079102 104.657 1.3364
8733.913086 104.689 1.8721
8797.202148 104.643 1.9753
8860.950195 104.520 2.1147
8925.160156 104.352 2.5812
8989.835938 104.176 3.4763
9054.980469 104.022 4.7698
9120.596680 103.914 6.3607
9186.688477 103.863 8.1243
9253.258789 103.873 9.9379
9320.311523 103.946 11.6882
9387.850586 104.076 13.2711
9455.878906 104.257 14.5942
9524.400391 104.478 15.5830
9593.417969 104.727 16.1860
9662.935547 104.990 16.3766
9732.957031 105.254 16.1487
9803.486328 105.506 15.5112
9874.526367 105.735 14.4888
9946.081055 105.929 13.1238
10018.154297 106.079 11.4777
10090.750000 106.177 9.6265
10163.872070 106.221 7.6489
10237.523438 106.212 5.6175
10311.708984 106.152 3.5941
10386.431641 106.045 1.6324
10461.696289 105.896 -0.2185
10537.505859 105.708 -1.9174
10613.865234 105.491 -3.4352
10690.777344 105.252 -4.7596
10768.247070 104.997 -5.8912
10846.278320 104.731 -6.8364
10924.875000 104.460 -7.6026
11004.041016 104.186 -8.1981
11083.781250 103.914 -8.6346
11164.098633 103.647 -8.9254
11244.998047 103.387 -9.0803
11326.484375 103.137 -9.1074
11408.560547 102.901 -9.0214
11491.231445 102.685 -8.8533
11574.501953 102.490 -8.6494
11658.375977 102.318 -8.4594
11742.857422 102.166 -8.3233
11827.951172 102.029 -8.2693
11913.661133 101.903 -8.3167
11999.992188 101.785 -8.4780
12086.949219 101.668 -8.7565
12174.536133 101.549 -9.1459
12262.757812 101.423 -9.6349
12351.619141 101.289 -10.2136
12441.124023 101.144 -10.8734
12531.277344 100.985 -11.6020
12622.083984 100.811 -12.3823
12713.548828 100.622 -13.1967
12805.676758 100.415 -14.0308
12898.471680 100.191 -14.8713
12991.939453 99.949 -15.7021
13086.083984 99.690 -16.5052
13180.911133 99.414 -17.2656
13276.425781 99.121 -17.9712
13372.631836 98.813 -18.6089
13469.535156 98.490 -19.1637
13567.140625 98.154 -19.6213
13665.454102 97.808 -19.9721
13764.479492 97.452 -20.2078
13864.222656 97.089 -20.3176
13964.688477 96.721 -20.2913
14065.882812 96.352 -20.1238
14167.809570 95.985 -19.8141
14270.475586 95.623 -19.3614
14373.885742 95.271 -18.7660
14478.044922 94.932 -18.0345
14582.958984 94.612 -17.1783
14688.632812 94.313 -16.2101
14795.072266 94.042 -15.1448
14902.283203 93.804 -14.0055
15010.271484 93.604 -12.8230
15119.041992 93.450 -11.6356
15228.600586 93.349 -10.4937
15338.953125 93.306 -9.4655
15450.105469 93.329 -8.6378
15562.063477 93.420 -8.1154
15674.833008 93.580 -8.0209
15788.418945 93.804 -8.4890
15902.828125 94.078 -9.6541
16018.066406 94.380 -11.6328
16134.139648 94.682 -14.5089
16251.054688 94.948 -18.3150
16368.816406 95.136 -23.0149
16487.431641 95.210 -28.4945
16606.906250 95.133 -34.5648
16727.246094 94.884 -40.9756
16848.458984 94.451 -47.4449
16970.550781 93.837 -53.7004
17093.527344 93.058 -59.5179
17217.394531 92.140 -64.7427
17342.158203 91.113 -69.2994
17467.826172 90.007 -73.1932
17594.404297 88.854 -76.5012
17721.900391 87.679 -79.3574
17850.320312 86.502 -81.9351
17979.671875 85.332 -84.4200
18109.960938 84.165 -86.9777
18241.193359 82.989 -89.7198
18373.376953 81.778 -92.6765
18506.517578 80.499 -95.7804
18640.623047 79.120 -98.8634
18775.701172 77.611 -101.6577
18911.757812 75.956 -103.7631
19048.800781 74.153 -104.5178
19186.835938 72.230 -102.5165
19325.871094 70.263 -93.4228
19465.914062 68.399 -58.3683
19606.972656 66.852 3.9044
19749.052734 65.799 26.1271
19892.162109 65.239 33.1826
20036.308594 65.025 35.6409
