* Measurement data measured by REW V5.31
* Source: EXCL: Microphone (USB Sound Device        ), MICROPHONE (Master Volume), L, volume: 0.390
* Format: 256k Log Swept Sine, 1 sweep at -15.0 dBFS with no timing reference
* Dated: Oct 26, 2024 1:51:10 PM
* REW Settings:
*  C-weighting compensation: Off
*  Target level: 75.0 dB
* Note: AFUL Performer 5+2 R
* Measurement: R AFUL Performer 5+2
* Smoothing: 1/12 octave
* Frequency Step: 96 ppo
* Start Frequency: 0.36621094 Hz
*
* Freq(Hz)	SPL(dB)	Phase(degrees)
0.366211	87.153	168.7587
0.368865	87.146	168.7481
0.371538	87.135	168.7321
0.374230	87.123	168.7120
0.376942	87.108	168.6887
0.379673	87.093	168.6631
0.382424	87.077	168.6356
0.385196	87.060	168.6065
0.387987	87.043	168.5759
0.390798	87.026	168.5440
0.393630	87.009	168.5108
0.396483	86.992	168.4763
0.399356	86.974	168.4406
0.402250	86.957	168.4036
0.405165	86.939	168.3653
0.408101	86.921	168.3257
0.411058	86.903	168.2848
0.414037	86.885	168.2426
0.417037	86.867	168.1990
0.420059	86.848	168.1542
0.423103	86.830	168.1080
0.426169	86.811	168.0604
0.429257	86.792	168.0115
0.432368	86.773	167.9612
0.435501	86.754	167.9095
0.438656	86.735	167.8564
0.441835	86.715	167.8020
0.445037	86.696	167.7461
0.448262	86.676	167.6888
0.451510	86.656	167.6301
0.454782	86.636	167.5700
0.458077	86.616	167.5085
0.461397	86.596	167.4455
0.464740	86.576	167.3811
0.468108	86.555	167.3152
0.471500	86.534	167.2479
0.474917	86.514	167.1791
0.478358	86.493	167.1089
0.481825	86.471	167.0372
0.485316	86.450	166.9641
0.488833	86.429	166.8895
0.492375	86.407	166.8134
0.495943	86.385	166.7359
0.499537	86.363	166.6570
0.503157	86.341	166.5765
0.506803	86.319	166.4947
0.510475	86.297	166.4113
0.514175	86.274	166.3266
0.517900	86.252	166.2404
0.521653	86.229	166.1528
0.525434	86.206	166.0638
0.529241	86.182	165.9734
0.533076	86.159	165.8815
0.536939	86.135	165.7884
0.540830	86.112	165.6938
0.544749	86.088	165.5979
0.548696	86.064	165.5007
0.552673	86.040	165.4022
0.556677	86.015	165.3024
0.560711	85.991	165.2013
0.564774	85.966	165.0990
0.568867	85.941	164.9956
0.572989	85.916	164.8909
0.577141	85.890	164.7851
0.581324	85.865	164.6782
0.585536	85.839	164.5703
0.589779	85.813	164.4613
0.594053	85.787	164.3513
0.598358	85.761	164.2404
0.602694	85.735	164.1287
0.607061	85.708	164.0161
0.611460	85.681	163.9027
0.615891	85.654	163.7887
0.620354	85.627	163.6740
0.624849	85.600	163.5587
0.629377	85.572	163.4429
0.633938	85.544	163.3267
0.638532	85.516	163.2102
0.643159	85.488	163.0934
0.647819	85.459	162.9765
0.652514	85.431	162.8595
0.657242	85.402	162.7426
0.662005	85.373	162.6258
0.666802	85.344	162.5094
0.671634	85.314	162.3933
0.676501	85.285	162.2777
0.681403	85.255	162.1628
0.686341	85.225	162.0488
0.691314	85.194	161.9356
0.696324	85.163	161.8236
0.701370	85.132	161.7128
0.706452	85.101	161.6034
0.711571	85.068	161.4953
0.716728	85.035	161.3888
0.721921	84.999	161.2835
0.727153	84.962	161.1793
0.732422	84.921	161.0757
0.737729	84.877	160.9721
0.743075	84.831	160.8679
0.748460	84.782	160.7625
0.753883	84.731	160.6556
0.759346	84.679	160.5469
0.764849	84.627	160.4361
0.770391	84.574	160.3232
0.775974	84.521	160.2081
0.781597	84.467	160.0908
0.787261	84.413	159.9713
0.792966	84.359	159.8496
0.798712	84.304	159.7257
0.804500	84.249	159.5997
0.810329	84.194	159.4714
0.816201	84.137	159.3411
0.822116	84.080	159.2086
0.828073	84.023	159.0741
0.834074	83.964	158.9376
0.840118	83.905	158.7991
0.846206	83.844	158.6587
0.852338	83.782	158.5164
0.858514	83.719	158.3724
0.864735	83.655	158.2267
0.871001	83.589	158.0794
0.877313	83.521	157.9306
0.883670	83.452	157.7803
0.890074	83.381	157.6288
0.896524	83.309	157.4762
0.903020	83.234	157.3226
0.909564	83.156	157.1681
0.916155	83.077	157.0130
0.922794	82.995	156.8574
0.929481	82.910	156.7016
0.936216	82.823	156.5457
0.943000	82.733	156.3902
0.949834	82.639	156.2352
0.956717	82.542	156.0811
0.963649	82.442	155.9282
0.970632	82.338	155.7769
0.977666	82.231	155.6276
0.984750	82.119	155.4808
0.991886	82.003	155.3369
0.999074	81.883	155.1966
1.006314	81.758	155.0604
1.013606	81.628	154.9290
1.020951	81.493	154.8030
1.028349	81.353	154.6834
1.035801	81.207	154.5708
1.043307	81.055	154.4663
1.050867	80.897	154.3709
1.058482	80.733	154.2856
1.066152	80.562	154.2116
1.073878	80.382	154.1499
1.081660	80.195	154.1016
1.089498	79.998	154.0679
1.097393	79.789	154.0495
1.105345	79.567	154.0471
1.113355	79.331	154.0614
1.121423	79.077	154.0932
1.129549	78.807	154.1433
1.137734	78.518	154.2130
1.145979	78.211	154.3036
1.154283	77.887	154.4167
1.162647	77.545	154.5544
1.171072	77.188	154.7187
1.179558	76.814	154.9122
1.188106	76.426	155.1377
1.196715	76.025	155.3985
1.205387	75.611	155.6983
1.214122	75.186	156.0412
1.222920	74.750	156.4322
1.231782	74.306	156.8768
1.240708	73.855	157.3817
1.249699	73.397	157.9544
1.258754	72.935	158.6037
1.267876	72.470	159.3401
1.277063	72.005	160.1758
1.286318	71.539	161.1252
1.295639	71.077	162.2058
1.305027	70.619	163.4380
1.314484	70.168	164.8464
1.324009	69.726	166.4604
1.333604	69.295	168.3155
1.343268	68.878	170.4537
1.353002	68.477	172.9249
1.362806	68.096	175.7875
1.372681	67.737	179.1081
1.382628	67.403	-177.0411
1.392647	67.098	-172.5873
1.402739	66.826	-167.4689
1.412904	66.589	-161.6526
1.423142	66.393	-155.1591
1.433455	66.240	-148.0863
1.443843	66.134	-140.6212
1.454305	66.079	-133.0225
1.464844	66.077	-125.5742
1.475459	66.130	-118.5278
1.486150	66.239	-112.0607
1.496920	66.404	-106.2646
1.507767	66.623	-101.1579
1.518693	66.894	-96.7090
1.529698	67.215	-92.8587
1.540783	67.583	-89.5371
1.551948	67.995	-86.6742
1.563194	68.447	-84.2051
1.574521	68.937	-82.0728
1.585931	69.461	-80.2278
1.597423	70.014	-78.6287
1.608999	70.594	-77.2403
1.620658	71.197	-76.0332
1.632402	71.818	-74.9829
1.644232	72.454	-74.0689
1.656146	73.100	-73.2739
1.668147	73.753	-72.5833
1.680235	74.408	-71.9849
1.692411	75.060	-71.4683
1.704675	75.707	-71.0246
1.717028	76.343	-70.6463
1.729470	76.964	-70.3269
1.742003	77.566	-70.0608
1.754626	78.146	-69.8433
1.767341	78.699	-69.6701
1.780147	79.222	-69.5377
1.793047	79.714	-69.4429
1.806040	80.173	-69.3830
1.819128	80.600	-69.3555
1.832310	80.996	-69.3582
1.845587	81.365	-69.3891
1.858961	81.710	-69.4460
1.872432	82.034	-69.5270
1.886001	82.340	-69.6302
1.899667	82.630	-69.7535
1.913433	82.904	-69.8953
1.927299	83.164	-70.0538
1.941265	83.411	-70.2276
1.955332	83.646	-70.4151
1.969501	83.869	-70.6151
1.983773	84.082	-70.8264
1.998148	84.285	-71.0480
2.012627	84.479	-71.2787
2.027212	84.666	-71.5179
2.041902	84.847	-71.7646
2.056698	85.022	-72.0182
2.071602	85.193	-72.2780
2.086614	85.361	-72.5434
2.101734	85.528	-72.8141
2.116964	85.694	-73.0896
2.132304	85.860	-73.3698
2.147756	86.028	-73.6546
2.163320	86.197	-73.9443
2.178996	86.368	-74.2394
2.194786	86.540	-74.5407
2.210690	86.712	-74.8491
2.226710	86.882	-75.1655
2.242845	87.048	-75.4903
2.259098	87.212	-75.8235
2.275468	87.371	-76.1647
2.291957	87.525	-76.5133
2.308566	87.675	-76.8687
2.325295	87.821	-77.2298
2.342145	87.963	-77.5959
2.359117	88.101	-77.9661
2.376212	88.236	-78.3395
2.393431	88.367	-78.7154
2.410775	88.496	-79.0929
2.428244	88.622	-79.4714
2.445840	88.746	-79.8502
2.463564	88.868	-80.2287
2.481416	88.988	-80.6066
2.499397	89.108	-80.9835
2.517509	89.226	-81.3596
2.535752	89.344	-81.7351
2.554127	89.460	-82.1111
2.572635	89.574	-82.4886
2.591277	89.687	-82.8688
2.610055	89.798	-83.2530
2.628968	89.906	-83.6415
2.648019	90.011	-84.0345
2.667208	90.114	-84.4316
2.686535	90.214	-84.8323
2.706003	90.312	-85.2360
2.725612	90.407	-85.6417
2.745363	90.499	-86.0486
2.765257	90.590	-86.4557
2.785295	90.679	-86.8624
2.805478	90.765	-87.2676
2.825808	90.851	-87.6706
2.846285	90.935	-88.0708
2.866910	91.017	-88.4678
2.887685	91.099	-88.8614
2.908611	91.179	-89.2520
2.929688	91.258	-89.6403
2.950917	91.335	-90.0273
2.972301	91.410	-90.4143
2.993839	91.483	-90.8019
3.015534	91.554	-91.1905
3.037386	91.624	-91.5800
3.059396	91.691	-91.9702
3.081565	91.756	-92.3604
3.103896	91.819	-92.7498
3.126388	91.881	-93.1378
3.149043	91.941	-93.5233
3.171862	92.000	-93.9057
3.194847	92.058	-94.2839
3.217998	92.115	-94.6575
3.241317	92.171	-95.0257
3.264805	92.225	-95.3884
3.288463	92.279	-95.7457
3.312293	92.331	-96.0981
3.336295	92.383	-96.4462
3.360471	92.432	-96.7906
3.384822	92.481	-97.1320
3.409350	92.527	-97.4704
3.434056	92.573	-97.8060
3.458940	92.617	-98.1388
3.484005	92.660	-98.4685
3.509252	92.702	-98.7948
3.534681	92.743	-99.1175
3.560295	92.784	-99.4362
3.586094	92.824	-99.7506
3.612081	92.863	-100.0604
3.638255	92.903	-100.3653
3.664620	92.941	-100.6653
3.691175	92.979	-100.9603
3.717923	93.017	-101.2507
3.744864	93.053	-101.5366
3.772001	93.089	-101.8184
3.799335	93.125	-102.0964
3.826866	93.160	-102.3710
3.854597	93.194	-102.6426
3.882529	93.228	-102.9115
3.910664	93.262	-103.1780
3.939002	93.296	-103.4423
3.967546	93.329	-103.7044
3.996296	93.363	-103.9645
4.025255	93.397	-104.2223
4.054423	93.431	-104.4776
4.083804	93.465	-104.7304
4.113396	93.499	-104.9808
4.143204	93.533	-105.2292
4.173227	93.566	-105.4759
4.203468	93.600	-105.7217
4.233928	93.634	-105.9674
4.264609	93.668	-106.2137
4.295512	93.702	-106.4613
4.326639	93.736	-106.7109
4.357992	93.770	-106.9628
4.389572	93.805	-107.2173
4.421380	93.839	-107.4743
4.453419	93.874	-107.7337
4.485691	93.909	-107.9954
4.518196	93.944	-108.2596
4.550936	93.979	-108.5264
4.583914	94.014	-108.7964
4.617131	94.049	-109.0699
4.650589	94.084	-109.3475
4.684289	94.119	-109.6296
4.718233	94.153	-109.9168
4.752424	94.188	-110.2092
4.786862	94.222	-110.5071
4.821549	94.256	-110.8106
4.856488	94.289	-111.1194
4.891680	94.322	-111.4335
4.927127	94.355	-111.7526
4.962831	94.388	-112.0765
4.998794	94.420	-112.4050
5.035017	94.451	-112.7381
5.071503	94.482	-113.0758
5.108253	94.512	-113.4181
5.145270	94.542	-113.7653
5.182555	94.570	-114.1174
5.220110	94.598	-114.4744
5.257937	94.625	-114.8361
5.296038	94.652	-115.2018
5.334415	94.677	-115.5710
5.373071	94.702	-115.9429
5.412006	94.727	-116.3170
5.451224	94.750	-116.6928
5.490725	94.772	-117.0701
5.530514	94.794	-117.4489
5.570590	94.815	-117.8294
5.610957	94.835	-118.2113
5.651616	94.854	-118.5943
5.692570	94.872	-118.9779
5.733821	94.890	-119.3615
5.775370	94.907	-119.7442
5.817221	94.924	-120.1256
5.859375	94.940	-120.5053
5.901834	94.956	-120.8832
5.944602	94.971	-121.2593
5.987679	94.986	-121.6337
6.031068	95.001	-122.0063
6.074771	95.016	-122.3772
6.118792	95.030	-122.7461
6.163131	95.045	-123.1128
6.207792	95.059	-123.4771
6.252776	95.074	-123.8391
6.298086	95.090	-124.1985
6.343725	95.105	-124.5558
6.389694	95.121	-124.9111
6.435996	95.137	-125.2650
6.482634	95.154	-125.6180
6.529610	95.171	-125.9702
6.576926	95.189	-126.3221
6.624585	95.207	-126.6738
6.672590	95.227	-127.0253
6.720942	95.247	-127.3771
6.769645	95.267	-127.7295
6.818700	95.289	-128.0829
6.868111	95.311	-128.4382
6.917881	95.333	-128.7955
6.968010	95.356	-129.1555
7.018504	95.380	-129.5181
7.069362	95.404	-129.8835
7.120590	95.429	-130.2516
7.172189	95.455	-130.6227
7.224161	95.480	-130.9966
7.276511	95.506	-131.3737
7.329239	95.532	-131.7538
7.382350	95.558	-132.1371
7.435845	95.585	-132.5233
7.489729	95.611	-132.9120
7.544002	95.637	-133.3027
7.598669	95.664	-133.6951
7.653732	95.690	-134.0884
7.709194	95.715	-134.4826
7.765058	95.741	-134.8772
7.821327	95.766	-135.2717
7.878004	95.791	-135.6656
7.935091	95.816	-136.0583
7.992592	95.841	-136.4489
8.050510	95.865	-136.8369
8.108847	95.889	-137.2218
8.167607	95.913	-137.6033
8.226793	95.936	-137.9811
8.286408	95.960	-138.3548
8.346454	95.983	-138.7239
8.406936	96.007	-139.0883
8.467856	96.030	-139.4475
8.529218	96.054	-139.8016
8.591024	96.078	-140.1506
8.653278	96.102	-140.4947
8.715983	96.126	-140.8340
8.779143	96.151	-141.1686
8.842760	96.176	-141.4988
8.906839	96.202	-141.8248
8.971381	96.228	-142.1469
9.036392	96.254	-142.4656
9.101873	96.280	-142.7814
9.167829	96.307	-143.0946
9.234263	96.335	-143.4055
9.301178	96.362	-143.7143
9.368578	96.390	-144.0215
9.436467	96.417	-144.3271
9.504847	96.445	-144.6315
9.573723	96.472	-144.9348
9.643099	96.498	-145.2370
9.712976	96.524	-145.5381
9.783361	96.547	-145.8379
9.854255	96.569	-146.1363
9.925663	96.588	-146.4330
9.997588	96.603	-146.7280
10.070035	96.617	-147.0209
10.143007	96.627	-147.3114
10.216507	96.636	-147.5991
10.290540	96.642	-147.8839
10.365109	96.647	-148.1653
10.440219	96.650	-148.4433
10.515873	96.652	-148.7177
10.592076	96.653	-148.9884
10.668830	96.653	-149.2554
10.746141	96.653	-149.5187
10.824012	96.652	-149.7784
10.902447	96.651	-150.0349
10.981451	96.649	-150.2884
11.061027	96.647	-150.5392
11.141180	96.645	-150.7876
11.221913	96.642	-151.0341
11.303232	96.639	-151.2792
11.385140	96.635	-151.5233
11.467641	96.631	-151.7667
11.550741	96.627	-152.0099
11.634442	96.622	-152.2532
11.718750	96.618	-152.4969
11.803669	96.613	-152.7411
11.889203	96.608	-152.9863
11.975357	96.603	-153.2322
12.062136	96.597	-153.4791
12.149543	96.591	-153.7268
12.237583	96.585	-153.9755
12.326262	96.579	-154.2250
12.415583	96.571	-154.4752
12.505552	96.564	-154.7262
12.596172	96.555	-154.9778
12.687449	96.546	-155.2302
12.779387	96.537	-155.4834
12.871992	96.526	-155.7374
12.965268	96.516	-155.9924
13.059220	96.505	-156.2487
13.153852	96.495	-156.5063
13.249170	96.484	-156.7657
13.345179	96.473	-157.0272
13.441884	96.463	-157.2908
13.539289	96.452	-157.5570
13.637401	96.442	-157.8259
13.736223	96.432	-158.0977
13.835761	96.422	-158.3725
13.936021	96.411	-158.6504
14.037007	96.401	-158.9314
14.138725	96.391	-159.2155
14.241180	96.380	-159.5025
14.344377	96.370	-159.7924
14.448323	96.359	-160.0851
14.553021	96.348	-160.3805
14.658478	96.338	-160.6783
14.764700	96.328	-160.9786
14.871691	96.318	-161.2812
14.979457	96.309	-161.5863
15.088005	96.300	-161.8936
15.197339	96.291	-162.2032
15.307465	96.283	-162.5151
15.418389	96.276	-162.8293
15.530117	96.269	-163.1456
15.642655	96.262	-163.4640
15.756008	96.255	-163.7842
15.870182	96.249	-164.1060
15.985184	96.243	-164.4290
16.101019	96.238	-164.7527
16.217694	96.232	-165.0768
16.335214	96.227	-165.4006
16.453586	96.222	-165.7238
16.572815	96.218	-166.0457
16.692909	96.214	-166.3659
16.813872	96.211	-166.6841
16.935713	96.208	-166.9998
17.058436	96.206	-167.3128
17.182048	96.204	-167.6229
17.306556	96.203	-167.9299
17.431967	96.202	-168.2339
17.558286	96.201	-168.5347
17.685521	96.201	-168.8322
17.813677	96.200	-169.1264
17.942762	96.200	-169.4172
18.072783	96.200	-169.7045
18.203746	96.199	-169.9882
18.335658	96.199	-170.2682
18.468526	96.198	-170.5443
18.602356	96.197	-170.8164
18.737156	96.197	-171.0846
18.872934	96.196	-171.3489
19.009695	96.195	-171.6095
19.147447	96.194	-171.8666
19.286197	96.194	-172.1206
19.425953	96.192	-172.3719
19.566721	96.191	-172.6208
19.708510	96.189	-172.8680
19.851326	96.187	-173.1138
19.995177	96.184	-173.3585
20.140070	96.181	-173.6027
20.286013	96.177	-173.8465
20.433014	96.172	-174.0903
20.581080	96.166	-174.3343
20.730219	96.160	-174.5789
20.880439	96.154	-174.8241
21.031747	96.146	-175.0703
21.184152	96.139	-175.3177
21.337661	96.131	-175.5667
21.492282	96.122	-175.8171
21.648024	96.113	-176.0693
21.804895	96.103	-176.3234
21.962902	96.093	-176.5792
22.122054	96.083	-176.8369
22.282360	96.072	-177.0963
22.443827	96.061	-177.3575
22.606464	96.049	-177.6207
22.770280	96.038	-177.8862
22.935283	96.027	-178.1544
23.101481	96.015	-178.4258
23.268884	96.004	-178.7012
23.437500	95.993	-178.9810
23.607338	95.982	-179.2654
23.778406	95.970	-179.5546
23.950714	95.959	-179.8480
24.124271	95.946	179.8556
24.299086	95.934	179.5575
24.475167	95.921	179.2597
24.652524	95.907	178.9643
24.831166	95.893	178.6732
25.011103	95.880	178.3879
25.192344	95.867	178.1094
25.374898	95.854	177.8374
25.558775	95.844	177.5708
25.743984	95.834	177.3078
25.930536	95.826	177.0458
26.118439	95.820	176.7821
26.307704	95.814	176.5143
26.498341	95.809	176.2406
26.690359	95.805	175.9607
26.883768	95.799	175.6754
27.078579	95.792	175.3868
27.274801	95.784	175.0979
27.472446	95.774	174.8125
27.671522	95.762	174.5341
27.872042	95.749	174.2656
28.074014	95.734	174.0087
28.277450	95.720	173.7637
28.482360	95.705	173.5293
28.688755	95.690	173.3030
28.896645	95.676	173.0820
29.106042	95.662	172.8630
29.316957	95.649	172.6438
29.529400	95.635	172.4230
29.743382	95.620	172.2007
29.958915	95.604	171.9782
30.176009	95.588	171.7580
30.394677	95.570	171.5426
30.614929	95.552	171.3343
30.836778	95.534	171.1346
31.060234	95.516	170.9441
31.285309	95.499	170.7618
31.512015	95.483	170.5858
31.740364	95.469	170.4134
31.970368	95.457	170.2417
32.202039	95.448	170.0674
32.435388	95.440	169.8877
32.670428	95.434	169.6999
32.907171	95.431	169.5015
33.145630	95.429	169.2906
33.385817	95.428	169.0655
33.627745	95.428	168.8251
33.871425	95.428	168.5694
34.116871	95.428	168.2990
34.364096	95.428	168.0156
34.613113	95.426	167.7216
34.863934	95.423	167.4198
35.116572	95.418	167.1131
35.371041	95.412	166.8039
35.627354	95.405	166.4941
35.885525	95.396	166.1849
36.145566	95.387	165.8770
36.407492	95.376	165.5712
36.671316	95.364	165.2679
36.937051	95.351	164.9676
37.204712	95.337	164.6706
37.474313	95.322	164.3768
37.745867	95.307	164.0856
38.019389	95.291	163.7959
38.294893	95.275	163.5068
38.572394	95.259	163.2178
38.851905	95.241	162.9295
39.133442	95.222	162.6434
39.417019	95.203	162.3616
39.702651	95.183	162.0859
39.990353	95.163	161.8167
40.280140	95.143	161.5526
40.572026	95.125	161.2902
40.866028	95.107	161.0250
41.162160	95.090	160.7528
41.460438	95.073	160.4714
41.760877	95.055	160.1816
42.063494	95.035	159.8873
42.368303	95.013	159.5946
42.675322	94.988	159.3102
42.984565	94.962	159.0392
43.296048	94.935	158.7838
43.609789	94.909	158.5429
43.925804	94.884	158.3128
44.244108	94.860	158.0881
44.564719	94.838	157.8638
44.887654	94.816	157.6366
45.212928	94.795	157.4046
45.540560	94.774	157.1680
45.870565	94.753	156.9279
46.202962	94.731	156.6859
46.537768	94.709	156.4437
46.875000	94.687	156.2024
47.214676	94.665	155.9626
47.556813	94.643	155.7242
47.901429	94.622	155.4866
48.248542	94.601	155.2489
48.598171	94.581	155.0098
48.950334	94.561	154.7688
49.305048	94.541	154.5259
49.662333	94.521	154.2817
50.022206	94.501	154.0372
50.384688	94.480	153.7937
50.749796	94.459	153.5514
51.117550	94.438	153.3102
51.487969	94.416	153.0697
51.861072	94.394	152.8292
52.236879	94.372	152.5887
52.615409	94.349	152.3488
52.996681	94.326	152.1104
53.380717	94.302	151.8747
53.767536	94.277	151.6422
54.157158	94.253	151.4125
54.549603	94.229	151.1847
54.944892	94.206	150.9571
55.343045	94.183	150.7280
55.744084	94.161	150.4961
56.148028	94.139	150.2603
56.554900	94.118	150.0201
56.964720	94.096	149.7759
57.377510	94.075	149.5283
57.793291	94.053	149.2788
58.212085	94.031	149.0288
58.633914	94.008	148.7793
59.058799	93.985	148.5307
59.486764	93.961	148.2827
59.917829	93.936	148.0356
60.352019	93.910	147.7904
60.789354	93.883	147.5489
61.229859	93.855	147.3126
61.673556	93.826	147.0820
62.120468	93.797	146.8560
62.570618	93.767	146.6333
63.024031	93.737	146.4123
63.480729	93.707	146.1921
63.940736	93.677	145.9721
64.404077	93.647	145.7515
64.870776	93.617	145.5293
65.340856	93.587	145.3051
65.814343	93.557	145.0789
66.291261	93.527	144.8515
66.771635	93.498	144.6239
67.255489	93.468	144.3964
67.742850	93.439	144.1687
68.233743	93.410	143.9406
68.728193	93.381	143.7126
69.226226	93.352	143.4869
69.727867	93.322	143.2659
70.233144	93.293	143.0515
70.742083	93.264	142.8442
71.254709	93.235	142.6426
71.771050	93.206	142.4448
72.291132	93.177	142.2494
72.814984	93.148	142.0558
73.342631	93.118	141.8639
73.874102	93.087	141.6747
74.409424	93.055	141.4893
74.948626	93.022	141.3094
75.491734	92.988	141.1349
76.038779	92.954	140.9641
76.589787	92.922	140.7946
77.144788	92.890	140.6243
77.703811	92.859	140.4513
78.266885	92.831	140.2704
78.834039	92.806	140.0723
79.405303	92.782	139.8476
79.980706	92.759	139.5946
80.560280	92.734	139.3211
81.144053	92.706	139.0396
81.732056	92.676	138.7608
82.324320	92.645	138.4904
82.920876	92.613	138.2307
83.521755	92.580	137.9831
84.126988	92.547	137.7490
84.736607	92.513	137.5284
85.350643	92.479	137.3200
85.969129	92.446	137.1210
86.592097	92.412	136.9284
87.219579	92.379	136.7405
87.851608	92.345	136.5573
88.488217	92.312	136.3780
89.129439	92.279	136.2007
89.775308	92.246	136.0223
90.425856	92.215	135.8407
91.081119	92.184	135.6543
91.741131	92.152	135.4624
92.405925	92.121	135.2666
93.075536	92.088	135.0708
93.750000	92.055	134.8791
94.429351	92.021	134.6934
95.113625	91.987	134.5137
95.802858	91.953	134.3393
96.497085	91.919	134.1687
97.196342	91.884	134.0013
97.900667	91.848	133.8382
98.610096	91.810	133.6835
99.324665	91.771	133.5424
100.044413	91.733	133.4190
100.769376	91.695	133.3129
101.499592	91.660	133.2188
102.235100	91.628	133.1286
102.975938	91.600	133.0361
103.722144	91.575	132.9364
104.473757	91.553	132.8251
105.230817	91.534	132.6981
105.993363	91.517	132.5515
106.761435	91.502	132.3824
107.535072	91.486	132.1907
108.314315	91.469	131.9785
109.099206	91.452	131.7491
109.889783	91.432	131.5057
110.686090	91.411	131.2507
111.488167	91.388	130.9859
112.296056	91.363	130.7136
113.109800	91.335	130.4387
113.929440	91.304	130.1682
114.755020	91.269	129.9104
115.586582	91.229	129.6746
116.424170	91.186	129.4705
117.267827	91.140	129.3026
118.117598	91.095	129.1651
118.973527	91.054	129.0388
119.835658	91.015	128.8968
120.704037	90.979	128.7194
121.578708	90.942	128.5088
122.459718	90.904	128.2831
123.347111	90.866	128.0586
124.240935	90.828	127.8439
125.141236	90.793	127.6412
126.048061	90.758	127.4503
126.961458	90.724	127.2697
127.881473	90.690	127.0976
128.808154	90.655	126.9318
129.741551	90.620	126.7685
130.681712	90.584	126.6032
131.628686	90.548	126.4324
132.582521	90.512	126.2548
133.543269	90.477	126.0716
134.510979	90.442	125.8856
135.485701	90.407	125.7004
136.467486	90.371	125.5189
137.456386	90.335	125.3430
138.452451	90.299	125.1723
139.455735	90.262	125.0049
140.466288	90.225	124.8379
141.484165	90.188	124.6698
142.509418	90.151	124.5012
143.542100	90.115	124.3347
144.582265	90.079	124.1738
145.629968	90.044	124.0193
146.685262	90.008	123.8693
147.748204	89.973	123.7212
148.818849	89.938	123.5740
149.897251	89.901	123.4279
150.983469	89.864	123.2852
152.077557	89.827	123.1493
153.179574	89.790	123.0232
154.289576	89.753	122.9067
155.407622	89.716	122.7952
156.533770	89.680	122.6819
157.668078	89.644	122.5625
158.810606	89.607	122.4359
159.961413	89.571	122.3018
161.120559	89.535	122.1603
162.288105	89.500	122.0114
163.464112	89.467	121.8559
164.648640	89.433	121.6951
165.841752	89.399	121.5323
167.043510	89.364	121.3720
168.253976	89.327	121.2175
169.473213	89.290	121.0702
170.701286	89.253	120.9301
171.938258	89.216	120.7965
173.184194	89.181	120.6674
174.439158	89.147	120.5402
175.703216	89.113	120.4123
176.976434	89.080	120.2817
178.258878	89.048	120.1471
179.550615	89.016	120.0086
180.851713	88.984	119.8667
182.162239	88.953	119.7223
183.482262	88.923	119.5754
184.811850	88.893	119.4255
186.151073	88.863	119.2730
187.500000	88.833	119.1191
188.858702	88.802	118.9663
190.227250	88.771	118.8167
191.605715	88.741	118.6718
192.994169	88.710	118.5314
194.392685	88.680	118.3940
195.801334	88.649	118.2585
197.220191	88.618	118.1244
198.649330	88.587	117.9912
200.088825	88.556	117.8588
201.538751	88.526	117.7268
202.999184	88.497	117.5944
204.470200	88.470	117.4600
205.951875	88.443	117.3216
207.444287	88.416	117.1779
208.947514	88.389	117.0283
210.461634	88.362	116.8736
211.986726	88.333	116.7172
213.522869	88.302	116.5639
215.070144	88.270	116.4185
216.628631	88.237	116.2849
218.198411	88.205	116.1638
219.779567	88.173	116.0526
221.372180	88.144	115.9458
222.976334	88.116	115.8374
224.592112	88.089	115.7228
226.219600	88.063	115.6004
227.858880	88.038	115.4710
229.510039	88.012	115.3365
231.173164	87.987	115.1985
232.848340	87.961	115.0582
234.535655	87.936	114.9158
236.235197	87.910	114.7709
237.947054	87.884	114.6227
239.671317	87.858	114.4706
241.408074	87.831	114.3148
243.157416	87.803	114.1572
244.919435	87.775	114.0011
246.694223	87.746	113.8516
248.481871	87.717	113.7139
250.282473	87.690	113.5913
252.096123	87.663	113.4843
253.922915	87.639	113.3892
255.762945	87.617	113.2992
257.616309	87.598	113.2045
259.483103	87.581	113.0962
261.363424	87.566	112.9699
263.257372	87.550	112.8274
265.165043	87.533	112.6748
267.086538	87.514	112.5193
269.021957	87.495	112.3668
270.971401	87.475	112.2204
272.934972	87.456	112.0805
274.912771	87.438	111.9459
276.904902	87.421	111.8148
278.911469	87.407	111.6853
280.932577	87.394	111.5549
282.968330	87.383	111.4201
285.018835	87.375	111.2754
287.084199	87.368	111.1144
289.164530	87.362	110.9320
291.259935	87.355	110.7275
293.370525	87.346	110.5058
295.496408	87.335	110.2762
297.637697	87.321	110.0478
299.794503	87.305	109.8264
301.966937	87.288	109.6144
304.155114	87.270	109.4104
306.359147	87.253	109.2113
308.579152	87.237	109.0134
310.815244	87.221	108.8137
313.067539	87.205	108.6112
315.336156	87.188	108.4074
317.621211	87.171	108.2062
319.922826	87.153	108.0118
322.241118	87.136	107.8264
324.576210	87.120	107.6494
326.928223	87.104	107.4777
329.297280	87.091	107.3072
331.683504	87.078	107.1340
334.087019	87.067	106.9554
336.507952	87.057	106.7698
338.946427	87.047	106.5766
341.402572	87.037	106.3768
343.876516	87.026	106.1732
346.368387	87.015	105.9688
348.878315	87.004	105.7657
351.406431	86.993	105.5641
353.952867	86.982	105.3630
356.517756	86.972	105.1606
359.101230	86.963	104.9554
361.703426	86.953	104.7471
364.324478	86.945	104.5359
366.964523	86.936	104.3226
369.623699	86.928	104.1081
372.302145	86.921	103.8932
375.000000	86.914	103.6780
377.717405	86.907	103.4623
380.454501	86.902	103.2452
383.211431	86.897	103.0256
385.988339	86.892	102.8029
388.785369	86.888	102.5774
391.602668	86.884	102.3497
394.440383	86.881	102.1201
397.298660	86.878	101.8886
400.177650	86.876	101.6544
403.077502	86.875	101.4158
405.998368	86.875	101.1714
408.940400	86.875	100.9204
411.903750	86.874	100.6644
414.888575	86.874	100.4070
417.895028	86.873	100.1517
420.923268	86.872	99.9008
423.973452	86.873	99.6547
427.045738	86.875	99.4116
430.140287	86.878	99.1676
433.257261	86.884	98.9184
436.396822	86.891	98.6614
439.559133	86.899	98.3958
442.744360	86.909	98.1216
445.952668	86.921	97.8366
449.184225	86.934	97.5361
452.439199	86.947	97.2138
455.717760	86.960	96.8664
459.020079	86.970	96.4976
462.346327	86.978	96.1181
465.696680	86.983	95.7402
469.071310	86.987	95.3716
472.470394	86.990	95.0139
475.894109	86.993	94.6640
479.342634	86.998	94.3166
482.816148	87.002	93.9660
486.314833	87.007	93.6105
489.838871	87.011	93.2543
493.388445	87.014	92.9044
496.963741	87.017	92.5638
500.564945	87.022	92.2287
504.192245	87.029	91.8917
507.845830	87.038	91.5460
511.525890	87.047	91.1890
515.232618	87.056	90.8218
518.966206	87.065	90.4481
522.726849	87.073	90.0725
526.514743	87.080	89.6994
530.330086	87.089	89.3302
534.173076	87.098	88.9626
538.043915	87.108	88.5917
541.942803	87.120	88.2154
545.869944	87.132	87.8348
549.825542	87.146	87.4511
553.809805	87.160	87.0626
557.822939	87.175	86.6663
561.865154	87.190	86.2597
565.936660	87.205	85.8433
570.037671	87.219	85.4201
574.168399	87.233	84.9940
578.329060	87.246	84.5670
582.519870	87.259	84.1389
586.741049	87.272	83.7092
590.992817	87.285	83.2797
595.275394	87.299	82.8525
599.589005	87.313	82.4270
603.933874	87.328	81.9995
608.310228	87.344	81.5666
612.718295	87.360	81.1276
617.158304	87.376	80.6850
621.630488	87.391	80.2438
626.135079	87.406	79.8091
630.672311	87.422	79.3823
635.242423	87.440	78.9597
639.845651	87.460	78.5359
644.482237	87.482	78.1094
649.152421	87.505	77.6810
653.856447	87.531	77.2489
658.594560	87.560	76.8062
663.367008	87.591	76.3429
668.174039	87.622	75.8520
673.015903	87.653	75.3344
677.892854	87.682	74.7979
682.805145	87.708	74.2514
687.753032	87.732	73.7017
692.736774	87.754	73.1540
697.756631	87.774	72.6128
702.812863	87.795	72.0798
707.905735	87.815	71.5537
713.035511	87.837	71.0308
718.202461	87.859	70.5085
723.406852	87.881	69.9859
728.648956	87.903	69.4638
733.929047	87.925	68.9430
739.247399	87.948	68.4236
744.604290	87.971	67.9058
750.000000	87.994	67.3897
755.434809	88.018	66.8752
760.909001	88.043	66.3620
766.422861	88.069	65.8495
771.976677	88.096	65.3367
777.570739	88.124	64.8226
783.205337	88.153	64.3068
788.880766	88.183	63.7903
794.597321	88.213	63.2758
800.355301	88.246	62.7655
806.155005	88.281	62.2578
811.996736	88.319	61.7467
817.880799	88.361	61.2231
823.807501	88.406	60.6780
829.777150	88.453	60.1040
835.790057	88.500	59.4997
841.846536	88.545	58.8722
847.946903	88.587	58.2322
854.091476	88.628	57.5877
860.280575	88.667	56.9429
866.514523	88.705	56.3012
872.793644	88.743	55.6656
879.118267	88.781	55.0358
885.488720	88.819	54.4073
891.905336	88.859	53.7760
898.368450	88.898	53.1410
904.878398	88.939	52.5038
911.435520	88.980	51.8653
918.040157	89.023	51.2238
924.692655	89.068	50.5769
931.393359	89.115	49.9216
938.142619	89.163	49.2547
944.940787	89.212	48.5744
951.788218	89.261	47.8820
958.685268	89.310	47.1798
965.632296	89.359	46.4704
972.629666	89.408	45.7558
979.677741	89.458	45.0366
986.776890	89.509	44.3121
993.927482	89.559	43.5830
1001.129891	89.610	42.8525
1008.384491	89.662	42.1233
1015.691660	89.716	41.3940
1023.051781	89.774	40.6598
1030.465236	89.834	39.9132
1037.932411	89.898	39.1433
1045.453698	89.965	38.3394
1053.029486	90.031	37.4973
1060.660172	90.096	36.6214
1068.346153	90.159	35.7207
1076.087829	90.219	34.8045
1083.885605	90.278	33.8791
1091.739887	90.334	32.9468
1099.651084	90.390	32.0077
1107.619609	90.444	31.0617
1115.645878	90.497	30.1094
1123.730308	90.549	29.1514
1131.873321	90.600	28.1885
1140.075341	90.649	27.2212
1148.336797	90.698	26.2502
1156.658119	90.746	25.2759
1165.039741	90.794	24.2996
1173.482099	90.842	23.3226
1181.985634	90.892	22.3446
1190.550789	90.943	21.3604
1199.178011	90.997	20.3601
1207.867749	91.052	19.3333
1216.620457	91.107	18.2754
1225.436590	91.160	17.1904
1234.316609	91.210	16.0866
1243.260976	91.256	14.9732
1252.270157	91.299	13.8581
1261.344623	91.340	12.7454
1270.484846	91.378	11.6366
1279.691303	91.415	10.5322
1288.964474	91.451	9.4330
1298.304842	91.486	8.3376
1307.712894	91.522	7.2431
1317.189120	91.557	6.1463
1326.734016	91.592	5.0451
1336.348077	91.627	3.9405
1346.031806	91.662	2.8353
1355.785708	91.698	1.7334
1365.610290	91.734	0.6382
1375.506065	91.771	-0.4462
1385.473549	91.809	-1.5158
1395.513261	91.851	-2.5705
1405.625726	91.896	-3.6162
1415.811469	91.947	-4.6647
1426.071023	92.000	-5.7299
1436.404921	92.056	-6.8205
1446.813703	92.113	-7.9371
1457.297912	92.168	-9.0743
1467.858093	92.222	-10.2264
1478.494798	92.274	-11.3887
1489.208581	92.324	-12.5576
1500.000000	92.371	-13.7300
1510.869618	92.415	-14.9032
1521.818002	92.454	-16.0756
1532.845723	92.490	-17.2459
1543.953355	92.524	-18.4136
1555.141477	92.556	-19.5791
1566.410674	92.588	-20.7468
1577.761531	92.623	-21.9271
1589.194642	92.661	-23.1329
1600.710601	92.699	-24.3729
1612.310010	92.737	-25.6481
1623.993473	92.774	-26.9540
1635.761599	92.809	-28.2835
1647.615002	92.842	-29.6302
1659.554299	92.874	-30.9889
1671.580114	92.904	-32.3553
1683.693072	92.934	-33.7282
1695.893807	92.962	-35.1089
1708.182952	92.990	-36.4983
1720.561150	93.016	-37.8944
1733.029045	93.039	-39.2922
1745.587288	93.060	-40.6843
1758.236533	93.079	-42.0622
1770.977440	93.099	-43.4188
1783.810673	93.121	-44.7534
1796.736900	93.150	-46.0742
1809.756796	93.185	-47.3959
1822.871040	93.228	-48.7329
1836.080315	93.279	-50.0964
1849.385310	93.338	-51.4966
1862.786718	93.404	-52.9449
1876.285239	93.479	-54.4529
1889.881575	93.560	-56.0312
1903.576436	93.647	-57.6870
1917.370535	93.737	-59.4230
1931.264593	93.830	-61.2366
1945.259332	93.923	-63.1231
1959.355483	94.016	-65.0799
1973.553781	94.107	-67.1060
1987.854965	94.192	-69.1975
2002.259781	94.271	-71.3457
2016.768981	94.341	-73.5386
2031.383320	94.403	-75.7641
2046.103561	94.457	-78.0111
2060.930471	94.504	-80.2713
2075.864823	94.543	-82.5399
2090.907395	94.577	-84.8148
2106.058972	94.603	-87.0933
2121.320344	94.623	-89.3704
2136.692305	94.637	-91.6389
2152.175658	94.646	-93.8916
2167.771210	94.650	-96.1266
2183.479774	94.654	-98.3496
2199.302169	94.656	-100.5712
2215.239219	94.656	-102.7997
2231.291755	94.654	-105.0385
2247.460615	94.650	-107.2860
2263.746641	94.641	-109.5367
2280.150683	94.628	-111.7825
2296.673595	94.612	-114.0146
2313.316238	94.593	-116.2260
2330.079481	94.574	-118.4149
2346.964198	94.556	-120.5867
2363.971268	94.540	-122.7516
2381.101578	94.526	-124.9180
2398.356022	94.511	-127.0894
2415.735498	94.497	-129.2650
2433.240913	94.481	-131.4411
2450.873180	94.464	-133.6139
2468.633217	94.446	-135.7805
2486.521951	94.426	-137.9382
2504.540314	94.405	-140.0818
2522.689246	94.382	-142.2034
2540.969692	94.359	-144.2955
2559.382606	94.338	-146.3564
2577.928947	94.320	-148.3924
2596.609683	94.306	-150.4130
2615.425787	94.295	-152.4265
2634.378241	94.288	-154.4370
2653.468031	94.282	-156.4438
2672.696154	94.279	-158.4419
2692.063613	94.278	-160.4246
2711.571415	94.280	-162.3881
2731.220579	94.288	-164.3366
2751.012130	94.302	-166.2808
2770.947098	94.322	-168.2323
2791.026522	94.347	-170.1992
2811.251451	94.377	-172.1851
2831.622938	94.411	-174.1907
2852.142045	94.447	-176.2158
2872.809842	94.485	-178.2589
2893.627406	94.524	179.6840
2914.595823	94.565	177.6198
2935.716186	94.608	175.5533
2956.989596	94.654	173.4814
2978.417161	94.706	171.3945
3000.000000	94.762	169.2805
3021.739237	94.821	167.1298
3043.636005	94.883	164.9375
3065.691446	94.946	162.7040
3087.906710	95.009	160.4316
3110.282955	95.073	158.1187
3132.821347	95.136	155.7579
3155.523062	95.199	153.3393
3178.389283	95.257	150.8560
3201.421202	95.308	148.3071
3224.620020	95.350	145.6980
3247.986946	95.379	143.0403
3271.523198	95.392	140.3528
3295.230004	95.388	137.6620
3319.108599	95.365	134.9984
3343.160228	95.326	132.3893
3367.386145	95.274	129.8539
3391.787613	95.211	127.4045
3416.365904	95.139	125.0482
3441.122300	95.061	122.7900
3466.058091	94.980	120.6342
3491.174576	94.897	118.5818
3516.473066	94.817	116.6262
3541.954880	94.740	114.7548
3567.621345	94.667	112.9528
3593.473800	94.600	111.2069
3619.513592	94.537	109.5061
3645.742080	94.477	107.8431
3672.160630	94.419	106.2170
3698.770620	94.363	104.6334
3725.573436	94.307	103.0986
3752.570477	94.254	101.6141
3779.763150	94.203	100.1770
3807.152872	94.153	98.7841
3834.741071	94.103	97.4373
3862.529185	94.054	96.1441
3890.518664	94.007	94.9125
3918.710966	93.962	93.7442
3947.107561	93.924	92.6340
3975.709929	93.892	91.5721
4004.519563	93.869	90.5461
4033.537962	93.854	89.5438
4062.766641	93.847	88.5569
4092.207123	93.847	87.5827
4121.860942	93.854	86.6182
4151.729646	93.868	85.6563
4181.814790	93.888	84.6868
4212.117944	93.913	83.7020
4242.640687	93.941	82.7014
4273.384610	93.972	81.6892
4304.351317	94.004	80.6675
4335.542421	94.039	79.6334
4366.959549	94.075	78.5800
4398.604338	94.114	77.4978
4430.478438	94.152	76.3798
4462.583511	94.189	75.2260
4494.921231	94.223	74.0434
4527.493283	94.252	72.8404
4560.301365	94.277	71.6236
4593.347189	94.297	70.3997
4626.632476	94.310	69.1802
4660.158962	94.318	67.9811
4693.928395	94.320	66.8169
4727.942535	94.320	65.6958
4762.203156	94.320	64.6182
4796.712043	94.321	63.5775
4831.470996	94.324	62.5652
4866.481826	94.330	61.5764
4901.746360	94.338	60.6093
4937.266434	94.349	59.6609
4973.043902	94.362	58.7273
5009.080628	94.376	57.8076
5045.378492	94.390	56.9075
5081.939384	94.406	56.0356
5118.765212	94.424	55.1977
5155.857894	94.446	54.3935
5193.219366	94.474	53.6152
5230.851574	94.507	52.8525
5268.756481	94.546	52.0971
5306.936062	94.592	51.3424
5345.392309	94.643	50.5806
5384.127225	94.698	49.8045
5423.142830	94.756	49.0115
5462.441159	94.818	48.2036
5502.024259	94.882	47.3835
5541.894195	94.951	46.5496
5582.053045	95.026	45.6930
5622.502902	95.107	44.7998
5663.245876	95.194	43.8557
5704.284090	95.286	42.8467
5745.619684	95.383	41.7589
5787.254813	95.481	40.5804
5829.191647	95.579	39.3062
5871.432373	95.672	37.9384
5913.979192	95.761	36.4825
5956.834323	95.843	34.9428
6000.000000	95.917	33.3207
6043.478473	95.982	31.6167
6087.272010	96.036	29.8326
6131.382892	96.078	27.9709
6175.813420	96.104	26.0361
6220.565910	96.113	24.0386
6265.642695	96.102	21.9958
6311.046124	96.068	19.9307
6356.778566	96.013	17.8663
6402.842404	95.936	15.8243
6449.240040	95.838	13.8237
6495.973891	95.719	11.8812
6543.046396	95.581	10.0108
6590.460007	95.424	8.2250
6638.217197	95.249	6.5385
6686.320456	95.058	4.9689
6734.772290	94.852	3.5339
6783.575226	94.634	2.2488
6832.731809	94.407	1.1232
6882.244600	94.174	0.1611
6932.116181	93.937	-0.6410
6982.349153	93.700	-1.2916
7032.946133	93.464	-1.7997
7083.909760	93.231	-2.1718
7135.242690	93.003	-2.4125
7186.947600	92.783	-2.5273
7239.027185	92.574	-2.5239
7291.484160	92.376	-2.4138
7344.321260	92.194	-2.2144
7397.541239	92.027	-1.9452
7451.146872	91.876	-1.6224
7505.140954	91.741	-1.2575
7559.526299	91.622	-0.8590
7614.305743	91.519	-0.4355
7669.482141	91.434	0.0015
7725.058371	91.367	0.4341
7781.037328	91.318	0.8397
7837.421932	91.285	1.1978
7894.215122	91.266	1.4955
7951.419859	91.258	1.7269
8009.039125	91.258	1.8906
8067.075924	91.267	1.9857
8125.533282	91.283	2.0065
8184.414245	91.303	1.9437
8243.721885	91.327	1.7904
8303.459292	91.349	1.5477
8363.629581	91.368	1.2251
8424.235888	91.382	0.8384
8485.281374	91.389	0.4041
8546.769221	91.390	-0.0662
8608.702634	91.386	-0.5644
8671.084842	91.375	-1.0818
8733.919097	91.357	-1.6049
8797.208675	91.331	-2.1157
8860.956876	91.301	-2.5948
8925.167022	91.268	-3.0292
8989.842461	91.236	-3.4160
9054.986566	91.209	-3.7607
9120.602731	91.188	-4.0731
9186.694378	91.176	-4.3648
9253.264952	91.175	-4.6484
9320.317925	91.189	-4.9426
9387.856790	91.219	-5.2767
9455.885071	91.267	-5.6881
9524.406312	91.331	-6.2167
9593.424086	91.409	-6.8984
9662.941992	91.497	-7.7620
9732.963653	91.589	-8.8306
9803.492719	91.681	-10.1240
9874.532869	91.763	-11.6560
9946.087805	91.827	-13.4282
10018.161257	91.864	-15.4233
10090.756983	91.863	-17.6035
10163.878768	91.819	-19.9172
10237.530423	91.727	-22.3060
10311.715789	91.585	-24.7078
10386.438732	91.391	-27.0581
10461.703149	91.146	-29.2904
10537.512962	90.855	-31.3429
10613.872125	90.524	-33.1676
10690.784618	90.162	-34.7362
10768.254450	89.775	-36.0397
10846.285661	89.371	-37.0807
10924.882318	88.954	-37.8675
11004.048518	88.530	-38.4135
11083.788390	88.103	-38.7369
11164.106090	87.673	-38.8574
11245.005805	87.241	-38.7865
11326.491752	86.807	-38.5228
11408.568180	86.369	-38.0546
11491.239368	85.930	-37.3649
11574.509626	85.489	-36.4351
11658.383294	85.050	-35.2394
11742.864745	84.614	-33.7429
11827.958384	84.189	-31.9103
11913.668646	83.783	-29.7225
12000.000000	83.409	-27.1907
12086.956947	83.078	-24.3560
12174.544019	82.798	-21.2798
12262.765784	82.576	-18.0347
12351.626840	82.417	-14.6996
12441.131819	82.322	-11.3544
12531.285389	82.292	-8.0733
12622.092249	82.324	-4.9250
12713.557132	82.415	-1.9790
12805.684808	82.558	0.6928
12898.480079	82.745	3.0267
12991.947783	82.966	4.9775
13086.092792	83.209	6.5209
13180.920015	83.462	7.6484
13276.434395	83.714	8.3678
13372.640911	83.954	8.7040
13469.544580	84.173	8.6971
13567.150452	84.365	8.3925
13665.463617	84.524	7.8357
13764.489200	84.647	7.0724
13864.232362	84.733	6.1489
13964.698305	84.780	5.1072
14065.892266	84.789	3.9816
14167.819519	84.762	2.8006
14270.485380	84.700	1.5919
14373.895200	84.604	0.3818
14478.054370	84.474	-0.8074
14582.968320	84.312	-1.9532
14688.642520	84.118	-3.0284
14795.082478	83.895	-4.0015
14902.293745	83.644	-4.8406
15010.281908	83.370	-5.5129
15119.052599	83.077	-5.9833
15228.611486	82.773	-6.2190
15338.964283	82.467	-6.1953
15450.116741	82.170	-5.8981
15562.074656	81.893	-5.3271
15674.843864	81.647	-4.5017
15788.430244	81.443	-3.4667
15902.839718	81.289	-2.2906
16018.078250	81.191	-1.0606
16134.151848	81.150	0.1267
16251.066563	81.163	1.1773
16368.828491	81.227	2.0154
16487.443769	81.335	2.5878
16606.918584	81.486	2.8547
16727.259161	81.678	2.7729
16848.471777	81.913	2.2758
16970.562748	82.191	1.2563
17093.538442	82.498	-0.4274
17217.405268	82.811	-2.9166
17342.169684	83.089	-6.3018
17467.838194	83.282	-10.5775
17594.417350	83.341	-15.6149
17721.913751	83.231	-21.1720
17850.334044	82.930	-26.9445
17979.684923	82.439	-32.6315
18109.973131	81.771	-37.9830
18241.205462	80.944	-42.8047
18373.388756	79.974	-46.9236
18506.529905	78.880	-50.1649
18640.635849	77.685	-52.3950
18775.713581	76.422	-53.6030
18911.770141	75.128	-53.9287
19048.812624	73.827	-53.5886
19186.848172	72.535	-52.7723
19325.883983	71.255	-51.6000
19465.927305	69.992	-50.1410
19606.985439	68.772	-48.4590
19749.065738	67.654	-46.6771
19892.175609	66.759	-45.0634
20036.322514	66.247	-44.0557
