* Measurement data measured by REW V5.31.3
* Source: EXCL: Microphone (USB Sound Device        ), MICROPHONE (Master Volume), R, volume: 0.390
* Format: 256k Log Swept Sine, 1 sweep at -12.0 dBFS with no timing reference
* Dated: May 19, 2025 7:44:11 PM
* REW Settings:
*  C-weighting compensation: Off
*  Target level: 75.0 dB
* Note: Rock Lobster L
* Measurement: L May 19
* Smoothing: 1/12 octave
* Frequency Step: 96 ppo
* Start Frequency: 0.36621094 Hz
*
* Freq(Hz) SPL(dB) Phase(degrees)
0.366211 94.157 160.8151
0.368865 94.151 160.7949
0.371538 94.143 160.7646
0.374230 94.132 160.7265
0.376942 94.121 160.6826
0.379673 94.108 160.6344
0.382424 94.095 160.5829
0.385196 94.082 160.5285
0.387987 94.068 160.4716
0.390798 94.055 160.4125
0.393630 94.041 160.3512
0.396483 94.027 160.2877
0.399356 94.012 160.2220
0.402250 93.998 160.1542
0.405165 93.984 160.0841
0.408101 93.969 160.0119
0.411058 93.955 159.9375
0.414037 93.940 159.8608
0.417037 93.925 159.7819
0.420059 93.910 159.7007
0.423103 93.895 159.6171
0.426169 93.880 159.5313
0.429257 93.865 159.4431
0.432368 93.850 159.3526
0.435501 93.834 159.2596
0.438656 93.819 159.1643
0.441835 93.803 159.0665
0.445037 93.787 158.9663
0.448262 93.772 158.8637
0.451510 93.756 158.7586
0.454782 93.739 158.6510
0.458077 93.723 158.5409
0.461397 93.707 158.4282
0.464740 93.690 158.3130
0.468108 93.674 158.1953
0.471500 93.657 158.0750
0.474917 93.640 157.9522
0.478358 93.623 157.8267
0.481825 93.606 157.6986
0.485316 93.589 157.5680
0.488833 93.572 157.4347
0.492375 93.554 157.2988
0.495943 93.537 157.1602
0.499537 93.519 157.0190
0.503157 93.501 156.8751
0.506803 93.483 156.7286
0.510475 93.465 156.5795
0.514175 93.447 156.4277
0.517900 93.429 156.2732
0.521653 93.410 156.1161
0.525434 93.391 155.9564
0.529241 93.373 155.7940
0.533076 93.354 155.6290
0.536939 93.335 155.4613
0.540830 93.316 155.2911
0.544749 93.296 155.1182
0.548696 93.277 154.9428
0.552673 93.257 154.7648
0.556677 93.238 154.5843
0.560711 93.218 154.4013
0.564774 93.198 154.2158
0.568867 93.178 154.0278
0.572989 93.157 153.8374
0.577141 93.137 153.6446
0.581324 93.116 153.4495
0.585536 93.095 153.2521
0.589779 93.075 153.0524
0.594053 93.054 152.8504
0.598358 93.032 152.6464
0.602694 93.011 152.4402
0.607061 92.989 152.2320
0.611460 92.968 152.0219
0.615891 92.946 151.8098
0.620354 92.924 151.5960
0.624849 92.902 151.3804
0.629377 92.880 151.1631
0.633938 92.857 150.9443
0.638532 92.834 150.7240
0.643159 92.812 150.5024
0.647819 92.789 150.2795
0.652514 92.766 150.0556
0.657242 92.742 149.8306
0.662005 92.719 149.6047
0.666802 92.695 149.3781
0.671634 92.671 149.1510
0.676501 92.647 148.9233
0.681403 92.623 148.6955
0.686341 92.599 148.4675
0.691314 92.574 148.2396
0.696324 92.550 148.0119
0.701370 92.525 147.7846
0.706452 92.499 147.5578
0.711571 92.473 147.3315
0.716728 92.447 147.1058
0.721921 92.419 146.8804
0.727153 92.390 146.6550
0.732422 92.359 146.4289
0.737729 92.326 146.2012
0.743075 92.290 145.9712
0.748460 92.254 145.7379
0.753883 92.216 145.5008
0.759346 92.177 145.2595
0.764849 92.138 145.0137
0.770391 92.097 144.7631
0.775974 92.057 144.5078
0.781597 92.015 144.2475
0.787261 91.974 143.9822
0.792966 91.931 143.7119
0.798712 91.888 143.4364
0.804500 91.845 143.1558
0.810329 91.801 142.8700
0.816201 91.756 142.5790
0.822116 91.711 142.2827
0.828073 91.665 141.9812
0.834074 91.618 141.6743
0.840118 91.571 141.3622
0.846206 91.523 141.0447
0.852338 91.474 140.7218
0.858514 91.424 140.3937
0.864735 91.374 140.0602
0.871001 91.322 139.7213
0.877313 91.270 139.3772
0.883670 91.217 139.0278
0.890074 91.163 138.6732
0.896524 91.107 138.3134
0.903020 91.051 137.9485
0.909564 90.993 137.5786
0.916155 90.935 137.2037
0.922794 90.875 136.8240
0.929481 90.814 136.4395
0.936216 90.752 136.0505
0.943000 90.688 135.6571
0.949834 90.623 135.2593
0.956717 90.556 134.8575
0.963649 90.488 134.4519
0.970632 90.419 134.0426
0.977666 90.348 133.6300
0.984750 90.275 133.2143
0.991886 90.200 132.7958
0.999074 90.124 132.3749
1.006314 90.046 131.9520
1.013606 89.966 131.5274
1.020951 89.884 131.1017
1.028349 89.800 130.6752
1.035801 89.714 130.2487
1.043307 89.626 129.8224
1.050867 89.535 129.3972
1.058482 89.443 128.9734
1.066152 89.348 128.5519
1.073878 89.250 128.1330
1.081660 89.151 127.7171
1.089498 89.049 127.3046
1.097393 88.945 126.8953
1.105345 88.840 126.4889
1.113355 88.733 126.0850
1.121423 88.625 125.6829
1.129549 88.516 125.2821
1.137734 88.406 124.8821
1.145979 88.295 124.4825
1.154283 88.183 124.0829
1.162647 88.070 123.6830
1.171072 87.955 123.2825
1.179558 87.839 122.8809
1.188106 87.721 122.4780
1.196715 87.601 122.0735
1.205387 87.479 121.6668
1.214122 87.355 121.2577
1.222920 87.228 120.8457
1.231782 87.099 120.4304
1.240708 86.967 120.0113
1.249699 86.831 119.5879
1.258754 86.692 119.1597
1.267876 86.550 118.7261
1.277063 86.404 118.2866
1.286318 86.253 117.8405
1.295639 86.098 117.3871
1.305027 85.938 116.9257
1.314484 85.773 116.4556
1.324009 85.603 115.9760
1.333604 85.427 115.4860
1.343268 85.245 114.9847
1.353002 85.056 114.4711
1.362806 84.861 113.9442
1.372681 84.659 113.4030
1.382628 84.449 112.8463
1.392647 84.232 112.2730
1.402739 84.006 111.6820
1.412904 83.771 111.0719
1.423142 83.527 110.4418
1.433455 83.271 109.7905
1.443843 83.004 109.1173
1.454305 82.723 108.4214
1.464844 82.426 107.7025
1.475459 82.111 106.9601
1.486150 81.773 106.1935
1.496920 81.412 105.4015
1.507767 81.027 104.5818
1.518693 80.617 103.7318
1.529698 80.183 102.8480
1.540783 79.725 101.9258
1.551948 79.245 100.9602
1.563194 78.746 99.9450
1.574521 78.228 98.8728
1.585931 77.695 97.7352
1.597423 77.148 96.5219
1.608999 76.591 95.2206
1.620658 76.025 93.8167
1.632402 75.453 92.2923
1.644232 74.880 90.6258
1.656146 74.308 88.7906
1.668147 73.740 86.7539
1.680235 73.180 84.4754
1.692411 72.633 81.9045
1.704675 72.103 78.9786
1.717028 71.593 75.6204
1.729470 71.110 71.7352
1.742003 70.659 67.2108
1.754626 70.245 61.9208
1.767341 69.874 55.7380
1.780147 69.552 48.5629
1.793047 69.287 40.3733
1.806040 69.084 31.2860
1.819128 68.949 21.5948
1.832310 68.886 11.7392
1.845587 68.899 2.1897
1.858961 68.987 -6.6803
1.872432 69.150 -14.6623
1.886001 69.384 -21.7008
1.899667 69.685 -27.8415
1.913433 70.047 -33.1803
1.927299 70.466 -37.8274
1.941265 70.934 -41.8884
1.955332 71.446 -45.4562
1.969501 71.994 -48.6094
1.983773 72.573 -51.4128
1.998148 73.175 -53.9193
2.012627 73.794 -56.1717
2.027212 74.424 -58.2050
2.041902 75.058 -60.0475
2.056698 75.689 -61.7225
2.071602 76.311 -63.2490
2.086614 76.918 -64.6428
2.101734 77.504 -65.9171
2.116964 78.062 -67.0835
2.132304 78.589 -68.1521
2.147756 79.081 -69.1327
2.163320 79.534 -70.0351
2.178996 79.949 -70.8700
2.194786 80.326 -71.6489
2.210690 80.668 -72.3840
2.226710 80.981 -73.0863
2.242845 81.267 -73.7646
2.259098 81.530 -74.4246
2.275468 81.773 -75.0698
2.291957 81.997 -75.7016
2.308566 82.205 -76.3203
2.325295 82.397 -76.9252
2.342145 82.575 -77.5153
2.359117 82.740 -78.0891
2.376212 82.894 -78.6451
2.393431 83.039 -79.1814
2.410775 83.175 -79.6963
2.428244 83.304 -80.1877
2.445840 83.429 -80.6538
2.463564 83.549 -81.0926
2.481416 83.668 -81.5024
2.499397 83.785 -81.8819
2.517509 83.903 -82.2304
2.535752 84.021 -82.5479
2.554127 84.139 -82.8359
2.572635 84.255 -83.0966
2.591277 84.369 -83.3334
2.610055 84.478 -83.5493
2.628968 84.582 -83.7469
2.648019 84.681 -83.9278
2.667208 84.773 -84.0932
2.686535 84.860 -84.2437
2.706003 84.942 -84.3795
2.725612 85.020 -84.5004
2.745363 85.094 -84.6063
2.765257 85.164 -84.6968
2.785295 85.232 -84.7714
2.805478 85.299 -84.8297
2.825808 85.365 -84.8709
2.846285 85.431 -84.8945
2.866910 85.497 -84.8997
2.887685 85.565 -84.8858
2.908611 85.634 -84.8520
2.929688 85.703 -84.7976
2.950917 85.773 -84.7221
2.972301 85.843 -84.6254
2.993839 85.913 -84.5080
3.015534 85.982 -84.3707
3.037386 86.049 -84.2151
3.059396 86.117 -84.0428
3.081565 86.184 -83.8557
3.103896 86.250 -83.6559
3.126388 86.317 -83.4456
3.149043 86.385 -83.2268
3.171862 86.454 -83.0017
3.194847 86.524 -82.7722
3.217998 86.597 -82.5399
3.241317 86.671 -82.3058
3.264805 86.748 -82.0701
3.288463 86.828 -81.8323
3.312293 86.911 -81.5911
3.336295 86.996 -81.3451
3.360471 87.084 -81.0939
3.384822 87.174 -80.8379
3.409350 87.267 -80.5788
3.434056 87.361 -80.3191
3.458940 87.457 -80.0618
3.484005 87.554 -79.8103
3.509252 87.653 -79.5679
3.534681 87.753 -79.3380
3.560295 87.853 -79.1237
3.586094 87.954 -78.9277
3.612081 88.056 -78.7519
3.638255 88.158 -78.5973
3.664620 88.261 -78.4638
3.691175 88.365 -78.3506
3.717923 88.469 -78.2561
3.744864 88.575 -78.1793
3.772001 88.681 -78.1194
3.799335 88.788 -78.0758
3.826866 88.895 -78.0484
3.854597 89.002 -78.0375
3.882529 89.108 -78.0431
3.910664 89.214 -78.0657
3.939002 89.317 -78.1057
3.967546 89.420 -78.1636
3.996296 89.520 -78.2398
4.025255 89.618 -78.3346
4.054423 89.715 -78.4483
4.083804 89.809 -78.5805
4.113396 89.901 -78.7307
4.143204 89.992 -78.8977
4.173227 90.080 -79.0799
4.203468 90.167 -79.2758
4.233928 90.251 -79.4837
4.264609 90.333 -79.7021
4.295512 90.412 -79.9297
4.326639 90.489 -80.1655
4.357992 90.563 -80.4093
4.389572 90.634 -80.6613
4.421380 90.702 -80.9221
4.453419 90.767 -81.1922
4.485691 90.829 -81.4716
4.518196 90.887 -81.7593
4.550936 90.943 -82.0539
4.583914 90.996 -82.3532
4.617131 91.047 -82.6550
4.650589 91.095 -82.9570
4.684289 91.140 -83.2573
4.718233 91.184 -83.5544
4.752424 91.225 -83.8477
4.786862 91.263 -84.1374
4.821549 91.299 -84.4239
4.856488 91.332 -84.7077
4.891680 91.363 -84.9887
4.927127 91.392 -85.2666
4.962831 91.419 -85.5404
4.998794 91.444 -85.8092
5.035017 91.469 -86.0716
5.071503 91.492 -86.3267
5.108253 91.514 -86.5736
5.145270 91.536 -86.8118
5.182555 91.557 -87.0413
5.220110 91.578 -87.2626
5.257937 91.597 -87.4764
5.296038 91.617 -87.6839
5.334415 91.636 -87.8860
5.373071 91.655 -88.0837
5.412006 91.675 -88.2777
5.451224 91.696 -88.4685
5.490725 91.718 -88.6562
5.530514 91.740 -88.8409
5.570590 91.764 -89.0228
5.610957 91.789 -89.2028
5.651616 91.815 -89.3822
5.692570 91.842 -89.5631
5.733821 91.871 -89.7474
5.775370 91.901 -89.9372
5.817221 91.932 -90.1340
5.859375 91.964 -90.3389
5.901834 91.998 -90.5522
5.944602 92.034 -90.7744
5.987679 92.070 -91.0059
6.031068 92.108 -91.2475
6.074771 92.147 -91.5006
6.118792 92.187 -91.7664
6.163131 92.227 -92.0463
6.207792 92.268 -92.3413
6.252776 92.309 -92.6520
6.298086 92.351 -92.9785
6.343725 92.393 -93.3204
6.389694 92.435 -93.6771
6.435996 92.477 -94.0482
6.482634 92.519 -94.4330
6.529610 92.561 -94.8313
6.576926 92.601 -95.2427
6.624585 92.641 -95.6671
6.672590 92.681 -96.1043
6.720942 92.719 -96.5535
6.769645 92.757 -97.0134
6.818700 92.794 -97.4824
6.868111 92.830 -97.9590
6.917881 92.865 -98.4420
6.968010 92.900 -98.9303
7.018504 92.933 -99.4236
7.069362 92.966 -99.9211
7.120590 92.997 -100.4220
7.172189 93.029 -100.9251
7.224161 93.059 -101.4288
7.276511 93.090 -101.9319
7.329239 93.120 -102.4335
7.382350 93.150 -102.9329
7.435845 93.180 -103.4299
7.489729 93.211 -103.9243
7.544002 93.242 -104.4159
7.598669 93.273 -104.9044
7.653732 93.305 -105.3895
7.709194 93.338 -105.8710
7.765058 93.373 -106.3488
7.821327 93.408 -106.8232
7.878004 93.444 -107.2948
7.935091 93.482 -107.7641
7.992592 93.521 -108.2317
8.050510 93.561 -108.6981
8.108847 93.603 -109.1637
8.167607 93.647 -109.6287
8.226793 93.692 -110.0937
8.286408 93.738 -110.5591
8.346454 93.785 -111.0256
8.406936 93.833 -111.4936
8.467856 93.883 -111.9634
8.529218 93.933 -112.4350
8.591024 93.984 -112.9083
8.653278 94.036 -113.3830
8.715983 94.089 -113.8590
8.779143 94.141 -114.3361
8.842760 94.194 -114.8138
8.906839 94.247 -115.2918
8.971381 94.299 -115.7693
9.036392 94.352 -116.2454
9.101873 94.404 -116.7192
9.167829 94.456 -117.1900
9.234263 94.508 -117.6571
9.301178 94.559 -118.1197
9.368578 94.610 -118.5770
9.436467 94.660 -119.0283
9.504847 94.710 -119.4726
9.573723 94.759 -119.9095
9.643099 94.808 -120.3384
9.712976 94.857 -120.7592
9.783361 94.905 -121.1715
9.854255 94.953 -121.5752
9.925663 95.001 -121.9701
9.997588 95.049 -122.3563
10.070035 95.096 -122.7341
10.143007 95.144 -123.1038
10.216507 95.191 -123.4659
10.290540 95.238 -123.8205
10.365109 95.285 -124.1684
10.440219 95.332 -124.5098
10.515873 95.378 -124.8453
10.592076 95.425 -125.1755
10.668830 95.471 -125.5009
10.746141 95.516 -125.8218
10.824012 95.561 -126.1385
10.902447 95.605 -126.4515
10.981451 95.649 -126.7610
11.061027 95.692 -127.0672
11.141180 95.734 -127.3704
11.221913 95.775 -127.6707
11.303232 95.816 -127.9682
11.385140 95.855 -128.2632
11.467641 95.893 -128.5556
11.550741 95.931 -128.8458
11.634442 95.967 -129.1340
11.718750 96.002 -129.4203
11.803669 96.036 -129.7051
11.889203 96.070 -129.9888
11.975357 96.102 -130.2717
12.062136 96.133 -130.5543
12.149543 96.163 -130.8370
12.237583 96.191 -131.1203
12.326262 96.219 -131.4045
12.415583 96.246 -131.6901
12.505552 96.271 -131.9776
12.596172 96.295 -132.2671
12.687449 96.318 -132.5590
12.779387 96.340 -132.8534
12.871992 96.360 -133.1504
12.965268 96.379 -133.4500
13.059220 96.396 -133.7522
13.153852 96.413 -134.0569
13.249170 96.428 -134.3639
13.345179 96.441 -134.6733
13.441884 96.454 -134.9848
13.539289 96.466 -135.2985
13.637401 96.476 -135.6144
13.736223 96.486 -135.9325
13.835761 96.495 -136.2532
13.936021 96.504 -136.5766
14.037007 96.512 -136.9032
14.138725 96.520 -137.2334
14.241180 96.528 -137.5677
14.344377 96.536 -137.9068
14.448323 96.543 -138.2510
14.553021 96.551 -138.6009
14.658478 96.559 -138.9568
14.764700 96.566 -139.3192
14.871691 96.574 -139.6882
14.979457 96.582 -140.0638
15.088005 96.590 -140.4458
15.197339 96.598 -140.8340
15.307465 96.606 -141.2279
15.418389 96.614 -141.6271
15.530117 96.622 -142.0309
15.642655 96.631 -142.4386
15.756008 96.639 -142.8495
15.870182 96.648 -143.2629
15.985184 96.657 -143.6780
16.101019 96.667 -144.0943
16.217694 96.677 -144.5112
16.335214 96.688 -144.9280
16.453586 96.699 -145.3444
16.572815 96.711 -145.7599
16.692909 96.724 -146.1743
16.813872 96.738 -146.5871
16.935713 96.752 -146.9982
17.058436 96.767 -147.4071
17.182048 96.782 -147.8136
17.306556 96.799 -148.2174
17.431967 96.815 -148.6182
17.558286 96.833 -149.0158
17.685521 96.850 -149.4098
17.813677 96.868 -149.7999
17.942762 96.886 -150.1859
18.072783 96.905 -150.5674
18.203746 96.923 -150.9443
18.335658 96.941 -151.3161
18.468526 96.959 -151.6826
18.602356 96.977 -152.0435
18.737156 96.994 -152.3986
18.872934 97.011 -152.7476
19.009695 97.027 -153.0903
19.147447 97.042 -153.4266
19.286197 97.057 -153.7565
19.425953 97.071 -154.0800
19.566721 97.084 -154.3974
19.708510 97.096 -154.7091
19.851326 97.108 -155.0155
19.995177 97.118 -155.3174
20.140070 97.128 -155.6154
20.286013 97.137 -155.9105
20.433014 97.145 -156.2033
20.581080 97.152 -156.4946
20.730219 97.157 -156.7851
20.880439 97.162 -157.0753
21.031747 97.165 -157.3656
21.184152 97.167 -157.6563
21.337661 97.167 -157.9476
21.492282 97.167 -158.2399
21.648024 97.165 -158.5332
21.804895 97.163 -158.8280
21.962902 97.159 -159.1247
22.122054 97.155 -159.4239
22.282360 97.150 -159.7262
22.443827 97.145 -160.0323
22.606464 97.139 -160.3431
22.770280 97.133 -160.6591
22.935283 97.127 -160.9809
23.101481 97.121 -161.3089
23.268884 97.115 -161.6430
23.437500 97.108 -161.9833
23.607338 97.101 -162.3292
23.778406 97.095 -162.6805
23.950714 97.088 -163.0363
24.124271 97.082 -163.3960
24.299086 97.076 -163.7589
24.475167 97.071 -164.1242
24.652524 97.065 -164.4913
24.831166 97.061 -164.8596
25.011103 97.057 -165.2283
25.192344 97.054 -165.5968
25.374898 97.051 -165.9646
25.558775 97.049 -166.3310
25.743984 97.048 -166.6954
25.930536 97.047 -167.0574
26.118439 97.046 -167.4164
26.307704 97.047 -167.7720
26.498341 97.047 -168.1237
26.690359 97.048 -168.4712
26.883768 97.048 -168.8140
27.078579 97.049 -169.1516
27.274801 97.049 -169.4835
27.472446 97.049 -169.8091
27.671522 97.048 -170.1283
27.872042 97.047 -170.4406
28.074014 97.046 -170.7460
28.277450 97.044 -171.0450
28.482360 97.041 -171.3380
28.688755 97.038 -171.6259
28.896645 97.034 -171.9098
29.106042 97.029 -172.1909
29.316957 97.024 -172.4704
29.529400 97.018 -172.7495
29.743382 97.011 -173.0290
29.958915 97.004 -173.3097
30.176009 96.995 -173.5922
30.394677 96.985 -173.8766
30.614929 96.975 -174.1632
30.836778 96.963 -174.4520
31.060234 96.951 -174.7431
31.285309 96.938 -175.0367
31.512015 96.925 -175.3329
31.740364 96.912 -175.6321
31.970368 96.899 -175.9347
32.202039 96.885 -176.2412
32.435388 96.872 -176.5518
32.670428 96.859 -176.8665
32.907171 96.846 -177.1849
33.145630 96.833 -177.5064
33.385817 96.820 -177.8299
33.627745 96.808 -178.1544
33.871425 96.795 -178.4787
34.116871 96.783 -178.8015
34.364096 96.771 -179.1222
34.613113 96.759 -179.4401
34.863934 96.747 -179.7548
35.116572 96.736 179.9340
35.371041 96.725 179.6264
35.627354 96.714 179.3228
35.885525 96.703 179.0234
36.145566 96.691 178.7283
36.407492 96.680 178.4376
36.671316 96.668 178.1509
36.937051 96.656 177.8680
37.204712 96.644 177.5884
37.474313 96.631 177.3116
37.745867 96.618 177.0369
38.019389 96.604 176.7641
38.294893 96.589 176.4926
38.572394 96.574 176.2220
38.851905 96.559 175.9516
39.133442 96.543 175.6804
39.417019 96.527 175.4075
39.702651 96.510 175.1322
39.990353 96.493 174.8539
40.280140 96.475 174.5731
40.572026 96.456 174.2906
40.866028 96.437 174.0081
41.162160 96.417 173.7274
41.460438 96.397 173.4496
41.760877 96.377 173.1755
42.063494 96.357 172.9049
42.368303 96.338 172.6365
42.675322 96.320 172.3689
42.984565 96.302 172.1008
43.296048 96.284 171.8316
43.609789 96.265 171.5618
43.925804 96.247 171.2930
44.244108 96.227 171.0273
44.564719 96.208 170.7671
44.887654 96.187 170.5138
45.212928 96.167 170.2682
45.540560 96.147 170.0297
45.870565 96.128 169.7961
46.202962 96.110 169.5646
46.537768 96.093 169.3317
46.875000 96.077 169.0945
47.214676 96.061 168.8509
47.556813 96.044 168.6002
47.901429 96.027 168.3430
48.248542 96.010 168.0810
48.598171 95.991 167.8163
48.950334 95.971 167.5511
49.305048 95.951 167.2874
49.662333 95.930 167.0269
50.022206 95.907 166.7708
50.384688 95.885 166.5198
50.749796 95.862 166.2743
51.117550 95.840 166.0337
51.487969 95.817 165.7972
51.861072 95.794 165.5638
52.236879 95.772 165.3326
52.615409 95.749 165.1030
52.996681 95.726 164.8750
53.380717 95.703 164.6484
53.767536 95.680 164.4230
54.157158 95.657 164.1981
54.549603 95.635 163.9730
54.944892 95.612 163.7474
55.343045 95.589 163.5215
55.744084 95.567 163.2954
56.148028 95.544 163.0692
56.554900 95.523 162.8421
56.964720 95.501 162.6129
57.377510 95.480 162.3806
57.793291 95.459 162.1449
58.212085 95.437 161.9072
58.633914 95.415 161.6693
59.058799 95.392 161.4332
59.486764 95.368 161.2003
59.917829 95.343 160.9710
60.352019 95.318 160.7452
60.789354 95.293 160.5226
61.229859 95.267 160.3027
61.673556 95.240 160.0856
62.120468 95.213 159.8708
62.570618 95.185 159.6579
63.024031 95.158 159.4467
63.480729 95.129 159.2371
63.940736 95.101 159.0291
64.404077 95.073 158.8228
64.870776 95.045 158.6179
65.340856 95.017 158.4139
65.814343 94.989 158.2109
66.291261 94.961 158.0093
66.771635 94.933 157.8100
67.255489 94.905 157.6136
67.742850 94.877 157.4204
68.233743 94.849 157.2300
68.728193 94.821 157.0415
69.226226 94.792 156.8542
69.727867 94.764 156.6679
70.233144 94.735 156.4824
70.742083 94.706 156.2982
71.254709 94.677 156.1156
71.771050 94.647 155.9350
72.291132 94.618 155.7560
72.814984 94.589 155.5779
73.342631 94.561 155.4002
73.874102 94.533 155.2226
74.409424 94.504 155.0453
74.948626 94.477 154.8686
75.491734 94.449 154.6926
76.038779 94.421 154.5176
76.589787 94.393 154.3441
77.144788 94.365 154.1720
77.703811 94.337 154.0006
78.266885 94.309 153.8286
78.834039 94.281 153.6545
79.405303 94.253 153.4769
79.980706 94.224 153.2946
80.560280 94.196 153.1063
81.144053 94.166 152.9116
81.732056 94.136 152.7103
82.324320 94.105 152.5037
82.920876 94.072 152.2941
83.521755 94.037 152.0848
84.126988 94.001 151.8798
84.736607 93.963 151.6825
85.350643 93.924 151.4954
85.969129 93.885 151.3195
86.592097 93.845 151.1540
87.219579 93.806 150.9974
87.851608 93.767 150.8486
88.488217 93.729 150.7068
89.129439 93.691 150.5716
89.775308 93.653 150.4423
90.425856 93.615 150.3179
91.081119 93.578 150.1975
91.741131 93.542 150.0803
92.405925 93.505 149.9651
93.075536 93.469 149.8510
93.750000 93.433 149.7370
94.429351 93.396 149.6226
95.113625 93.360 149.5075
95.802858 93.324 149.3920
96.497085 93.288 149.2768
97.196342 93.251 149.1631
97.900667 93.215 149.0524
98.610096 93.179 148.9462
99.324665 93.142 148.8458
100.044413 93.106 148.7520
100.769376 93.070 148.6648
101.499592 93.034 148.5830
102.235100 92.999 148.5047
102.975938 92.964 148.4280
103.722144 92.929 148.3515
104.473757 92.895 148.2745
105.230817 92.861 148.1960
105.993363 92.828 148.1144
106.761435 92.796 148.0278
107.535072 92.764 147.9350
108.314315 92.732 147.8356
109.099206 92.699 147.7303
109.889783 92.666 147.6205
110.686090 92.632 147.5078
111.488167 92.596 147.3931
112.296056 92.558 147.2764
113.109800 92.519 147.1575
113.929440 92.479 147.0378
114.755020 92.437 146.9197
115.586582 92.394 146.8067
116.424170 92.350 146.7021
117.267827 92.307 146.6086
118.117598 92.264 146.5287
118.973527 92.222 146.4660
119.835658 92.180 146.4249
120.704037 92.141 146.4059
121.578708 92.103 146.4027
122.459718 92.068 146.4047
123.347111 92.033 146.4039
124.240935 91.999 146.3976
125.141236 91.964 146.3855
126.048061 91.929 146.3674
126.961458 91.893 146.3423
127.881473 91.858 146.3101
128.808154 91.822 146.2713
129.741551 91.787 146.2272
130.681712 91.752 146.1797
131.628686 91.716 146.1317
132.582521 91.680 146.0857
133.543269 91.642 146.0432
134.510979 91.605 146.0045
135.485701 91.566 145.9697
136.467486 91.527 145.9391
137.456386 91.488 145.9132
138.452451 91.449 145.8922
139.455735 91.410 145.8761
140.466288 91.371 145.8646
141.484165 91.332 145.8572
142.509418 91.294 145.8535
143.542100 91.255 145.8536
144.582265 91.216 145.8588
145.629968 91.177 145.8703
146.685262 91.138 145.8892
147.748204 91.098 145.9160
148.818849 91.059 145.9511
149.897251 91.019 145.9955
150.983469 90.980 146.0509
152.077557 90.941 146.1189
153.179574 90.904 146.2003
154.289576 90.870 146.2938
155.407622 90.838 146.3950
156.533770 90.810 146.4972
157.668078 90.787 146.5914
158.810606 90.766 146.6696
159.961413 90.748 146.7258
161.120559 90.731 146.7581
162.288105 90.715 146.7674
163.464112 90.698 146.7573
164.648640 90.679 146.7330
165.841752 90.657 146.6998
167.043510 90.633 146.6616
168.253976 90.606 146.6209
169.473213 90.576 146.5796
170.701286 90.546 146.5386
171.938258 90.514 146.4986
173.184194 90.484 146.4596
174.439158 90.454 146.4230
175.703216 90.424 146.3922
176.976434 90.395 146.3719
178.258878 90.366 146.3650
179.550615 90.337 146.3694
180.851713 90.307 146.3765
182.162239 90.278 146.3759
183.482262 90.247 146.3652
184.811850 90.215 146.3495
186.151073 90.183 146.3334
187.500000 90.149 146.3193
188.858702 90.115 146.3091
190.227250 90.080 146.3032
191.605715 90.044 146.3015
192.994169 90.007 146.3035
194.392685 89.970 146.3099
195.801334 89.932 146.3218
197.220191 89.895 146.3408
198.649330 89.857 146.3684
200.088825 89.820 146.4058
201.538751 89.784 146.4521
202.999184 89.749 146.5047
204.470200 89.716 146.5587
205.951875 89.683 146.6093
207.444287 89.651 146.6539
208.947514 89.619 146.6926
210.461634 89.586 146.7277
211.986726 89.552 146.7626
213.522869 89.517 146.8024
215.070144 89.480 146.8522
216.628631 89.443 146.9161
218.198411 89.406 146.9953
219.779567 89.370 147.0868
221.372180 89.336 147.1840
222.976334 89.304 147.2797
224.592112 89.273 147.3689
226.219600 89.243 147.4498
227.858880 89.214 147.5238
229.510039 89.184 147.5942
231.173164 89.154 147.6639
232.848340 89.123 147.7341
234.535655 89.093 147.8049
236.235197 89.063 147.8760
237.947054 89.032 147.9467
239.671317 89.002 148.0164
241.408074 88.970 148.0854
243.157416 88.938 148.1552
244.919435 88.905 148.2285
246.694223 88.871 148.3090
248.481871 88.837 148.4003
250.282473 88.802 148.5057
252.096123 88.768 148.6266
253.922915 88.736 148.7618
255.762945 88.706 148.9055
257.616309 88.680 149.0482
259.483103 88.655 149.1804
261.363424 88.632 149.2971
263.257372 88.608 149.3999
265.165043 88.582 149.4944
267.086538 88.555 149.5876
269.021957 88.527 149.6855
270.971401 88.498 149.7921
272.934972 88.469 149.9088
274.912771 88.442 150.0344
276.904902 88.416 150.1669
278.911469 88.391 150.3038
280.932577 88.369 150.4428
282.968330 88.348 150.5799
285.018835 88.329 150.7094
287.084199 88.312 150.8237
289.164530 88.296 150.9170
291.259935 88.279 150.9888
293.370525 88.260 151.0455
295.496408 88.237 151.0978
297.637697 88.213 151.1556
299.794503 88.186 151.2247
301.966937 88.158 151.3062
304.155114 88.129 151.3980
306.359147 88.101 151.4971
308.579152 88.073 151.6002
310.815244 88.045 151.7043
313.067539 88.017 151.8081
315.336156 87.989 151.9127
317.621211 87.960 152.0217
319.922826 87.930 152.1398
322.241118 87.901 152.2693
324.576210 87.873 152.4092
326.928223 87.845 152.5568
329.297280 87.819 152.7086
331.683504 87.794 152.8614
334.087019 87.770 153.0122
336.507952 87.746 153.1589
338.946427 87.722 153.3011
341.402572 87.699 153.4399
343.876516 87.675 153.5785
346.368387 87.650 153.7197
348.878315 87.626 153.8654
351.406431 87.602 154.0161
353.952867 87.578 154.1715
356.517756 87.554 154.3306
359.101230 87.531 154.4923
361.703426 87.508 154.6556
364.324478 87.485 154.8202
366.964523 87.462 154.9861
369.623699 87.440 155.1537
372.302145 87.419 155.3233
375.000000 87.398 155.4952
377.717405 87.377 155.6692
380.454501 87.357 155.8448
383.211431 87.337 156.0215
385.988339 87.318 156.1988
388.785369 87.299 156.3763
391.602668 87.280 156.5542
394.440383 87.262 156.7328
397.298660 87.244 156.9122
400.177650 87.227 157.0914
403.077502 87.210 157.2688
405.998368 87.193 157.4427
408.940400 87.176 157.6131
411.903750 87.158 157.7818
414.888575 87.139 157.9525
417.895028 87.120 158.1293
420.923268 87.101 158.3148
423.973452 87.083 158.5100
427.045738 87.065 158.7136
430.140287 87.049 158.9218
433.257261 87.035 159.1301
436.396822 87.023 159.3358
439.559133 87.011 159.5382
442.744360 87.000 159.7372
445.952668 86.991 159.9309
449.184225 86.983 160.1145
452.439199 86.975 160.2822
455.717760 86.966 160.4307
459.020079 86.956 160.5633
462.346327 86.942 160.6904
465.696680 86.925 160.8239
469.071310 86.906 160.9710
472.470394 86.887 161.1329
475.894109 86.867 161.3062
479.342634 86.848 161.4852
482.816148 86.829 161.6645
486.314833 86.810 161.8430
489.838871 86.790 162.0260
493.388445 86.770 162.2217
496.963741 86.749 162.4345
500.564945 86.730 162.6609
504.192245 86.712 162.8927
507.845830 86.695 163.1223
511.525890 86.679 163.3463
515.232618 86.662 163.5657
518.966206 86.645 163.7841
522.726849 86.627 164.0063
526.514743 86.609 164.2375
530.330086 86.592 164.4804
534.173076 86.575 164.7330
538.043915 86.559 164.9907
541.942803 86.544 165.2504
545.869944 86.530 165.5120
549.825542 86.516 165.7759
553.809805 86.504 166.0403
557.822939 86.491 166.3031
561.865154 86.480 166.5630
565.936660 86.468 166.8217
570.037671 86.455 167.0822
574.168399 86.442 167.3482
578.329060 86.428 167.6215
582.519870 86.414 167.9009
586.741049 86.401 168.1855
590.992817 86.387 168.4767
595.275394 86.373 168.7771
599.589005 86.361 169.0859
603.933874 86.350 169.3998
608.310228 86.339 169.7154
612.718295 86.329 170.0320
617.158304 86.318 170.3525
621.630488 86.307 170.6826
626.135079 86.296 171.0280
630.672311 86.286 171.3901
635.242423 86.279 171.7645
639.845651 86.274 172.1450
644.482237 86.271 172.5299
649.152421 86.270 172.9202
653.856447 86.272 173.3144
658.594560 86.278 173.7056
663.367008 86.286 174.0837
668.174039 86.296 174.4410
673.015903 86.305 174.7781
677.892854 86.313 175.1022
682.805145 86.320 175.4218
687.753032 86.324 175.7431
692.736774 86.328 176.0717
697.756631 86.331 176.4123
702.812863 86.334 176.7673
707.905735 86.338 177.1345
713.035511 86.345 177.5095
718.202461 86.352 177.8883
723.406852 86.361 178.2692
728.648956 86.372 178.6521
733.929047 86.383 179.0372
739.247399 86.396 179.4244
744.604290 86.410 179.8138
750.000000 86.426 -179.7946
755.434809 86.443 -179.4014
760.909001 86.462 -179.0079
766.422861 86.483 -178.6152
771.976677 86.506 -178.2247
777.570739 86.531 -177.8375
783.205337 86.557 -177.4545
788.880766 86.584 -177.0745
794.597321 86.613 -176.6948
800.355301 86.643 -176.3130
806.155005 86.676 -175.9312
811.996736 86.713 -175.5564
817.880799 86.752 -175.1982
823.807501 86.795 -174.8659
829.777150 86.839 -174.5670
835.790057 86.882 -174.3024
841.846536 86.923 -174.0643
847.946903 86.961 -173.8412
854.091476 86.997 -173.6242
860.280575 87.030 -173.4090
866.514523 87.062 -173.1921
872.793644 87.092 -172.9696
879.118267 87.122 -172.7407
885.488720 87.152 -172.5082
891.905336 87.182 -172.2746
898.368450 87.212 -172.0397
904.878398 87.241 -171.8011
911.435520 87.270 -171.5573
918.040157 87.300 -171.3095
924.692655 87.331 -171.0601
931.393359 87.363 -170.8121
938.142619 87.395 -170.5693
944.940787 87.428 -170.3333
951.788218 87.460 -170.1028
958.685268 87.492 -169.8753
965.632296 87.524 -169.6479
972.629666 87.556 -169.4184
979.677741 87.588 -169.1862
986.776890 87.620 -168.9518
993.927482 87.653 -168.7140
1001.129891 87.685 -168.4682
1008.384491 87.718 -168.2102
1015.691660 87.753 -167.9414
1023.051781 87.791 -167.6673
1030.465236 87.833 -167.3963
1037.932411 87.879 -167.1400
1045.453698 87.928 -166.9103
1053.029486 87.977 -166.7122
1060.660172 88.026 -166.5421
1068.346153 88.073 -166.3919
1076.087829 88.117 -166.2531
1083.885605 88.159 -166.1197
1091.739887 88.200 -165.9900
1099.651084 88.240 -165.8639
1107.619609 88.279 -165.7409
1115.645878 88.317 -165.6196
1123.730308 88.355 -165.4987
1131.873321 88.391 -165.3772
1140.075341 88.427 -165.2546
1148.336797 88.463 -165.1305
1156.658119 88.498 -165.0043
1165.039741 88.533 -164.8748
1173.482099 88.569 -164.7405
1181.985634 88.607 -164.6025
1190.550789 88.646 -164.4673
1199.178011 88.688 -164.3465
1207.867749 88.731 -164.2517
1216.620457 88.773 -164.1889
1225.436590 88.812 -164.1550
1234.316609 88.847 -164.1416
1243.260976 88.877 -164.1389
1252.270157 88.900 -164.1354
1261.344623 88.919 -164.1199
1270.484846 88.933 -164.0811
1279.691303 88.943 -164.0060
1288.964474 88.952 -163.8837
1298.304842 88.962 -163.7110
1307.712894 88.976 -163.4960
1317.189120 88.996 -163.2565
1326.734016 89.023 -163.0136
1336.348077 89.056 -162.7851
1346.031806 89.092 -162.5826
1355.785708 89.130 -162.4101
1365.610290 89.167 -162.2654
1375.506065 89.203 -162.1396
1385.473549 89.235 -162.0203
1395.513261 89.266 -161.8975
1405.625726 89.297 -161.7684
1415.811469 89.329 -161.6382
1426.071023 89.361 -161.5172
1436.404921 89.393 -161.4115
1446.813703 89.424 -161.3197
1457.297912 89.452 -161.2350
1467.858093 89.477 -161.1506
1478.494798 89.500 -161.0618
1489.208581 89.521 -160.9649
1500.000000 89.540 -160.8562
1510.869618 89.557 -160.7320
1521.818002 89.573 -160.5886
1532.845723 89.588 -160.4224
1543.953355 89.603 -160.2305
1555.141477 89.620 -160.0112
1566.410674 89.640 -159.7672
1577.761531 89.663 -159.5074
1589.194642 89.691 -159.2444
1600.710601 89.721 -158.9863
1612.310010 89.754 -158.7340
1623.993473 89.789 -158.4836
1635.761599 89.825 -158.2308
1647.615002 89.863 -157.9746
1659.554299 89.904 -157.7173
1671.580114 89.948 -157.4638
1683.693072 89.997 -157.2227
1695.893807 90.049 -157.0045
1708.182952 90.104 -156.8184
1720.561150 90.158 -156.6684
1733.029045 90.212 -156.5521
1745.587288 90.263 -156.4617
1758.236533 90.310 -156.3849
1770.977440 90.354 -156.3093
1783.810673 90.397 -156.2276
1796.736900 90.439 -156.1419
1809.756796 90.481 -156.0601
1822.871040 90.523 -155.9882
1836.080315 90.564 -155.9267
1849.385310 90.602 -155.8716
1862.786718 90.637 -155.8180
1876.285239 90.670 -155.7606
1889.881575 90.701 -155.6940
1903.576436 90.730 -155.6125
1917.370535 90.759 -155.5110
1931.264593 90.787 -155.3865
1945.259332 90.817 -155.2403
1959.355483 90.851 -155.0819
1973.553781 90.888 -154.9255
1987.854965 90.927 -154.7821
2002.259781 90.967 -154.6554
2016.768981 91.007 -154.5429
2031.383320 91.045 -154.4399
2046.103561 91.081 -154.3405
2060.930471 91.116 -154.2400
2075.864823 91.149 -154.1359
2090.907395 91.182 -154.0271
2106.058972 91.212 -153.9108
2121.320344 91.241 -153.7813
2136.692305 91.269 -153.6299
2152.175658 91.296 -153.4482
2167.771210 91.325 -153.2337
2183.479774 91.358 -152.9939
2199.302169 91.395 -152.7420
2215.239219 91.437 -152.4886
2231.291755 91.480 -152.2384
2247.460615 91.526 -151.9903
2263.746641 91.573 -151.7394
2280.150683 91.622 -151.4780
2296.673595 91.672 -151.1979
2313.316238 91.727 -150.8942
2330.079481 91.788 -150.5694
2346.964198 91.858 -150.2378
2363.971268 91.938 -149.9213
2381.101578 92.026 -149.6412
2398.356022 92.121 -149.4137
2415.735498 92.219 -149.2483
2433.240913 92.320 -149.1484
2450.873180 92.420 -149.1131
2468.633217 92.518 -149.1380
2486.521951 92.610 -149.2137
2504.540314 92.697 -149.3250
2522.689246 92.776 -149.4513
2540.969692 92.850 -149.5726
2559.382606 92.920 -149.6765
2577.928947 92.989 -149.7615
2596.609683 93.059 -149.8318
2615.425787 93.129 -149.8923
2634.378241 93.200 -149.9461
2653.468031 93.272 -149.9939
2672.696154 93.347 -150.0350
2692.063613 93.425 -150.0692
2711.571415 93.508 -150.1012
2731.220579 93.598 -150.1440
2751.012130 93.693 -150.2162
2770.947098 93.794 -150.3350
2791.026522 93.897 -150.5110
2811.251451 94.000 -150.7471
2831.622938 94.102 -151.0409
2852.142045 94.201 -151.3864
2872.809842 94.295 -151.7751
2893.627406 94.384 -152.1949
2914.595823 94.468 -152.6310
2935.716186 94.549 -153.0720
2956.989596 94.628 -153.5152
2978.417161 94.707 -153.9662
3000.000000 94.786 -154.4339
3021.739237 94.866 -154.9265
3043.636005 94.944 -155.4475
3065.691446 95.021 -155.9957
3087.906710 95.096 -156.5666
3110.282955 95.170 -157.1586
3132.821347 95.244 -157.7761
3155.523062 95.317 -158.4266
3178.389283 95.390 -159.1171
3201.421202 95.460 -159.8519
3224.620020 95.527 -160.6328
3247.986946 95.590 -161.4600
3271.523198 95.647 -162.3304
3295.230004 95.698 -163.2363
3319.108599 95.743 -164.1682
3343.160228 95.783 -165.1214
3367.386145 95.819 -166.0976
3391.787613 95.849 -167.1023
3416.365904 95.875 -168.1401
3441.122300 95.893 -169.2110
3466.058091 95.904 -170.3088
3491.174576 95.906 -171.4254
3516.473066 95.901 -172.5562
3541.954880 95.889 -173.7015
3567.621345 95.870 -174.8633
3593.473800 95.842 -176.0431
3619.513592 95.806 -177.2405
3645.742080 95.759 -178.4526
3672.160630 95.700 -179.6705
3698.770620 95.629 179.1205
3725.573436 95.545 177.9353
3752.570477 95.450 176.7839
3779.763150 95.345 175.6716
3807.152872 95.229 174.6018
3834.741071 95.103 173.5815
3862.529185 94.968 172.6219
3890.518664 94.825 171.7333
3918.710966 94.676 170.9200
3947.107561 94.524 170.1788
3975.709929 94.370 169.5016
4004.519563 94.214 168.8773
4033.537962 94.058 168.2946
4062.766641 93.899 167.7477
4092.207123 93.737 167.2380
4121.860942 93.572 166.7690
4151.729646 93.404 166.3416
4181.814790 93.234 165.9543
4212.117944 93.059 165.6071
4242.640687 92.881 165.3065
4273.384610 92.699 165.0630
4304.351317 92.514 164.8848
4335.542421 92.328 164.7739
4366.959549 92.142 164.7264
4398.604338 91.958 164.7330
4430.478438 91.776 164.7835
4462.583511 91.595 164.8728
4494.921231 91.415 165.0019
4527.493283 91.235 165.1724
4560.301365 91.057 165.3828
4593.347189 90.878 165.6311
4626.632476 90.700 165.9203
4660.158962 90.522 166.2589
4693.928395 90.344 166.6550
4727.942535 90.169 167.1118
4762.203156 89.998 167.6252
4796.712043 89.832 168.1840
4831.470996 89.672 168.7758
4866.481826 89.517 169.3930
4901.746360 89.366 170.0325
4937.266434 89.219 170.6912
4973.043902 89.075 171.3654
5009.080628 88.933 172.0555
5045.378492 88.792 172.7693
5081.939384 88.652 173.5183
5118.765212 88.513 174.3120
5155.857894 88.378 175.1536
5193.219366 88.247 176.0388
5230.851574 88.121 176.9601
5268.756481 88.001 177.9136
5306.936062 87.886 178.8975
5345.392309 87.778 179.9092
5384.127225 87.675 -179.0542
5423.142830 87.577 -177.9930
5462.441159 87.486 -176.9057
5502.024259 87.402 -175.7938
5541.894195 87.326 -174.6647
5582.053045 87.258 -173.5302
5622.502902 87.196 -172.4001
5663.245876 87.140 -171.2752
5704.284090 87.087 -170.1504
5745.619684 87.039 -169.0214
5787.254813 86.995 -167.8858
5829.191647 86.954 -166.7390
5871.432373 86.917 -165.5733
5913.979192 86.884 -164.3801
5956.834323 86.857 -163.1549
6000.000000 86.838 -161.8995
6043.478473 86.827 -160.6196
6087.272010 86.825 -159.3225
6131.382892 86.833 -158.0176
6175.813420 86.851 -156.7151
6220.565910 86.878 -155.4207
6265.642695 86.914 -154.1331
6311.046124 86.957 -152.8466
6356.778566 87.009 -151.5565
6402.842404 87.071 -150.2625
6449.240040 87.144 -148.9675
6495.973891 87.230 -147.6778
6543.046396 87.328 -146.4030
6590.460007 87.439 -145.1523
6638.217197 87.562 -143.9308
6686.320456 87.697 -142.7381
6734.772290 87.845 -141.5724
6783.575226 88.007 -140.4349
6832.731809 88.184 -139.3307
6882.244600 88.379 -138.2696
6932.116181 88.591 -137.2666
6982.349153 88.823 -136.3387
7032.946133 89.073 -135.5004
7083.909760 89.343 -134.7631
7135.242690 89.632 -134.1382
7186.947600 89.943 -133.6413
7239.027185 90.276 -133.2939
7291.484160 90.633 -133.1261
7344.321260 91.012 -133.1763
7397.541239 91.413 -133.4868
7451.146872 91.833 -134.0998
7505.140954 92.267 -135.0556
7559.526299 92.710 -136.3958
7614.305743 93.156 -138.1628
7669.482141 93.596 -140.3984
7725.058371 94.018 -143.1410
7781.037328 94.407 -146.4160
7837.421932 94.745 -150.2240
7894.215122 95.014 -154.5310
7951.419859 95.196 -159.2648
8009.039125 95.275 -164.3145
8067.075924 95.241 -169.5364
8125.533282 95.089 -174.7670
8184.414245 94.819 -179.8377
8243.721885 94.437 175.4114
8303.459292 93.956 171.1193
8363.629581 93.390 167.3935
8424.235888 92.758 164.3052
8485.281374 92.082 161.8861
8546.769221 91.382 160.1278
8608.702634 90.677 158.9882
8671.084842 89.983 158.4041
8733.919097 89.314 158.3034
8797.208675 88.675 158.6155
8860.956876 88.074 159.2761
8925.167022 87.514 160.2240
8989.842461 86.996 161.3994
9054.986566 86.520 162.7472
9120.602731 86.084 164.2231
9186.694378 85.685 165.7988
9253.264952 85.320 167.4618
9320.317925 84.986 169.2073
9387.856790 84.684 171.0281
9455.885071 84.414 172.9110
9524.406312 84.176 174.8381
9593.424086 83.970 176.7918
9662.941992 83.795 178.7592
9732.963653 83.651 -179.2721
9803.492719 83.539 -177.3189
9874.532869 83.459 -175.4022
9946.087805 83.410 -173.5437
10018.161257 83.390 -171.7594
10090.756983 83.398 -170.0586
10163.878768 83.434 -168.4522
10237.530423 83.497 -166.9594
10311.715789 83.588 -165.6069
10386.438732 83.703 -164.4230
10461.703149 83.839 -163.4306
10537.512962 83.993 -162.6481
10613.872125 84.159 -162.0933
10690.784618 84.333 -161.7810
10768.254450 84.507 -161.7138
10846.285661 84.674 -161.8697
10924.882318 84.829 -162.1990
11004.048518 84.973 -162.6389
11083.788390 85.116 -163.1436
11164.106090 85.270 -163.7213
11245.005805 85.443 -164.4491
11326.491752 85.635 -165.4428
11408.568180 85.833 -166.8023
11491.239368 86.020 -168.5795
11574.509626 86.177 -170.7767
11658.383294 86.285 -173.3539
11742.864745 86.329 -176.2374
11827.958384 86.299 -179.3289
11913.668646 86.189 177.4828
12000.000000 85.994 174.3135
12086.956947 85.719 171.2768
12174.544019 85.368 168.4780
12262.765784 84.952 166.0046
12351.626840 84.483 163.9184
12441.131819 83.975 162.2542
12531.285389 83.441 161.0255
12622.092249 82.895 160.2298
12713.557132 82.347 159.8499
12805.684808 81.809 159.8545
12898.480079 81.288 160.2042
12991.947783 80.790 160.8588
13086.092792 80.321 161.7813
13180.920015 79.883 162.9348
13276.434395 79.480 164.2826
13372.640911 79.113 165.7919
13469.544580 78.784 167.4349
13567.150452 78.493 169.1828
13665.463617 78.243 171.0027
13764.489200 78.032 172.8640
13864.232362 77.860 174.7471
13964.698305 77.727 176.6398
14065.892266 77.635 178.5266
14167.819519 77.586 -179.6144
14270.485380 77.582 -177.8085
14373.895200 77.624 -176.0869
14478.054370 77.716 -174.4897
14582.968320 77.858 -173.0644
14688.642520 78.052 -171.8631
14795.082478 78.298 -170.9457
14902.293745 78.593 -170.3811
15010.281908 78.932 -170.2428
15119.052599 79.307 -170.6019
15228.611486 79.708 -171.5251
15338.964283 80.119 -173.0693
15450.116741 80.520 -175.2713
15562.074656 80.891 -178.1387
15674.843864 81.209 178.3555
15788.430244 81.450 174.2760
15902.839718 81.595 169.7283
16018.078250 81.627 164.8559
16134.151848 81.537 159.8289
16251.066563 81.323 154.8290
16368.828491 80.989 150.0320
16487.443769 80.551 145.5905
16606.918584 80.027 141.6186
16727.259161 79.441 138.1850
16848.471777 78.817 135.3104
16970.562748 78.182 132.9651
17093.538442 77.559 131.0707
17217.405268 76.969 129.5110
17342.169684 76.424 128.1455
17467.838194 75.931 126.8239
17594.417350 75.489 125.3998
17721.913751 75.090 123.7440
17850.334044 74.718 121.7521
17979.684923 74.352 119.3550
18109.973131 73.969 116.5302
18241.205462 73.543 113.3036
18373.388756 73.050 109.7482
18506.529905 72.468 105.9796
18640.635849 71.782 102.1437
18775.713581 70.985 98.3979
18911.770141 70.073 94.8907
19048.812624 69.052 91.7431
19186.848172 67.933 89.0345
19325.883983 66.732 86.7997
19465.927305 65.470 85.0377
19606.985439 64.185 83.7316
19749.065738 62.953 82.8723
19892.175609 61.917 82.4391
20036.322514 61.300 82.3147
