* Measurement data measured by REW V5.31
* Source: EXCL: Microphone (USB Sound Device        ), MICROPHONE (Master Volume), R, volume: 0.390
* Format: 256k Log Swept Sine, 1 sweep at -5.0 dBFS with no timing reference
* Dated: Dec 9, 2024 1:33:15 PM
* REW Settings:
*  C-weighting compensation: Off
*  Target level: 75.0 dB
* Note: 
* Measurement: L Artti T10 Pro
* Smoothing: 1/12 octave
* Frequency Step: 96 ppo
* Start Frequency: 0.36621094 Hz
*
* Freq(Hz) SPL(dB) Phase(degrees)
0.366211 89.869 -177.5386
0.368865 89.868 -177.5422
0.371538 89.868 -177.5476
0.374230 89.867 -177.5542
0.376942 89.867 -177.5618
0.379673 89.866 -177.5700
0.382424 89.865 -177.5787
0.385196 89.864 -177.5876
0.387987 89.864 -177.5969
0.390798 89.863 -177.6063
0.393630 89.862 -177.6160
0.396483 89.861 -177.6259
0.399356 89.860 -177.6360
0.402250 89.860 -177.6463
0.405165 89.859 -177.6567
0.408101 89.858 -177.6674
0.411058 89.857 -177.6783
0.414037 89.856 -177.6894
0.417037 89.855 -177.7007
0.420059 89.855 -177.7123
0.423103 89.854 -177.7241
0.426169 89.853 -177.7361
0.429257 89.852 -177.7483
0.432368 89.851 -177.7608
0.435501 89.850 -177.7735
0.438656 89.849 -177.7865
0.441835 89.848 -177.7997
0.445037 89.847 -177.8131
0.448262 89.847 -177.8269
0.451510 89.846 -177.8409
0.454782 89.845 -177.8551
0.458077 89.844 -177.8697
0.461397 89.843 -177.8845
0.464740 89.842 -177.8996
0.468108 89.841 -177.9150
0.471500 89.840 -177.9307
0.474917 89.839 -177.9467
0.478358 89.838 -177.9630
0.481825 89.837 -177.9796
0.485316 89.836 -177.9965
0.488833 89.835 -178.0138
0.492375 89.834 -178.0314
0.495943 89.833 -178.0493
0.499537 89.832 -178.0676
0.503157 89.831 -178.0862
0.506803 89.830 -178.1052
0.510475 89.829 -178.1245
0.514175 89.828 -178.1443
0.517900 89.827 -178.1644
0.521653 89.826 -178.1849
0.525434 89.825 -178.2058
0.529241 89.824 -178.2271
0.533076 89.823 -178.2488
0.536939 89.821 -178.2709
0.540830 89.820 -178.2935
0.544749 89.819 -178.3165
0.548696 89.818 -178.3399
0.552673 89.817 -178.3638
0.556677 89.816 -178.3882
0.560711 89.815 -178.4131
0.564774 89.814 -178.4384
0.568867 89.812 -178.4642
0.572989 89.811 -178.4906
0.577141 89.810 -178.5174
0.581324 89.809 -178.5448
0.585536 89.808 -178.5728
0.589779 89.807 -178.6013
0.594053 89.805 -178.6303
0.598358 89.804 -178.6599
0.602694 89.803 -178.6902
0.607061 89.802 -178.7210
0.611460 89.800 -178.7525
0.615891 89.799 -178.7846
0.620354 89.798 -178.8173
0.624849 89.797 -178.8508
0.629377 89.795 -178.8849
0.633938 89.794 -178.9196
0.638532 89.793 -178.9552
0.643159 89.791 -178.9914
0.647819 89.790 -179.0284
0.652514 89.789 -179.0662
0.657242 89.787 -179.1048
0.662005 89.786 -179.1441
0.666802 89.785 -179.1844
0.671634 89.783 -179.2254
0.676501 89.782 -179.2674
0.681403 89.781 -179.3102
0.686341 89.779 -179.3540
0.691314 89.778 -179.3988
0.696324 89.776 -179.4445
0.701370 89.775 -179.4912
0.706452 89.773 -179.5391
0.711571 89.771 -179.5880
0.716728 89.768 -179.6381
0.721921 89.765 -179.6896
0.727153 89.761 -179.7424
0.732422 89.756 -179.7969
0.737729 89.750 -179.8531
0.743075 89.742 -179.9113
0.748460 89.733 -179.9716
0.753883 89.724 179.9658
0.759346 89.714 179.9009
0.764849 89.703 179.8337
0.770391 89.693 179.7641
0.775974 89.682 179.6921
0.781597 89.671 179.6178
0.787261 89.660 179.5411
0.792966 89.649 179.4621
0.798712 89.638 179.3807
0.804500 89.626 179.2970
0.810329 89.614 179.2110
0.816201 89.602 179.1228
0.822116 89.590 179.0323
0.828073 89.577 178.9395
0.834074 89.564 178.8446
0.840118 89.551 178.7476
0.846206 89.537 178.6483
0.852338 89.523 178.5470
0.858514 89.508 178.4437
0.864735 89.493 178.3383
0.871001 89.477 178.2310
0.877313 89.461 178.1216
0.883670 89.444 178.0105
0.890074 89.427 177.8975
0.896524 89.409 177.7828
0.903020 89.391 177.6663
0.909564 89.371 177.5482
0.916155 89.351 177.4285
0.922794 89.330 177.3073
0.929481 89.308 177.1847
0.936216 89.286 177.0607
0.943000 89.262 176.9354
0.949834 89.238 176.8090
0.956717 89.212 176.6814
0.963649 89.185 176.5528
0.970632 89.157 176.4233
0.977666 89.128 176.2930
0.984750 89.098 176.1620
0.991886 89.067 176.0305
0.999074 89.034 175.8984
1.006314 88.999 175.7661
1.013606 88.963 175.6336
1.020951 88.926 175.5010
1.028349 88.887 175.3686
1.035801 88.846 175.2364
1.043307 88.804 175.1046
1.050867 88.760 174.9733
1.058482 88.714 174.8427
1.066152 88.666 174.7127
1.073878 88.616 174.5834
1.081660 88.565 174.4544
1.089498 88.513 174.3254
1.097393 88.459 174.1957
1.105345 88.406 174.0644
1.113355 88.352 173.9305
1.121423 88.300 173.7932
1.129549 88.248 173.6518
1.137734 88.197 173.5060
1.145979 88.147 173.3555
1.154283 88.098 173.2002
1.162647 88.049 173.0402
1.171072 88.001 172.8755
1.179558 87.953 172.7062
1.188106 87.905 172.5325
1.196715 87.856 172.3543
1.205387 87.806 172.1721
1.214122 87.754 171.9858
1.222920 87.701 171.7958
1.231782 87.646 171.6023
1.240708 87.589 171.4055
1.249699 87.528 171.2057
1.258754 87.464 171.0034
1.267876 87.397 170.7987
1.277063 87.325 170.5921
1.286318 87.248 170.3841
1.295639 87.165 170.1751
1.305027 87.077 169.9656
1.314484 86.983 169.7564
1.324009 86.881 169.5479
1.333604 86.772 169.3409
1.343268 86.655 169.1363
1.353002 86.529 168.9348
1.362806 86.394 168.7375
1.372681 86.248 168.5454
1.382628 86.092 168.3597
1.392647 85.924 168.1815
1.402739 85.744 168.0124
1.412904 85.550 167.8535
1.423142 85.342 167.7063
1.433455 85.118 167.5719
1.443843 84.877 167.4512
1.454305 84.615 167.3444
1.464844 84.331 167.2514
1.475459 84.020 167.1711
1.486150 83.681 167.1026
1.496920 83.309 167.0451
1.507767 82.905 166.9984
1.518693 82.468 166.9631
1.529698 81.999 166.9402
1.540783 81.498 166.9316
1.551948 80.969 166.9394
1.563194 80.412 166.9664
1.574521 79.831 167.0158
1.585931 79.229 167.0917
1.597423 78.607 167.1988
1.608999 77.969 167.3427
1.620658 77.319 167.5303
1.632402 76.660 167.7699
1.644232 75.996 168.0715
1.656146 75.331 168.4475
1.668147 74.670 168.9133
1.680235 74.016 169.4881
1.692411 73.377 170.1961
1.704675 72.756 171.0683
1.717028 72.160 172.1447
1.729470 71.595 173.4774
1.742003 71.070 175.1356
1.754626 70.590 177.2112
1.767341 70.164 179.8284
1.780147 69.802 -176.8449
1.793047 69.511 -172.5840
1.806040 69.300 -167.0971
1.819128 69.178 -160.0368
1.832310 69.149 -151.0773
1.845587 69.216 -140.1216
1.858961 69.380 -127.6238
1.872432 69.638 -114.7153
1.886001 69.986 -102.7479
1.899667 70.416 -92.5951
1.913433 70.923 -84.4458
1.927299 71.497 -78.0714
1.941265 72.131 -73.1191
1.955332 72.817 -69.2605
1.969501 73.545 -66.2334
1.983773 74.309 -63.8409
1.998148 75.099 -61.9376
2.012627 75.907 -60.4170
2.027212 76.725 -59.1996
2.041902 77.546 -58.2265
2.056698 78.361 -57.4528
2.071602 79.164 -56.8443
2.086614 79.947 -56.3743
2.101734 80.703 -56.0221
2.116964 81.426 -55.7713
2.132304 82.110 -55.6087
2.147756 82.753 -55.5238
2.163320 83.350 -55.5078
2.178996 83.903 -55.5531
2.194786 84.413 -55.6535
2.210690 84.884 -55.8027
2.226710 85.322 -55.9955
2.242845 85.731 -56.2264
2.259098 86.115 -56.4907
2.275468 86.477 -56.7841
2.291957 86.818 -57.1026
2.308566 87.140 -57.4427
2.325295 87.445 -57.8014
2.342145 87.735 -58.1761
2.359117 88.010 -58.5645
2.376212 88.273 -58.9647
2.393431 88.525 -59.3749
2.410775 88.767 -59.7938
2.428244 89.002 -60.2203
2.445840 89.230 -60.6534
2.463564 89.454 -61.0927
2.481416 89.675 -61.5377
2.499397 89.894 -61.9887
2.517509 90.113 -62.4461
2.535752 90.330 -62.9110
2.554127 90.547 -63.3852
2.572635 90.761 -63.8704
2.591277 90.971 -64.3685
2.610055 91.176 -64.8804
2.628968 91.373 -65.4060
2.648019 91.564 -65.9444
2.667208 91.747 -66.4941
2.686535 91.923 -67.0529
2.706003 92.092 -67.6188
2.725612 92.255 -68.1897
2.745363 92.411 -68.7635
2.765257 92.563 -69.3381
2.785295 92.709 -69.9116
2.805478 92.852 -70.4826
2.825808 92.991 -71.0496
2.846285 93.127 -71.6117
2.866910 93.261 -72.1684
2.887685 93.392 -72.7201
2.908611 93.522 -73.2680
2.929688 93.648 -73.8143
2.950917 93.772 -74.3616
2.972301 93.892 -74.9125
2.993839 94.008 -75.4685
3.015534 94.119 -76.0301
3.037386 94.227 -76.5968
3.059396 94.329 -77.1672
3.081565 94.428 -77.7398
3.103896 94.523 -78.3124
3.126388 94.614 -78.8829
3.149043 94.702 -79.4492
3.171862 94.787 -80.0090
3.194847 94.869 -80.5605
3.217998 94.949 -81.1020
3.241317 95.026 -81.6326
3.264805 95.101 -82.1521
3.288463 95.174 -82.6614
3.312293 95.244 -83.1620
3.336295 95.311 -83.6561
3.360471 95.375 -84.1455
3.384822 95.435 -84.6311
3.409350 95.493 -85.1131
3.434056 95.547 -85.5911
3.458940 95.598 -86.0642
3.484005 95.647 -86.5310
3.509252 95.694 -86.9899
3.534681 95.738 -87.4393
3.560295 95.781 -87.8774
3.586094 95.823 -88.3028
3.612081 95.863 -88.7142
3.638255 95.902 -89.1106
3.664620 95.940 -89.4921
3.691175 95.976 -89.8589
3.717923 96.011 -90.2120
3.744864 96.043 -90.5522
3.772001 96.074 -90.8804
3.799335 96.104 -91.1973
3.826866 96.132 -91.5033
3.854597 96.159 -91.7989
3.882529 96.186 -92.0842
3.910664 96.212 -92.3592
3.939002 96.238 -92.6238
3.967546 96.265 -92.8776
3.996296 96.293 -93.1200
4.025255 96.321 -93.3505
4.054423 96.349 -93.5683
4.083804 96.378 -93.7732
4.113396 96.408 -93.9656
4.143204 96.437 -94.1465
4.173227 96.468 -94.3175
4.203468 96.498 -94.4804
4.233928 96.530 -94.6374
4.264609 96.563 -94.7906
4.295512 96.596 -94.9420
4.326639 96.631 -95.0931
4.357992 96.668 -95.2447
4.389572 96.706 -95.3971
4.421380 96.747 -95.5499
4.453419 96.788 -95.7026
4.485691 96.832 -95.8553
4.518196 96.877 -96.0088
4.550936 96.923 -96.1644
4.583914 96.971 -96.3241
4.617131 97.019 -96.4901
4.650589 97.069 -96.6647
4.684289 97.119 -96.8500
4.718233 97.170 -97.0474
4.752424 97.221 -97.2579
4.786862 97.274 -97.4819
4.821549 97.327 -97.7189
4.856488 97.381 -97.9686
4.891680 97.435 -98.2307
4.927127 97.490 -98.5052
4.962831 97.545 -98.7921
4.998794 97.599 -99.0919
5.035017 97.653 -99.4050
5.071503 97.706 -99.7320
5.108253 97.757 -100.0738
5.145270 97.808 -100.4306
5.182555 97.858 -100.8027
5.220110 97.906 -101.1897
5.257937 97.953 -101.5905
5.296038 97.999 -102.0038
5.334415 98.044 -102.4279
5.373071 98.086 -102.8614
5.412006 98.127 -103.3029
5.451224 98.166 -103.7517
5.490725 98.203 -104.2075
5.530514 98.238 -104.6707
5.570590 98.270 -105.1411
5.610957 98.301 -105.6183
5.651616 98.329 -106.1010
5.692570 98.355 -106.5874
5.733821 98.379 -107.0754
5.775370 98.402 -107.5630
5.817221 98.423 -108.0485
5.859375 98.441 -108.5312
5.901834 98.458 -109.0106
5.944602 98.474 -109.4869
5.987679 98.487 -109.9598
6.031068 98.499 -110.4289
6.074771 98.510 -110.8932
6.118792 98.520 -111.3516
6.163131 98.530 -111.8029
6.207792 98.538 -112.2462
6.252776 98.547 -112.6808
6.298086 98.555 -113.1068
6.343725 98.564 -113.5244
6.389694 98.572 -113.9345
6.435996 98.580 -114.3376
6.482634 98.589 -114.7346
6.529610 98.599 -115.1259
6.576926 98.610 -115.5118
6.624585 98.623 -115.8924
6.672590 98.636 -116.2682
6.720942 98.651 -116.6400
6.769645 98.668 -117.0092
6.818700 98.685 -117.3773
6.868111 98.705 -117.7463
6.917881 98.726 -118.1175
6.968010 98.748 -118.4921
7.018504 98.772 -118.8706
7.069362 98.798 -119.2535
7.120590 98.825 -119.6415
7.172189 98.853 -120.0356
7.224161 98.882 -120.4368
7.276511 98.912 -120.8462
7.329239 98.943 -121.2645
7.382350 98.974 -121.6920
7.435845 99.006 -122.1286
7.489729 99.038 -122.5739
7.544002 99.070 -123.0272
7.598669 99.101 -123.4880
7.653732 99.133 -123.9559
7.709194 99.164 -124.4304
7.765058 99.194 -124.9110
7.821327 99.223 -125.3968
7.878004 99.251 -125.8866
7.935091 99.279 -126.3786
7.992592 99.305 -126.8713
8.050510 99.331 -127.3633
8.108847 99.355 -127.8538
8.167607 99.379 -128.3417
8.226793 99.401 -128.8261
8.286408 99.422 -129.3057
8.346454 99.443 -129.7791
8.406936 99.463 -130.2451
8.467856 99.483 -130.7030
8.529218 99.502 -131.1522
8.591024 99.522 -131.5926
8.653278 99.541 -132.0240
8.715983 99.560 -132.4464
8.779143 99.579 -132.8596
8.842760 99.599 -133.2637
8.906839 99.620 -133.6591
8.971381 99.641 -134.0466
9.036392 99.662 -134.4269
9.101873 99.685 -134.8010
9.167829 99.708 -135.1698
9.234263 99.733 -135.5340
9.301178 99.757 -135.8943
9.368578 99.783 -136.2515
9.436467 99.809 -136.6067
9.504847 99.836 -136.9605
9.573723 99.862 -137.3137
9.643099 99.888 -137.6665
9.712976 99.913 -138.0190
9.783361 99.937 -138.3714
9.854255 99.958 -138.7236
9.925663 99.977 -139.0755
9.997588 99.993 -139.4268
10.070035 100.006 -139.7770
10.143007 100.017 -140.1254
10.216507 100.024 -140.4713
10.290540 100.030 -140.8141
10.365109 100.033 -141.1532
10.440219 100.034 -141.4880
10.515873 100.034 -141.8179
10.592076 100.032 -142.1424
10.668830 100.030 -142.4610
10.746141 100.026 -142.7735
10.824012 100.022 -143.0800
10.902447 100.017 -143.3806
10.981451 100.012 -143.6754
11.061027 100.006 -143.9647
11.141180 99.999 -144.2491
11.221913 99.993 -144.5291
11.303232 99.985 -144.8055
11.385140 99.978 -145.0788
11.467641 99.970 -145.3499
11.550741 99.962 -145.6191
11.634442 99.954 -145.8872
11.718750 99.945 -146.1547
11.803669 99.937 -146.4220
11.889203 99.928 -146.6893
11.975357 99.918 -146.9568
12.062136 99.909 -147.2245
12.149543 99.898 -147.4923
12.237583 99.887 -147.7603
12.326262 99.876 -148.0281
12.415583 99.863 -148.2957
12.505552 99.850 -148.5629
12.596172 99.836 -148.8295
12.687449 99.822 -149.0957
12.779387 99.806 -149.3614
12.871992 99.790 -149.6269
12.965268 99.774 -149.8923
13.059220 99.757 -150.1582
13.153852 99.740 -150.4250
13.249170 99.723 -150.6932
13.345179 99.706 -150.9633
13.441884 99.689 -151.2358
13.539289 99.672 -151.5111
13.637401 99.654 -151.7896
13.736223 99.637 -152.0714
13.835761 99.619 -152.3565
13.936021 99.601 -152.6449
14.037007 99.583 -152.9362
14.138725 99.564 -153.2299
14.241180 99.544 -153.5256
14.344377 99.524 -153.8226
14.448323 99.504 -154.1202
14.553021 99.483 -154.4179
14.658478 99.463 -154.7151
14.764700 99.442 -155.0113
14.871691 99.422 -155.3064
14.979457 99.402 -155.6001
15.088005 99.383 -155.8927
15.197339 99.365 -156.1844
15.307465 99.347 -156.4755
15.418389 99.331 -156.7667
15.530117 99.316 -157.0584
15.642655 99.302 -157.3511
15.756008 99.289 -157.6455
15.870182 99.277 -157.9418
15.985184 99.266 -158.2403
16.101019 99.256 -158.5412
16.217694 99.247 -158.8443
16.335214 99.238 -159.1496
16.453586 99.231 -159.4566
16.572815 99.224 -159.7651
16.692909 99.218 -160.0745
16.813872 99.212 -160.3845
16.935713 99.208 -160.6945
17.058436 99.204 -161.0043
17.182048 99.201 -161.3135
17.306556 99.199 -161.6218
17.431967 99.196 -161.9288
17.558286 99.194 -162.2343
17.685521 99.193 -162.5379
17.813677 99.191 -162.8391
17.942762 99.189 -163.1375
18.072783 99.186 -163.4326
18.203746 99.184 -163.7237
18.335658 99.181 -164.0102
18.468526 99.178 -164.2916
18.602356 99.174 -164.5674
18.737156 99.170 -164.8373
18.872934 99.167 -165.1011
19.009695 99.163 -165.3589
19.147447 99.159 -165.6109
19.286197 99.154 -165.8575
19.425953 99.150 -166.0993
19.566721 99.145 -166.3368
19.708510 99.140 -166.5708
19.851326 99.135 -166.8018
19.995177 99.129 -167.0303
20.140070 99.122 -167.2568
20.286013 99.115 -167.4815
20.433014 99.107 -167.7048
20.581080 99.098 -167.9267
20.730219 99.088 -168.1476
20.880439 99.078 -168.3677
21.031747 99.067 -168.5874
21.184152 99.056 -168.8071
21.337661 99.044 -169.0276
21.492282 99.032 -169.2492
21.648024 99.020 -169.4727
21.804895 99.007 -169.6986
21.962902 98.994 -169.9272
22.122054 98.981 -170.1589
22.282360 98.966 -170.3937
22.443827 98.952 -170.6316
22.606464 98.937 -170.8725
22.770280 98.921 -171.1162
22.935283 98.906 -171.3625
23.101481 98.890 -171.6115
23.268884 98.874 -171.8629
23.437500 98.858 -172.1167
23.607338 98.842 -172.3730
23.778406 98.826 -172.6319
23.950714 98.810 -172.8931
24.124271 98.794 -173.1565
24.299086 98.779 -173.4218
24.475167 98.763 -173.6886
24.652524 98.748 -173.9564
24.831166 98.734 -174.2245
25.011103 98.719 -174.4923
25.192344 98.705 -174.7592
25.374898 98.691 -175.0245
25.558775 98.678 -175.2877
25.743984 98.665 -175.5480
25.930536 98.652 -175.8047
26.118439 98.640 -176.0572
26.307704 98.627 -176.3049
26.498341 98.615 -176.5469
26.690359 98.603 -176.7828
26.883768 98.591 -177.0120
27.078579 98.579 -177.2341
27.274801 98.567 -177.4487
27.472446 98.555 -177.6554
27.671522 98.543 -177.8538
27.872042 98.531 -178.0438
28.074014 98.519 -178.2252
28.277450 98.507 -178.3983
28.482360 98.496 -178.5639
28.688755 98.485 -178.7233
28.896645 98.475 -178.8786
29.106042 98.466 -179.0324
29.316957 98.458 -179.1879
29.529400 98.451 -179.3481
29.743382 98.444 -179.5159
29.958915 98.438 -179.6933
30.176009 98.432 -179.8815
30.394677 98.424 179.9196
30.614929 98.416 179.7111
30.836778 98.407 179.4945
31.060234 98.397 179.2719
31.285309 98.385 179.0451
31.512015 98.373 178.8155
31.740364 98.360 178.5840
31.970368 98.346 178.3507
32.202039 98.332 178.1158
32.435388 98.318 177.8789
32.670428 98.304 177.6400
32.907171 98.289 177.3993
33.145630 98.275 177.1572
33.385817 98.261 176.9141
33.627745 98.246 176.6707
33.871425 98.232 176.4276
34.116871 98.218 176.1852
34.364096 98.204 175.9438
34.613113 98.191 175.7037
34.863934 98.177 175.4653
35.116572 98.163 175.2291
35.371041 98.149 174.9956
35.627354 98.134 174.7655
35.885525 98.119 174.5392
36.145566 98.104 174.3172
36.407492 98.089 174.0995
36.671316 98.074 173.8858
36.937051 98.058 173.6757
37.204712 98.042 173.4685
37.474313 98.025 173.2637
37.745867 98.009 173.0610
38.019389 97.991 172.8599
38.294893 97.974 172.6605
38.572394 97.955 172.4627
38.851905 97.937 172.2662
39.133442 97.918 172.0707
39.417019 97.899 171.8760
39.702651 97.879 171.6814
39.990353 97.860 171.4869
40.280140 97.840 171.2921
40.572026 97.820 171.0972
40.866028 97.800 170.9021
41.162160 97.779 170.7070
41.460438 97.759 170.5121
41.760877 97.738 170.3179
42.063494 97.717 170.1254
42.368303 97.696 169.9355
42.675322 97.675 169.7494
42.984565 97.654 169.5671
43.296048 97.634 169.3880
43.609789 97.614 169.2106
43.925804 97.593 169.0338
44.244108 97.573 168.8571
44.564719 97.552 168.6823
44.887654 97.531 168.5125
45.212928 97.509 168.3511
45.540560 97.488 168.2005
45.870565 97.467 168.0600
46.202962 97.448 167.9259
46.537768 97.431 167.7923
46.875000 97.416 167.6534
47.214676 97.403 167.5050
47.556813 97.390 167.3458
47.901429 97.377 167.1768
48.248542 97.363 167.0002
48.598171 97.349 166.8180
48.950334 97.335 166.6318
49.305048 97.319 166.4430
49.662333 97.302 166.2534
50.022206 97.285 166.0652
50.384688 97.266 165.8806
50.749796 97.248 165.7007
51.117550 97.228 165.5252
51.487969 97.209 165.3525
51.861072 97.190 165.1807
52.236879 97.170 165.0086
52.615409 97.150 164.8364
52.996681 97.130 164.6652
53.380717 97.109 164.4962
53.767536 97.087 164.3297
54.157158 97.066 164.1653
54.549603 97.045 164.0018
54.944892 97.024 163.8382
55.343045 97.004 163.6734
55.744084 96.984 163.5068
56.148028 96.964 163.3383
56.554900 96.944 163.1673
56.964720 96.924 162.9938
57.377510 96.904 162.8176
57.793291 96.884 162.6393
58.212085 96.864 162.4597
58.633914 96.843 162.2801
59.058799 96.821 162.1021
59.486764 96.799 161.9266
59.917829 96.776 161.7547
60.352019 96.752 161.5864
60.789354 96.728 161.4216
61.229859 96.703 161.2600
61.673556 96.678 161.1012
62.120468 96.653 160.9444
62.570618 96.627 160.7892
63.024031 96.601 160.6353
63.480729 96.575 160.4828
63.940736 96.549 160.3321
64.404077 96.522 160.1835
64.870776 96.496 160.0372
65.340856 96.469 159.8933
65.814343 96.443 159.7516
66.291261 96.417 159.6123
66.771635 96.390 159.4755
67.255489 96.364 159.3413
67.742850 96.338 159.2097
68.233743 96.312 159.0802
68.728193 96.286 158.9518
69.226226 96.261 158.8235
69.727867 96.235 158.6946
70.233144 96.208 158.5652
70.742083 96.181 158.4358
71.254709 96.154 158.3068
71.771050 96.127 158.1785
72.291132 96.100 158.0506
72.814984 96.073 157.9228
73.342631 96.047 157.7947
73.874102 96.020 157.6666
74.409424 95.994 157.5389
74.948626 95.967 157.4124
75.491734 95.941 157.2875
76.038779 95.916 157.1644
76.589787 95.890 157.0426
77.144788 95.866 156.9211
77.703811 95.841 156.7984
78.266885 95.817 156.6732
78.834039 95.793 156.5439
79.405303 95.768 156.4101
79.980706 95.743 156.2713
80.560280 95.718 156.1273
81.144053 95.692 155.9776
81.732056 95.665 155.8223
82.324320 95.636 155.6631
82.920876 95.606 155.5025
83.521755 95.574 155.3438
84.126988 95.540 155.1898
84.736607 95.506 155.0430
85.350643 95.470 154.9048
85.969129 95.434 154.7762
86.592097 95.397 154.6570
87.219579 95.361 154.5468
87.851608 95.324 154.4447
88.488217 95.288 154.3499
89.129439 95.252 154.2614
89.775308 95.216 154.1780
90.425856 95.181 154.0988
91.081119 95.147 154.0228
91.741131 95.113 153.9489
92.405925 95.079 153.8762
93.075536 95.045 153.8044
93.750000 95.011 153.7335
94.429351 94.978 153.6641
95.113625 94.943 153.5974
95.802858 94.909 153.5346
96.497085 94.875 153.4760
97.196342 94.841 153.4216
97.900667 94.808 153.3709
98.610096 94.775 153.3237
99.324665 94.743 153.2796
100.044413 94.711 153.2376
100.769376 94.680 153.1965
101.499592 94.649 153.1550
102.235100 94.619 153.1125
102.975938 94.590 153.0686
103.722144 94.560 153.0233
104.473757 94.531 152.9764
105.230817 94.501 152.9279
105.993363 94.472 152.8769
106.761435 94.442 152.8231
107.535072 94.411 152.7666
108.314315 94.380 152.7076
109.099206 94.348 152.6465
109.889783 94.315 152.5832
110.686090 94.281 152.5173
111.488167 94.247 152.4485
112.296056 94.212 152.3773
113.109800 94.175 152.3047
113.929440 94.137 152.2324
114.755020 94.098 152.1639
115.586582 94.056 152.1052
116.424170 94.013 152.0629
117.267827 93.969 152.0414
118.117598 93.925 152.0416
118.973527 93.883 152.0594
119.835658 93.844 152.0867
120.704037 93.807 152.1146
121.578708 93.772 152.1380
122.459718 93.739 152.1561
123.347111 93.706 152.1707
124.240935 93.674 152.1837
125.141236 93.642 152.1959
126.048061 93.611 152.2075
126.961458 93.579 152.2181
127.881473 93.548 152.2274
128.808154 93.516 152.2350
129.741551 93.484 152.2405
130.681712 93.452 152.2441
131.628686 93.420 152.2459
132.582521 93.388 152.2466
133.543269 93.356 152.2468
134.510979 93.323 152.2473
135.485701 93.289 152.2487
136.467486 93.256 152.2515
137.456386 93.222 152.2562
138.452451 93.187 152.2629
139.455735 93.152 152.2715
140.466288 93.117 152.2821
141.484165 93.082 152.2949
142.509418 93.046 152.3096
143.542100 93.011 152.3261
144.582265 92.975 152.3447
145.629968 92.939 152.3661
146.685262 92.902 152.3911
147.748204 92.866 152.4189
148.818849 92.829 152.4493
149.897251 92.793 152.4825
150.983469 92.756 152.5205
152.077557 92.720 152.5648
153.179574 92.684 152.6164
154.289576 92.648 152.6759
155.407622 92.611 152.7455
156.533770 92.575 152.8272
157.668078 92.538 152.9181
158.810606 92.503 153.0101
159.961413 92.469 153.0953
161.120559 92.435 153.1692
162.288105 92.400 153.2319
163.464112 92.365 153.2861
164.648640 92.330 153.3358
165.841752 92.293 153.3857
167.043510 92.256 153.4407
168.253976 92.217 153.5046
169.473213 92.178 153.5797
170.701286 92.139 153.6660
171.938258 92.101 153.7618
173.184194 92.064 153.8648
174.439158 92.028 153.9725
175.703216 91.994 154.0836
176.976434 91.961 154.1974
178.258878 91.930 154.3135
179.550615 91.899 154.4309
180.851713 91.870 154.5468
182.162239 91.840 154.6560
183.482262 91.811 154.7545
184.811850 91.781 154.8426
186.151073 91.750 154.9232
187.500000 91.719 154.9993
188.858702 91.689 155.0727
190.227250 91.659 155.1445
191.605715 91.629 155.2157
192.994169 91.599 155.2871
194.392685 91.569 155.3594
195.801334 91.538 155.4338
197.220191 91.507 155.5121
198.649330 91.476 155.5964
200.088825 91.446 155.6882
201.538751 91.416 155.7876
202.999184 91.386 155.8932
204.470200 91.358 156.0026
205.951875 91.330 156.1126
207.444287 91.301 156.2198
208.947514 91.272 156.3213
210.461634 91.241 156.4163
211.986726 91.209 156.5074
213.522869 91.175 156.6001
215.070144 91.140 156.7010
216.628631 91.103 156.8159
218.198411 91.067 156.9467
219.779567 91.031 157.0909
221.372180 90.997 157.2424
222.976334 90.965 157.3947
224.592112 90.933 157.5439
226.219600 90.903 157.6887
227.858880 90.873 157.8302
229.510039 90.842 157.9696
231.173164 90.812 158.1080
232.848340 90.782 158.2457
234.535655 90.751 158.3828
236.235197 90.721 158.5188
237.947054 90.690 158.6536
239.671317 90.658 158.7872
241.408074 90.625 158.9209
243.157416 90.592 159.0571
244.919435 90.558 159.1991
246.694223 90.523 159.3503
248.481871 90.487 159.5143
250.282473 90.451 159.6938
252.096123 90.416 159.8905
253.922915 90.383 160.1030
255.762945 90.353 160.3251
257.616309 90.326 160.5470
259.483103 90.302 160.7589
261.363424 90.279 160.9558
263.257372 90.256 161.1392
265.165043 90.232 161.3152
267.086538 90.207 161.4905
269.021957 90.181 161.6708
270.971401 90.155 161.8591
272.934972 90.129 162.0560
274.912771 90.105 162.2603
276.904902 90.081 162.4694
278.911469 90.060 162.6811
280.932577 90.040 162.8936
282.968330 90.022 163.1042
285.018835 90.006 163.3079
287.084199 89.991 163.4978
289.164530 89.977 163.6678
291.259935 89.962 163.8170
293.370525 89.945 163.9510
295.496408 89.925 164.0802
297.637697 89.902 164.2142
299.794503 89.877 164.3593
301.966937 89.850 164.5170
304.155114 89.824 164.6860
306.359147 89.797 164.8627
308.579152 89.771 165.0432
310.815244 89.745 165.2241
313.067539 89.719 165.4046
315.336156 89.692 165.5862
317.621211 89.665 165.7731
319.922826 89.637 165.9698
322.241118 89.609 166.1789
324.576210 89.582 166.3994
326.928223 89.557 166.6284
329.297280 89.532 166.8617
331.683504 89.509 167.0951
334.087019 89.487 167.3254
336.507952 89.465 167.5511
338.946427 89.444 167.7722
341.402572 89.422 167.9905
343.876516 89.399 168.2090
346.368387 89.376 168.4303
348.878315 89.353 168.6554
351.406431 89.329 168.8840
353.952867 89.306 169.1155
356.517756 89.283 169.3492
359.101230 89.260 169.5850
361.703426 89.237 169.8229
364.324478 89.215 170.0630
366.964523 89.193 170.3055
369.623699 89.170 170.5504
372.302145 89.148 170.7976
375.000000 89.127 171.0471
377.717405 89.105 171.2988
380.454501 89.085 171.5529
383.211431 89.064 171.8098
385.988339 89.044 172.0693
388.785369 89.025 172.3312
391.602668 89.006 172.5952
394.440383 88.987 172.8611
397.298660 88.969 173.1287
400.177650 88.951 173.3968
403.077502 88.934 173.6641
405.998368 88.918 173.9289
408.940400 88.901 174.1913
411.903750 88.885 174.4534
414.888575 88.868 174.7189
417.895028 88.850 174.9919
420.923268 88.833 175.2746
423.973452 88.816 175.5672
427.045738 88.801 175.8676
430.140287 88.787 176.1714
433.257261 88.775 176.4738
436.396822 88.765 176.7715
439.559133 88.756 177.0639
442.744360 88.748 177.3508
445.952668 88.741 177.6306
449.184225 88.736 177.8994
452.439199 88.730 178.1522
455.717760 88.725 178.3858
459.020079 88.716 178.6035
462.346327 88.705 178.8156
465.696680 88.691 179.0339
469.071310 88.675 179.2663
472.470394 88.658 179.5147
475.894109 88.641 179.7766
479.342634 88.625 -179.9537
482.816148 88.609 -179.6823
486.314833 88.593 -179.4118
489.838871 88.576 -179.1378
493.388445 88.559 -178.8528
496.963741 88.542 -178.5526
500.564945 88.526 -178.2403
504.192245 88.513 -177.9233
507.845830 88.501 -177.6084
511.525890 88.490 -177.2990
515.232618 88.479 -176.9944
518.966206 88.467 -176.6911
522.726849 88.455 -176.3841
526.514743 88.442 -176.0687
530.330086 88.430 -175.7426
534.173076 88.418 -175.4085
538.043915 88.408 -175.0712
541.942803 88.399 -174.7335
545.869944 88.391 -174.3946
549.825542 88.384 -174.0537
553.809805 88.377 -173.7125
557.822939 88.372 -173.3742
561.865154 88.367 -173.0413
565.936660 88.362 -172.7135
570.037671 88.357 -172.3876
574.168399 88.351 -172.0590
578.329060 88.345 -171.7251
582.519870 88.339 -171.3860
586.741049 88.333 -171.0426
590.992817 88.326 -170.6937
595.275394 88.320 -170.3374
599.589005 88.315 -169.9742
603.933874 88.311 -169.6074
608.310228 88.307 -169.2402
612.718295 88.304 -168.8733
617.158304 88.301 -168.5043
621.630488 88.298 -168.1276
626.135079 88.295 -167.7370
630.672311 88.292 -167.3306
635.242423 88.292 -166.9131
639.845651 88.294 -166.4914
644.482237 88.299 -166.0681
649.152421 88.305 -165.6425
653.856447 88.314 -165.2156
658.594560 88.327 -164.7935
663.367008 88.342 -164.3862
668.174039 88.358 -164.0021
673.015903 88.374 -163.6415
677.892854 88.388 -163.2971
682.805145 88.400 -162.9603
687.753032 88.410 -162.6236
692.736774 88.418 -162.2810
697.756631 88.426 -161.9273
702.812863 88.433 -161.5605
707.905735 88.441 -161.1825
713.035511 88.450 -160.7978
718.202461 88.460 -160.4101
723.406852 88.471 -160.0210
728.648956 88.482 -159.6303
733.929047 88.493 -159.2376
739.247399 88.505 -158.8422
744.604290 88.517 -158.4430
750.000000 88.530 -158.0385
755.434809 88.544 -157.6278
760.909001 88.559 -157.2113
766.422861 88.575 -156.7905
771.976677 88.592 -156.3674
777.570739 88.610 -155.9434
783.205337 88.629 -155.5187
788.880766 88.649 -155.0914
794.597321 88.670 -154.6581
800.355301 88.693 -154.2165
806.155005 88.719 -153.7681
811.996736 88.748 -153.3191
817.880799 88.781 -152.8782
823.807501 88.817 -152.4550
829.777150 88.854 -152.0579
835.790057 88.892 -151.6888
841.846536 88.928 -151.3406
847.946903 88.962 -151.0019
854.091476 88.994 -150.6637
860.280575 89.024 -150.3217
866.514523 89.054 -149.9732
872.793644 89.083 -149.6158
879.118267 89.113 -149.2506
885.488720 89.144 -148.8820
891.905336 89.176 -148.5136
898.368450 89.209 -148.1454
904.878398 89.243 -147.7749
911.435520 89.278 -147.4007
918.040157 89.314 -147.0241
924.692655 89.353 -146.6479
931.393359 89.393 -146.2759
938.142619 89.435 -145.9118
944.940787 89.479 -145.5576
951.788218 89.523 -145.2130
958.685268 89.567 -144.8757
965.632296 89.612 -144.5433
972.629666 89.658 -144.2130
979.677741 89.704 -143.8839
986.776890 89.751 -143.5567
993.927482 89.799 -143.2307
1001.129891 89.847 -142.9027
1008.384491 89.898 -142.5695
1015.691660 89.951 -142.2321
1023.051781 90.007 -141.8953
1030.465236 90.067 -141.5667
1037.932411 90.132 -141.2579
1045.453698 90.199 -140.9813
1053.029486 90.267 -140.7425
1060.660172 90.334 -140.5383
1068.346153 90.399 -140.3605
1076.087829 90.462 -140.2004
1083.885605 90.523 -140.0518
1091.739887 90.583 -139.9128
1099.651084 90.641 -139.7834
1107.619609 90.698 -139.6633
1115.645878 90.753 -139.5511
1123.730308 90.807 -139.4450
1131.873321 90.858 -139.3433
1140.075341 90.908 -139.2437
1148.336797 90.956 -139.1442
1156.658119 91.003 -139.0426
1165.039741 91.047 -138.9356
1173.482099 91.091 -138.8192
1181.985634 91.134 -138.6907
1190.550789 91.179 -138.5522
1199.178011 91.226 -138.4110
1207.867749 91.273 -138.2755
1216.620457 91.320 -138.1492
1225.436590 91.366 -138.0271
1234.316609 91.410 -137.9013
1243.260976 91.452 -137.7643
1252.270157 91.492 -137.6113
1261.344623 91.533 -137.4413
1270.484846 91.574 -137.2567
1279.691303 91.617 -137.0590
1288.964474 91.662 -136.8497
1298.304842 91.708 -136.6315
1307.712894 91.758 -136.4089
1317.189120 91.810 -136.1871
1326.734016 91.864 -135.9700
1336.348077 91.921 -135.7587
1346.031806 91.981 -135.5524
1355.785708 92.043 -135.3488
1365.610290 92.108 -135.1462
1375.506065 92.175 -134.9412
1385.473549 92.246 -134.7303
1395.513261 92.321 -134.5128
1405.625726 92.401 -134.2943
1415.811469 92.485 -134.0865
1426.071023 92.574 -133.9034
1436.404921 92.665 -133.7542
1446.813703 92.756 -133.6391
1457.297912 92.846 -133.5525
1467.858093 92.934 -133.4874
1478.494798 93.020 -133.4385
1489.208581 93.104 -133.4013
1500.000000 93.184 -133.3715
1510.869618 93.261 -133.3455
1521.818002 93.333 -133.3199
1532.845723 93.401 -133.2925
1543.953355 93.465 -133.2612
1555.141477 93.528 -133.2258
1566.410674 93.592 -133.1905
1577.761531 93.657 -133.1658
1589.194642 93.724 -133.1658
1600.710601 93.792 -133.1998
1612.310010 93.859 -133.2691
1623.993473 93.925 -133.3696
1635.761599 93.989 -133.4946
1647.615002 94.050 -133.6387
1659.554299 94.109 -133.7974
1671.580114 94.167 -133.9666
1683.693072 94.223 -134.1446
1695.893807 94.278 -134.3315
1708.182952 94.332 -134.5279
1720.561150 94.383 -134.7326
1733.029045 94.431 -134.9417
1745.587288 94.477 -135.1501
1758.236533 94.519 -135.3515
1770.977440 94.561 -135.5410
1783.810673 94.604 -135.7204
1796.736900 94.649 -135.8993
1809.756796 94.698 -136.0926
1822.871040 94.748 -136.3122
1836.080315 94.799 -136.5629
1849.385310 94.851 -136.8450
1862.786718 94.901 -137.1565
1876.285239 94.951 -137.4943
1889.881575 95.001 -137.8550
1903.576436 95.051 -138.2346
1917.370535 95.101 -138.6301
1931.264593 95.154 -139.0396
1945.259332 95.210 -139.4648
1959.355483 95.267 -139.9133
1973.553781 95.324 -140.3954
1987.854965 95.379 -140.9169
2002.259781 95.428 -141.4745
2016.768981 95.469 -142.0569
2031.383320 95.500 -142.6480
2046.103561 95.522 -143.2286
2060.930471 95.534 -143.7789
2075.864823 95.538 -144.2811
2090.907395 95.536 -144.7198
2106.058972 95.530 -145.0828
2121.320344 95.524 -145.3621
2136.692305 95.520 -145.5568
2152.175658 95.523 -145.6753
2167.771210 95.536 -145.7393
2183.479774 95.561 -145.7831
2199.302169 95.598 -145.8452
2215.239219 95.645 -145.9583
2231.291755 95.697 -146.1430
2247.460615 95.752 -146.4075
2263.746641 95.806 -146.7490
2280.150683 95.856 -147.1555
2296.673595 95.901 -147.6099
2313.316238 95.941 -148.0944
2330.079481 95.976 -148.5965
2346.964198 96.008 -149.1130
2363.971268 96.037 -149.6478
2381.101578 96.064 -150.2050
2398.356022 96.087 -150.7861
2415.735498 96.107 -151.3903
2433.240913 96.122 -152.0162
2450.873180 96.132 -152.6632
2468.633217 96.137 -153.3320
2486.521951 96.137 -154.0218
2504.540314 96.130 -154.7275
2522.689246 96.115 -155.4382
2540.969692 96.092 -156.1409
2559.382606 96.064 -156.8267
2577.928947 96.031 -157.4937
2596.609683 95.993 -158.1435
2615.425787 95.952 -158.7770
2634.378241 95.906 -159.3930
2653.468031 95.855 -159.9870
2672.696154 95.800 -160.5520
2692.063613 95.742 -161.0802
2711.571415 95.682 -161.5671
2731.220579 95.623 -162.0166
2751.012130 95.565 -162.4396
2770.947098 95.509 -162.8481
2791.026522 95.454 -163.2513
2811.251451 95.399 -163.6546
2831.622938 95.342 -164.0605
2852.142045 95.283 -164.4706
2872.809842 95.220 -164.8834
2893.627406 95.152 -165.2928
2914.595823 95.078 -165.6872
2935.716186 94.997 -166.0537
2956.989596 94.911 -166.3846
2978.417161 94.822 -166.6772
3000.000000 94.730 -166.9312
3021.739237 94.636 -167.1457
3043.636005 94.540 -167.3189
3065.691446 94.443 -167.4482
3087.906710 94.348 -167.5341
3110.282955 94.257 -167.5846
3132.821347 94.170 -167.6166
3155.523062 94.086 -167.6496
3178.389283 94.004 -167.6973
3201.421202 93.920 -167.7632
3224.620020 93.832 -167.8400
3247.986946 93.737 -167.9118
3271.523198 93.634 -167.9549
3295.230004 93.522 -167.9400
3319.108599 93.404 -167.8386
3343.160228 93.284 -167.6331
3367.386145 93.166 -167.3199
3391.787613 93.054 -166.9056
3416.365904 92.951 -166.4010
3441.122300 92.858 -165.8144
3466.058091 92.777 -165.1506
3491.174576 92.711 -164.4162
3516.473066 92.661 -163.6267
3541.954880 92.630 -162.8074
3567.621345 92.618 -161.9891
3593.473800 92.624 -161.2020
3619.513592 92.645 -160.4725
3645.742080 92.679 -159.8202
3672.160630 92.722 -159.2526
3698.770620 92.770 -158.7660
3725.573436 92.820 -158.3511
3752.570477 92.871 -157.9998
3779.763150 92.923 -157.7068
3807.152872 92.973 -157.4677
3834.741071 93.019 -157.2762
3862.529185 93.063 -157.1238
3890.518664 93.104 -157.0039
3918.710966 93.144 -156.9156
3947.107561 93.182 -156.8618
3975.709929 93.218 -156.8453
4004.519563 93.252 -156.8671
4033.537962 93.282 -156.9243
4062.766641 93.307 -157.0084
4092.207123 93.326 -157.1054
4121.860942 93.340 -157.2029
4151.729646 93.351 -157.2954
4181.814790 93.359 -157.3837
4212.117944 93.366 -157.4698
4242.640687 93.371 -157.5525
4273.384610 93.375 -157.6296
4304.351317 93.378 -157.7023
4335.542421 93.381 -157.7777
4366.959549 93.385 -157.8665
4398.604338 93.389 -157.9812
4430.478438 93.392 -158.1325
4462.583511 93.392 -158.3239
4494.921231 93.388 -158.5518
4527.493283 93.378 -158.8103
4560.301365 93.362 -159.0951
4593.347189 93.338 -159.4001
4626.632476 93.305 -159.7127
4660.158962 93.263 -160.0135
4693.928395 93.211 -160.2816
4727.942535 93.153 -160.4997
4762.203156 93.090 -160.6566
4796.712043 93.025 -160.7480
4831.470996 92.962 -160.7745
4866.481826 92.904 -160.7390
4901.746360 92.852 -160.6523
4937.266434 92.811 -160.5385
4973.043902 92.780 -160.4330
5009.080628 92.757 -160.3686
5045.378492 92.738 -160.3640
5081.939384 92.720 -160.4218
5118.765212 92.699 -160.5345
5155.857894 92.673 -160.6916
5193.219366 92.643 -160.8858
5230.851574 92.606 -161.1117
5268.756481 92.561 -161.3626
5306.936062 92.509 -161.6310
5345.392309 92.447 -161.9105
5384.127225 92.376 -162.1935
5423.142830 92.292 -162.4657
5462.441159 92.195 -162.7063
5502.024259 92.086 -162.8925
5541.894195 91.968 -163.0048
5582.053045 91.842 -163.0321
5622.502902 91.713 -162.9700
5663.245876 91.582 -162.8176
5704.284090 91.451 -162.5766
5745.619684 91.324 -162.2533
5787.254813 91.201 -161.8571
5829.191647 91.083 -161.3959
5871.432373 90.972 -160.8761
5913.979192 90.868 -160.3052
5956.834323 90.773 -159.6948
6000.000000 90.687 -159.0587
6043.478473 90.608 -158.4064
6087.272010 90.537 -157.7400
6131.382892 90.472 -157.0583
6175.813420 90.414 -156.3623
6220.565910 90.363 -155.6563
6265.642695 90.318 -154.9457
6311.046124 90.280 -154.2349
6356.778566 90.247 -153.5270
6402.842404 90.220 -152.8232
6449.240040 90.196 -152.1214
6495.973891 90.177 -151.4173
6543.046396 90.162 -150.7072
6590.460007 90.151 -149.9857
6638.217197 90.144 -149.2434
6686.320456 90.142 -148.4663
6734.772290 90.148 -147.6419
6783.575226 90.165 -146.7654
6832.731809 90.199 -145.8439
6882.244600 90.252 -144.8982
6932.116181 90.326 -143.9630
6982.349153 90.424 -143.0801
7032.946133 90.543 -142.2896
7083.909760 90.682 -141.6232
7135.242690 90.838 -141.1053
7186.947600 91.007 -140.7554
7239.027185 91.188 -140.5909
7291.484160 91.378 -140.6299
7344.321260 91.571 -140.8927
7397.541239 91.763 -141.3970
7451.146872 91.947 -142.1530
7505.140954 92.116 -143.1599
7559.526299 92.263 -144.4075
7614.305743 92.381 -145.8754
7669.482141 92.464 -147.5339
7725.058371 92.505 -149.3453
7781.037328 92.498 -151.2610
7837.421932 92.437 -153.2155
7894.215122 92.316 -155.1226
7951.419859 92.135 -156.8774
8009.039125 91.896 -158.3609
8067.075924 91.607 -159.4479
8125.533282 91.282 -160.0214
8184.414245 90.942 -159.9874
8243.721885 90.617 -159.2901
8303.459292 90.338 -157.9336
8363.629581 90.143 -156.0084
8424.235888 90.062 -153.7089
8485.281374 90.116 -151.3273
8546.769221 90.307 -149.2089
8608.702634 90.612 -147.6760
8671.084842 90.993 -146.9559
8733.919097 91.406 -147.1510
8797.208675 91.807 -148.2480
8860.956876 92.161 -150.1485
8925.167022 92.442 -152.7031
8989.842461 92.633 -155.7369
9054.986566 92.722 -159.0649
9120.602731 92.710 -162.5049
9186.694378 92.598 -165.8874
9253.264952 92.397 -169.0662
9320.317925 92.120 -171.9277
9387.856790 91.785 -174.3972
9455.885071 91.407 -176.4366
9524.406312 91.003 -178.0375
9593.424086 90.587 -179.2123
9662.941992 90.172 -179.9866
9732.963653 89.768 179.6017
9803.492719 89.385 179.5009
9874.532869 89.029 179.6492
9946.087805 88.701 179.9828
10018.161257 88.401 -179.5516
10090.756983 88.125 -178.9897
10163.878768 87.869 -178.3518
10237.530423 87.630 -177.6470
10311.715789 87.404 -176.8755
10386.438732 87.190 -176.0273
10461.703149 86.987 -175.0812
10537.512962 86.799 -174.0145
10613.872125 86.632 -172.8192
10690.784618 86.495 -171.5166
10768.254450 86.394 -170.1623
10846.285661 86.334 -168.8385
10924.882318 86.313 -167.6394
11004.048518 86.322 -166.6509
11083.788390 86.345 -165.9226
11164.106090 86.364 -165.4420
11245.005805 86.363 -165.1242
11326.491752 86.333 -164.8359
11408.568180 86.281 -164.4490
11491.239368 86.221 -163.8981
11574.509626 86.169 -163.2074
11658.383294 86.137 -162.4694
11742.864745 86.126 -161.7951
11827.958384 86.131 -161.2693
11913.668646 86.141 -160.9301
12000.000000 86.144 -160.7694
12086.956947 86.133 -160.7440
12174.544019 86.101 -160.7914
12262.765784 86.047 -160.8472
12351.626840 85.973 -160.8574
12441.131819 85.881 -160.7790
12531.285389 85.775 -160.5735
12622.092249 85.659 -160.2027
12713.557132 85.540 -159.6320
12805.684808 85.426 -158.8372
12898.480079 85.327 -157.8093
12991.947783 85.255 -156.5598
13086.092792 85.220 -155.1267
13180.920015 85.230 -153.5753
13276.434395 85.290 -151.9858
13372.640911 85.400 -150.4359
13469.544580 85.559 -148.9896
13567.150452 85.763 -147.7007
13665.463617 86.008 -146.6174
13764.489200 86.291 -145.7834
13864.232362 86.606 -145.2374
13964.698305 86.950 -145.0199
14065.892266 87.316 -145.1751
14167.819519 87.696 -145.7452
14270.485380 88.078 -146.7608
14373.895200 88.451 -148.2372
14478.054370 88.799 -150.1716
14582.968320 89.110 -152.5365
14688.642520 89.368 -155.2752
14795.082478 89.565 -158.3060
14902.293745 89.691 -161.5296
15010.281908 89.746 -164.8348
15119.052599 89.731 -168.1055
15228.611486 89.653 -171.2321
15338.964283 89.525 -174.1210
15450.116741 89.360 -176.6994
15562.074656 89.174 -178.9170
15674.843864 88.984 179.2509
15788.430244 88.808 177.8029
15902.839718 88.660 176.7139
16018.078250 88.557 175.9380
16134.151848 88.513 175.4083
16251.066563 88.541 175.0355
16368.828491 88.655 174.7098
16487.443769 88.861 174.3004
16606.918584 89.164 173.6544
16727.259161 89.560 172.6034
16848.471777 90.038 170.9754
16970.562748 90.575 168.6064
17093.538442 91.141 165.3579
17217.405268 91.695 161.1385
17342.169684 92.193 155.9218
17467.838194 92.588 149.7618
17594.417350 92.837 142.8058
17721.913751 92.906 135.2961
17850.334044 92.771 127.5475
17979.684923 92.429 119.9036
18109.973131 91.892 112.6845
18241.205462 91.181 106.1416
18373.388756 90.331 100.4387
18506.529905 89.374 95.6569
18640.635849 88.344 91.8109
18775.713581 87.271 88.8699
18911.770141 86.178 86.7813
19048.812624 85.083 85.4912
19186.848172 84.002 84.9522
19325.883983 82.951 85.1170
19465.927305 81.955 85.9129
19606.985439 81.050 87.1992
19749.065738 80.292 88.7262
19892.175609 79.741 90.1252
20036.322514 79.451 90.9761
