* Measurement data measured by REW V5.31.3
* Source: EXCL: Microphone (USB Sound Device        ), no input selected, R, volume: 0.390
* Format: 256k Log Swept Sine, 1 sweep at -15.0 dBFS with no timing reference
* Dated: May 3, 2025 11:44:30 PM
* REW Settings:
*  C-weighting compensation: Off
*  Target level: 75.0 dB
* Note: Astrotech G100 L
* Measurement: L Astrotech G100
* Smoothing: 1/12 octave
* Frequency Step: 96 ppo
* Start Frequency: 0.36621094 Hz
*
* Freq(Hz) SPL(dB) Phase(degrees)
0.366211 94.784 156.3833
0.368865 94.778 156.3587
0.371538 94.770 156.3220
0.374230 94.759 156.2759
0.376942 94.747 156.2227
0.379673 94.734 156.1642
0.382424 94.720 156.1015
0.385196 94.706 156.0355
0.387987 94.692 155.9664
0.390798 94.677 155.8944
0.393630 94.663 155.8197
0.396483 94.648 155.7424
0.399356 94.633 155.6623
0.402250 94.618 155.5796
0.405165 94.603 155.4941
0.408101 94.588 155.4060
0.411058 94.572 155.3150
0.414037 94.557 155.2213
0.417037 94.541 155.1248
0.420059 94.526 155.0254
0.423103 94.510 154.9232
0.426169 94.494 154.8181
0.429257 94.478 154.7101
0.432368 94.462 154.5991
0.435501 94.446 154.4851
0.438656 94.430 154.3682
0.441835 94.413 154.2483
0.445037 94.397 154.1253
0.448262 94.380 153.9993
0.451510 94.363 153.8701
0.454782 94.346 153.7379
0.458077 94.329 153.6026
0.461397 94.312 153.4641
0.464740 94.295 153.3224
0.468108 94.277 153.1775
0.471500 94.260 153.0294
0.474917 94.242 152.8782
0.478358 94.224 152.7237
0.481825 94.206 152.5659
0.485316 94.188 152.4049
0.488833 94.170 152.2406
0.492375 94.152 152.0730
0.495943 94.133 151.9021
0.499537 94.115 151.7279
0.503157 94.096 151.5504
0.506803 94.077 151.3695
0.510475 94.058 151.1854
0.514175 94.039 150.9980
0.517900 94.020 150.8072
0.521653 94.000 150.6131
0.525434 93.981 150.4157
0.529241 93.961 150.2150
0.533076 93.941 150.0110
0.536939 93.921 149.8038
0.540830 93.901 149.5933
0.544749 93.881 149.3795
0.548696 93.860 149.1626
0.552673 93.840 148.9424
0.556677 93.819 148.7191
0.560711 93.798 148.4926
0.564774 93.777 148.2631
0.568867 93.756 148.0305
0.572989 93.735 147.7948
0.577141 93.713 147.5563
0.581324 93.692 147.3148
0.585536 93.670 147.0704
0.589779 93.648 146.8233
0.594053 93.626 146.5734
0.598358 93.604 146.3209
0.602694 93.581 146.0658
0.607061 93.558 145.8082
0.611460 93.536 145.5482
0.615891 93.513 145.2859
0.620354 93.490 145.0213
0.624849 93.466 144.7547
0.629377 93.443 144.4861
0.633938 93.419 144.2156
0.638532 93.396 143.9434
0.643159 93.372 143.6695
0.647819 93.348 143.3942
0.652514 93.323 143.1176
0.657242 93.299 142.8399
0.662005 93.274 142.5612
0.666802 93.249 142.2817
0.671634 93.224 142.0016
0.676501 93.199 141.7211
0.681403 93.174 141.4405
0.686341 93.148 141.1598
0.691314 93.123 140.8794
0.696324 93.097 140.5994
0.701370 93.070 140.3201
0.706452 93.043 140.0415
0.711571 93.016 139.7639
0.716728 92.988 139.4871
0.721921 92.959 139.2110
0.727153 92.928 138.9349
0.732422 92.896 138.6581
0.737729 92.861 138.3796
0.743075 92.824 138.0982
0.748460 92.786 137.8130
0.753883 92.746 137.5231
0.759346 92.705 137.2280
0.764849 92.664 136.9274
0.770391 92.622 136.6210
0.775974 92.579 136.3087
0.781597 92.536 135.9902
0.787261 92.492 135.6656
0.792966 92.447 135.3348
0.798712 92.402 134.9976
0.804500 92.357 134.6541
0.810329 92.310 134.3041
0.816201 92.264 133.9476
0.822116 92.216 133.5846
0.828073 92.168 133.2151
0.834074 92.119 132.8389
0.840118 92.069 132.4561
0.846206 92.019 132.0667
0.852338 91.968 131.6707
0.858514 91.915 131.2680
0.864735 91.862 130.8587
0.871001 91.808 130.4428
0.877313 91.753 130.0203
0.883670 91.698 129.5913
0.890074 91.641 129.1559
0.896524 91.583 128.7140
0.903020 91.523 128.2658
0.909564 91.463 127.8115
0.916155 91.402 127.3511
0.922794 91.339 126.8847
0.929481 91.275 126.4127
0.936216 91.209 125.9350
0.943000 91.142 125.4521
0.949834 91.074 124.9640
0.956717 91.004 124.4712
0.963649 90.933 123.9738
0.970632 90.860 123.4722
0.977666 90.785 122.9668
0.984750 90.709 122.4580
0.991886 90.630 121.9463
0.999074 90.550 121.4320
1.006314 90.468 120.9158
1.013606 90.384 120.3983
1.020951 90.298 119.8799
1.028349 90.210 119.3615
1.035801 90.119 118.8438
1.043307 90.027 118.3274
1.050867 89.932 117.8132
1.058482 89.834 117.3020
1.066152 89.734 116.7947
1.073878 89.632 116.2918
1.081660 89.528 115.7941
1.089498 89.422 115.3018
1.097393 89.315 114.8149
1.105345 89.207 114.3329
1.113355 89.098 113.8551
1.121423 88.990 113.3809
1.129549 88.882 112.9094
1.137734 88.775 112.4400
1.145979 88.668 111.9721
1.154283 88.562 111.5053
1.162647 88.456 111.0392
1.171072 88.350 110.5732
1.179558 88.243 110.1070
1.188106 88.136 109.6401
1.196715 88.027 109.1721
1.205387 87.917 108.7027
1.214122 87.805 108.2312
1.222920 87.691 107.7573
1.231782 87.574 107.2804
1.240708 87.454 106.8000
1.249699 87.330 106.3157
1.258754 87.202 105.8267
1.267876 87.070 105.3326
1.277063 86.932 104.8327
1.286318 86.788 104.3264
1.295639 86.638 103.8131
1.305027 86.481 103.2920
1.314484 86.317 102.7625
1.324009 86.145 102.2238
1.333604 85.964 101.6751
1.343268 85.774 101.1159
1.353002 85.574 100.5452
1.362806 85.362 99.9624
1.372681 85.140 99.3666
1.382628 84.905 98.7573
1.392647 84.657 98.1337
1.402739 84.396 97.4953
1.412904 84.119 96.8417
1.423142 83.826 96.1728
1.433455 83.516 95.4887
1.443843 83.186 94.7900
1.454305 82.835 94.0776
1.464844 82.458 93.3530
1.475459 82.052 92.6178
1.486150 81.614 91.8733
1.496920 81.141 91.1203
1.507767 80.632 90.3585
1.518693 80.085 89.5873
1.529698 79.502 88.8052
1.540783 78.883 88.0103
1.551948 78.232 87.1998
1.563194 77.549 86.3709
1.574521 76.838 85.5197
1.585931 76.102 84.6417
1.597423 75.343 83.7317
1.608999 74.565 82.7830
1.620658 73.771 81.7877
1.632402 72.967 80.7359
1.644232 72.155 79.6152
1.656146 71.340 78.4100
1.668147 70.528 77.1000
1.680235 69.723 75.6589
1.692411 68.931 74.0517
1.704675 68.158 72.2309
1.717028 67.411 70.1304
1.729470 66.698 67.6567
1.742003 66.025 64.6729
1.754626 65.403 60.9734
1.767341 64.841 56.2400
1.780147 64.349 49.9699
1.793047 63.937 41.3697
1.806040 63.617 29.2906
1.819128 63.397 12.6050
1.832310 63.287 -8.1277
1.845587 63.290 -29.1006
1.858961 63.409 -46.3431
1.872432 63.640 -59.0827
1.886001 63.978 -68.3679
1.899667 64.414 -75.3293
1.913433 64.939 -80.7511
1.927299 65.543 -85.1280
1.941265 66.216 -88.7697
1.955332 66.946 -91.8752
1.969501 67.724 -94.5758
1.983773 68.538 -96.9614
1.998148 69.379 -99.0947
2.012627 70.237 -101.0211
2.027212 71.101 -102.7739
2.041902 71.964 -104.3783
2.056698 72.815 -105.8535
2.071602 73.646 -107.2144
2.086614 74.448 -108.4733
2.101734 75.214 -109.6400
2.116964 75.936 -110.7234
2.132304 76.607 -111.7320
2.147756 77.224 -112.6750
2.163320 77.783 -113.5631
2.178996 78.282 -114.4094
2.194786 78.725 -115.2298
2.210690 79.114 -116.0415
2.226710 79.457 -116.8605
2.242845 79.757 -117.6985
2.259098 80.020 -118.5619
2.275468 80.249 -119.4526
2.291957 80.446 -120.3695
2.308566 80.614 -121.3093
2.325295 80.755 -122.2672
2.342145 80.871 -123.2380
2.359117 80.965 -124.2159
2.376212 81.037 -125.1949
2.393431 81.091 -126.1688
2.410775 81.128 -127.1314
2.428244 81.152 -128.0765
2.445840 81.164 -128.9977
2.463564 81.168 -129.8894
2.481416 81.165 -130.7461
2.499397 81.158 -131.5641
2.517509 81.149 -132.3413
2.535752 81.138 -133.0787
2.554127 81.126 -133.7811
2.572635 81.111 -134.4574
2.591277 81.092 -135.1182
2.610055 81.066 -135.7740
2.628968 81.031 -136.4323
2.648019 80.987 -137.0977
2.667208 80.932 -137.7715
2.686535 80.865 -138.4531
2.706003 80.787 -139.1396
2.725612 80.696 -139.8269
2.745363 80.594 -140.5094
2.765257 80.480 -141.1803
2.785295 80.353 -141.8314
2.805478 80.215 -142.4534
2.825808 80.063 -143.0360
2.846285 79.899 -143.5678
2.866910 79.721 -144.0373
2.887685 79.528 -144.4332
2.908611 79.317 -144.7457
2.929688 79.087 -144.9677
2.950917 78.833 -145.0942
2.972301 78.554 -145.1221
2.993839 78.247 -145.0476
3.015534 77.915 -144.8652
3.037386 77.559 -144.5671
3.059396 77.182 -144.1428
3.081565 76.791 -143.5789
3.103896 76.391 -142.8596
3.126388 75.989 -141.9663
3.149043 75.593 -140.8777
3.171862 75.212 -139.5708
3.194847 74.854 -138.0203
3.217998 74.528 -136.1995
3.241317 74.244 -134.0810
3.264805 74.009 -131.6366
3.288463 73.828 -128.8390
3.312293 73.705 -125.6646
3.336295 73.640 -122.1018
3.360471 73.629 -118.1630
3.384822 73.670 -113.8941
3.409350 73.756 -109.3779
3.434056 73.883 -104.7297
3.458940 74.045 -100.0838
3.484005 74.238 -95.5757
3.509252 74.455 -91.3245
3.534681 74.692 -87.4209
3.560295 74.945 -83.9222
3.586094 75.211 -80.8541
3.612081 75.489 -78.2164
3.638255 75.777 -75.9899
3.664620 76.079 -74.1429
3.691175 76.397 -72.6368
3.717923 76.731 -71.4313
3.744864 77.083 -70.4874
3.772001 77.449 -69.7692
3.799335 77.825 -69.2441
3.826866 78.207 -68.8834
3.854597 78.589 -68.6619
3.882529 78.965 -68.5587
3.910664 79.329 -68.5563
3.939002 79.676 -68.6418
3.967546 80.002 -68.8061
3.996296 80.304 -69.0446
4.025255 80.582 -69.3559
4.054423 80.834 -69.7408
4.083804 81.063 -70.1989
4.113396 81.270 -70.7263
4.143204 81.458 -71.3151
4.173227 81.626 -71.9542
4.203468 81.778 -72.6310
4.233928 81.914 -73.3325
4.264609 82.036 -74.0462
4.295512 82.144 -74.7623
4.326639 82.239 -75.4734
4.357992 82.322 -76.1770
4.389572 82.392 -76.8746
4.421380 82.450 -77.5718
4.453419 82.494 -78.2746
4.485691 82.524 -78.9863
4.518196 82.540 -79.7058
4.550936 82.543 -80.4278
4.583914 82.532 -81.1431
4.617131 82.510 -81.8407
4.650589 82.476 -82.5084
4.684289 82.432 -83.1347
4.718233 82.377 -83.7099
4.752424 82.311 -84.2282
4.786862 82.234 -84.6874
4.821549 82.145 -85.0882
4.856488 82.045 -85.4318
4.891680 81.934 -85.7182
4.927127 81.815 -85.9452
4.962831 81.688 -86.1084
4.998794 81.557 -86.2016
5.035017 81.423 -86.2168
5.071503 81.288 -86.1448
5.108253 81.153 -85.9762
5.145270 81.019 -85.7023
5.182555 80.886 -85.3170
5.220110 80.754 -84.8186
5.257937 80.625 -84.2102
5.296038 80.500 -83.5004
5.334415 80.383 -82.7014
5.373071 80.277 -81.8280
5.412006 80.186 -80.8958
5.451224 80.113 -79.9188
5.490725 80.060 -78.9079
5.530514 80.028 -77.8715
5.570590 80.018 -76.8190
5.610957 80.028 -75.7637
5.651616 80.057 -74.7245
5.692570 80.101 -73.7243
5.733821 80.160 -72.7873
5.775370 80.230 -71.9354
5.817221 80.311 -71.1866
5.859375 80.401 -70.5520
5.901834 80.501 -70.0364
5.944602 80.609 -69.6393
5.987679 80.724 -69.3578
6.031068 80.843 -69.1883
6.074771 80.964 -69.1277
6.118792 81.082 -69.1733
6.163131 81.195 -69.3238
6.207792 81.302 -69.5786
6.252776 81.400 -69.9365
6.298086 81.489 -70.3943
6.343725 81.569 -70.9447
6.389694 81.639 -71.5767
6.435996 81.700 -72.2773
6.482634 81.750 -73.0334
6.529610 81.789 -73.8347
6.576926 81.817 -74.6747
6.624585 81.832 -75.5508
6.672590 81.834 -76.4615
6.720942 81.825 -77.4031
6.769645 81.803 -78.3676
6.818700 81.771 -79.3439
6.868111 81.729 -80.3196
6.917881 81.677 -81.2834
6.968010 81.615 -82.2278
7.018504 81.545 -83.1488
7.069362 81.466 -84.0444
7.120590 81.380 -84.9117
7.172189 81.288 -85.7457
7.224161 81.193 -86.5393
7.276511 81.096 -87.2848
7.329239 80.999 -87.9750
7.382350 80.903 -88.6059
7.435845 80.808 -89.1768
7.489729 80.718 -89.6908
7.544002 80.633 -90.1533
7.598669 80.557 -90.5699
7.653732 80.492 -90.9459
7.709194 80.439 -91.2853
7.765058 80.400 -91.5926
7.821327 80.374 -91.8752
7.878004 80.364 -92.1446
7.935091 80.368 -92.4152
7.992592 80.387 -92.7014
8.050510 80.420 -93.0153
8.108847 80.468 -93.3648
8.167607 80.530 -93.7553
8.226793 80.605 -94.1917
8.286408 80.689 -94.6789
8.346454 80.782 -95.2222
8.406936 80.881 -95.8251
8.467856 80.986 -96.4885
8.529218 81.093 -97.2098
8.591024 81.204 -97.9834
8.653278 81.314 -98.8022
8.715983 81.425 -99.6591
8.779143 81.533 -100.5480
8.842760 81.637 -101.4629
8.906839 81.739 -102.3970
8.971381 81.836 -103.3415
9.036392 81.929 -104.2861
9.101873 82.017 -105.2206
9.167829 82.101 -106.1367
9.234263 82.181 -107.0284
9.301178 82.256 -107.8899
9.368578 82.328 -108.7153
9.436467 82.398 -109.4983
9.504847 82.465 -110.2332
9.573723 82.532 -110.9165
9.643099 82.597 -111.5467
9.712976 82.664 -112.1239
9.783361 82.731 -112.6490
9.854255 82.801 -113.1236
9.925663 82.873 -113.5497
9.997588 82.948 -113.9304
10.070035 83.027 -114.2705
10.143007 83.110 -114.5759
10.216507 83.196 -114.8527
10.290540 83.285 -115.1062
10.365109 83.378 -115.3412
10.440219 83.474 -115.5621
10.515873 83.571 -115.7736
10.592076 83.669 -115.9795
10.668830 83.768 -116.1826
10.746141 83.867 -116.3846
10.824012 83.964 -116.5858
10.902447 84.060 -116.7858
10.981451 84.153 -116.9841
11.061027 84.243 -117.1794
11.141180 84.330 -117.3702
11.221913 84.414 -117.5543
11.303232 84.493 -117.7293
11.385140 84.569 -117.8933
11.467641 84.642 -118.0448
11.550741 84.711 -118.1829
11.634442 84.777 -118.3070
11.718750 84.841 -118.4169
11.803669 84.901 -118.5132
11.889203 84.960 -118.5971
11.975357 85.016 -118.6705
12.062136 85.071 -118.7355
12.149543 85.124 -118.7946
12.237583 85.175 -118.8499
12.326262 85.224 -118.9040
12.415583 85.271 -118.9589
12.505552 85.315 -119.0166
12.596172 85.357 -119.0781
12.687449 85.395 -119.1442
12.779387 85.431 -119.2150
12.871992 85.463 -119.2903
12.965268 85.492 -119.3695
13.059220 85.517 -119.4515
13.153852 85.538 -119.5353
13.249170 85.557 -119.6200
13.345179 85.572 -119.7050
13.441884 85.585 -119.7902
13.539289 85.596 -119.8761
13.637401 85.605 -119.9636
13.736223 85.614 -120.0546
13.835761 85.621 -120.1516
13.936021 85.628 -120.2575
14.037007 85.634 -120.3755
14.138725 85.641 -120.5090
14.241180 85.648 -120.6613
14.344377 85.654 -120.8352
14.448323 85.659 -121.0329
14.553021 85.664 -121.2556
14.658478 85.668 -121.5038
14.764700 85.670 -121.7768
14.871691 85.670 -122.0732
14.979457 85.669 -122.3905
15.088005 85.666 -122.7258
15.197339 85.661 -123.0759
15.307465 85.655 -123.4375
15.418389 85.648 -123.8076
15.530117 85.641 -124.1838
15.642655 85.635 -124.5643
15.756008 85.630 -124.9483
15.870182 85.628 -125.3359
15.985184 85.628 -125.7281
16.101019 85.632 -126.1263
16.217694 85.639 -126.5326
16.335214 85.649 -126.9488
16.453586 85.664 -127.3768
16.572815 85.682 -127.8174
16.692909 85.703 -128.2709
16.813872 85.727 -128.7362
16.935713 85.752 -129.2113
17.058436 85.780 -129.6932
17.182048 85.809 -130.1780
17.306556 85.838 -130.6614
17.431967 85.869 -131.1390
17.558286 85.901 -131.6064
17.685521 85.934 -132.0599
17.813677 85.969 -132.4966
17.942762 86.005 -132.9146
18.072783 86.043 -133.3130
18.203746 86.084 -133.6917
18.335658 86.126 -134.0515
18.468526 86.170 -134.3935
18.602356 86.216 -134.7191
18.737156 86.264 -135.0296
18.872934 86.312 -135.3258
19.009695 86.360 -135.6082
19.147447 86.408 -135.8769
19.286197 86.456 -136.1313
19.425953 86.502 -136.3710
19.566721 86.547 -136.5954
19.708510 86.591 -136.8040
19.851326 86.633 -136.9969
19.995177 86.673 -137.1745
20.140070 86.711 -137.3379
20.286013 86.748 -137.4886
20.433014 86.783 -137.6281
20.581080 86.815 -137.7582
20.730219 86.846 -137.8805
20.880439 86.873 -137.9966
21.031747 86.899 -138.1076
21.184152 86.921 -138.2144
21.337661 86.941 -138.3181
21.492282 86.958 -138.4194
21.648024 86.973 -138.5199
21.804895 86.986 -138.6209
21.962902 86.996 -138.7247
22.122054 87.005 -138.8337
22.282360 87.012 -138.9503
22.443827 87.018 -139.0771
22.606464 87.022 -139.2160
22.770280 87.025 -139.3685
22.935283 87.026 -139.5354
23.101481 87.025 -139.7166
23.268884 87.023 -139.9115
23.437500 87.020 -140.1190
23.607338 87.016 -140.3383
23.778406 87.012 -140.5684
23.950714 87.008 -140.8090
24.124271 87.004 -141.0602
24.299086 87.002 -141.3224
24.475167 87.001 -141.5960
24.652524 87.002 -141.8814
24.831166 87.005 -142.1784
25.011103 87.009 -142.4858
25.192344 87.015 -142.8020
25.374898 87.022 -143.1246
25.558775 87.031 -143.4506
25.743984 87.041 -143.7772
25.930536 87.053 -144.1015
26.118439 87.067 -144.4212
26.307704 87.083 -144.7343
26.498341 87.101 -145.0394
26.690359 87.120 -145.3355
26.883768 87.141 -145.6215
27.078579 87.163 -145.8964
27.274801 87.186 -146.1594
27.472446 87.209 -146.4094
27.671522 87.233 -146.6457
27.872042 87.258 -146.8680
28.074014 87.282 -147.0761
28.277450 87.305 -147.2705
28.482360 87.329 -147.4521
28.688755 87.351 -147.6218
28.896645 87.373 -147.7806
29.106042 87.392 -147.9298
29.316957 87.411 -148.0703
29.529400 87.428 -148.2035
29.743382 87.443 -148.3307
29.958915 87.456 -148.4538
30.176009 87.468 -148.5748
30.394677 87.478 -148.6959
30.614929 87.486 -148.8192
30.836778 87.492 -148.9467
31.060234 87.497 -149.0795
31.285309 87.501 -149.2185
31.512015 87.502 -149.3639
31.740364 87.503 -149.5160
31.970368 87.503 -149.6751
32.202039 87.502 -149.8417
32.435388 87.501 -150.0164
32.670428 87.500 -150.2002
32.907171 87.500 -150.3934
33.145630 87.500 -150.5962
33.385817 87.501 -150.8079
33.627745 87.503 -151.0273
33.871425 87.505 -151.2528
34.116871 87.508 -151.4823
34.364096 87.512 -151.7135
34.613113 87.516 -151.9443
34.863934 87.522 -152.1727
35.116572 87.528 -152.3967
35.371041 87.536 -152.6148
35.627354 87.544 -152.8257
35.885525 87.553 -153.0287
36.145566 87.562 -153.2235
36.407492 87.572 -153.4104
36.671316 87.582 -153.5898
36.937051 87.592 -153.7621
37.204712 87.602 -153.9276
37.474313 87.611 -154.0864
37.745867 87.619 -154.2386
38.019389 87.627 -154.3845
38.294893 87.633 -154.5244
38.572394 87.638 -154.6592
38.851905 87.642 -154.7901
39.133442 87.645 -154.9185
39.417019 87.647 -155.0461
39.702651 87.649 -155.1743
39.990353 87.650 -155.3044
40.280140 87.650 -155.4374
40.572026 87.650 -155.5735
40.866028 87.649 -155.7126
41.162160 87.648 -155.8541
41.460438 87.647 -155.9971
41.760877 87.646 -156.1412
42.063494 87.645 -156.2866
42.368303 87.646 -156.4339
42.675322 87.646 -156.5836
42.984565 87.648 -156.7361
43.296048 87.650 -156.8907
43.609789 87.651 -157.0461
43.925804 87.653 -157.2004
44.244108 87.655 -157.3517
44.564719 87.656 -157.4989
44.887654 87.658 -157.6414
45.212928 87.660 -157.7796
45.540560 87.661 -157.9142
45.870565 87.663 -158.0462
46.202962 87.665 -158.1763
46.537768 87.666 -158.3051
46.875000 87.667 -158.4331
47.214676 87.668 -158.5604
47.556813 87.668 -158.6871
47.901429 87.668 -158.8135
48.248542 87.668 -158.9400
48.598171 87.668 -159.0671
48.950334 87.668 -159.1952
49.305048 87.667 -159.3240
49.662333 87.666 -159.4528
50.022206 87.665 -159.5801
50.384688 87.664 -159.7045
50.749796 87.663 -159.8245
51.117550 87.661 -159.9395
51.487969 87.659 -160.0491
51.861072 87.658 -160.1540
52.236879 87.657 -160.2548
52.615409 87.656 -160.3526
52.996681 87.654 -160.4483
53.380717 87.653 -160.5427
53.767536 87.652 -160.6366
54.157158 87.650 -160.7310
54.549603 87.648 -160.8270
54.944892 87.647 -160.9257
55.343045 87.645 -161.0282
55.744084 87.643 -161.1348
56.148028 87.641 -161.2456
56.554900 87.639 -161.3604
56.964720 87.637 -161.4789
57.377510 87.635 -161.6010
57.793291 87.633 -161.7258
58.212085 87.631 -161.8518
58.633914 87.629 -161.9765
59.058799 87.627 -162.0977
59.486764 87.625 -162.2140
59.917829 87.623 -162.3255
60.352019 87.620 -162.4337
60.789354 87.618 -162.5401
61.229859 87.615 -162.6452
61.673556 87.612 -162.7486
62.120468 87.607 -162.8489
62.570618 87.602 -162.9456
63.024031 87.596 -163.0388
63.480729 87.590 -163.1298
63.940736 87.584 -163.2202
64.404077 87.578 -163.3119
64.870776 87.572 -163.4058
65.340856 87.565 -163.5019
65.814343 87.559 -163.5989
66.291261 87.553 -163.6954
66.771635 87.547 -163.7904
67.255489 87.541 -163.8832
67.742850 87.536 -163.9736
68.233743 87.530 -164.0609
68.728193 87.524 -164.1442
69.226226 87.518 -164.2231
69.727867 87.512 -164.2976
70.233144 87.506 -164.3684
70.742083 87.500 -164.4359
71.254709 87.493 -164.5008
71.771050 87.487 -164.5639
72.291132 87.480 -164.6262
72.814984 87.473 -164.6888
73.342631 87.467 -164.7526
73.874102 87.460 -164.8179
74.409424 87.454 -164.8849
74.948626 87.448 -164.9536
75.491734 87.442 -165.0233
76.038779 87.436 -165.0937
76.589787 87.430 -165.1644
77.144788 87.424 -165.2358
77.703811 87.418 -165.3084
78.266885 87.413 -165.3831
78.834039 87.407 -165.4604
79.405303 87.401 -165.5407
79.980706 87.396 -165.6250
80.560280 87.390 -165.7144
81.144053 87.384 -165.8096
81.732056 87.377 -165.9105
82.324320 87.369 -166.0161
82.920876 87.360 -166.1240
83.521755 87.348 -166.2310
84.126988 87.335 -166.3338
84.736607 87.320 -166.4295
85.350643 87.304 -166.5169
85.969129 87.286 -166.5955
86.592097 87.268 -166.6649
87.219579 87.249 -166.7250
87.851608 87.230 -166.7764
88.488217 87.211 -166.8206
89.129439 87.193 -166.8593
89.775308 87.175 -166.8945
90.425856 87.159 -166.9273
91.081119 87.144 -166.9586
91.741131 87.129 -166.9892
92.405925 87.115 -167.0196
93.075536 87.101 -167.0499
93.750000 87.087 -167.0795
94.429351 87.073 -167.1083
95.113625 87.058 -167.1365
95.802858 87.044 -167.1647
96.497085 87.029 -167.1926
97.196342 87.013 -167.2196
97.900667 86.997 -167.2446
98.610096 86.981 -167.2663
99.324665 86.964 -167.2834
100.044413 86.948 -167.2954
100.769376 86.931 -167.3021
101.499592 86.915 -167.3043
102.235100 86.899 -167.3028
102.975938 86.884 -167.2991
103.722144 86.869 -167.2950
104.473757 86.854 -167.2928
105.230817 86.839 -167.2941
105.993363 86.825 -167.2997
106.761435 86.811 -167.3093
107.535072 86.797 -167.3230
108.314315 86.783 -167.3411
109.099206 86.769 -167.3636
109.889783 86.754 -167.3896
110.686090 86.739 -167.4177
111.488167 86.722 -167.4471
112.296056 86.704 -167.4773
113.109800 86.685 -167.5075
113.929440 86.663 -167.5353
114.755020 86.639 -167.5567
115.586582 86.612 -167.5663
116.424170 86.584 -167.5598
117.267827 86.554 -167.5343
118.117598 86.526 -167.4899
118.973527 86.499 -167.4297
119.835658 86.475 -167.3601
120.704037 86.454 -167.2891
121.578708 86.435 -167.2231
122.459718 86.418 -167.1642
123.347111 86.401 -167.1120
124.240935 86.385 -167.0644
125.141236 86.368 -167.0193
126.048061 86.351 -166.9753
126.961458 86.333 -166.9320
127.881473 86.315 -166.8899
128.808154 86.298 -166.8502
129.741551 86.280 -166.8138
130.681712 86.261 -166.7808
131.628686 86.243 -166.7504
132.582521 86.224 -166.7214
133.543269 86.204 -166.6927
134.510979 86.183 -166.6632
135.485701 86.161 -166.6317
136.467486 86.139 -166.5976
137.456386 86.115 -166.5605
138.452451 86.091 -166.5201
139.455735 86.067 -166.4760
140.466288 86.041 -166.4277
141.484165 86.016 -166.3760
142.509418 85.990 -166.3223
143.542100 85.964 -166.2680
144.582265 85.938 -166.2143
145.629968 85.911 -166.1610
146.685262 85.883 -166.1070
147.748204 85.855 -166.0506
148.818849 85.825 -165.9896
149.897251 85.794 -165.9218
150.983469 85.762 -165.8450
152.077557 85.729 -165.7572
153.179574 85.696 -165.6576
154.289576 85.664 -165.5469
155.407622 85.632 -165.4278
156.533770 85.601 -165.3050
157.668078 85.571 -165.1840
158.810606 85.542 -165.0694
159.961413 85.513 -164.9634
161.120559 85.483 -164.8657
162.288105 85.451 -164.7737
163.464112 85.417 -164.6832
164.648640 85.381 -164.5895
165.841752 85.342 -164.4872
167.043510 85.300 -164.3713
168.253976 85.256 -164.2380
169.473213 85.211 -164.0856
170.701286 85.165 -163.9152
171.938258 85.119 -163.7278
173.184194 85.071 -163.5223
174.439158 85.023 -163.2943
175.703216 84.973 -163.0383
176.976434 84.922 -162.7508
178.258878 84.870 -162.4313
179.550615 84.818 -162.0802
180.851713 84.767 -161.6954
182.162239 84.719 -161.2717
183.482262 84.674 -160.8039
184.811850 84.636 -160.2887
186.151073 84.606 -159.7267
187.500000 84.586 -159.1251
188.858702 84.579 -158.4994
190.227250 84.584 -157.8716
191.605715 84.599 -157.2641
192.994169 84.624 -156.6953
194.392685 84.655 -156.1802
195.801334 84.692 -155.7320
197.220191 84.733 -155.3602
198.649330 84.775 -155.0665
200.088825 84.816 -154.8444
201.538751 84.856 -154.6838
202.999184 84.891 -154.5742
204.470200 84.922 -154.5074
205.951875 84.948 -154.4767
207.444287 84.967 -154.4752
208.947514 84.981 -154.4943
210.461634 84.987 -154.5236
211.986726 84.987 -154.5528
213.522869 84.981 -154.5721
215.070144 84.969 -154.5734
216.628631 84.954 -154.5517
218.198411 84.936 -154.5062
219.779567 84.917 -154.4399
221.372180 84.898 -154.3592
222.976334 84.879 -154.2702
224.592112 84.859 -154.1770
226.219600 84.839 -154.0794
227.858880 84.818 -153.9746
229.510039 84.796 -153.8593
231.173164 84.772 -153.7318
232.848340 84.747 -153.5930
234.535655 84.721 -153.4455
236.235197 84.694 -153.2924
237.947054 84.667 -153.1354
239.671317 84.639 -152.9740
241.408074 84.611 -152.8062
243.157416 84.581 -152.6286
244.919435 84.550 -152.4383
246.694223 84.518 -152.2329
248.481871 84.486 -152.0109
250.282473 84.453 -151.7718
252.096123 84.421 -151.5153
253.922915 84.390 -151.2433
255.762945 84.362 -150.9615
257.616309 84.337 -150.6793
259.483103 84.314 -150.4059
261.363424 84.293 -150.1458
263.257372 84.271 -149.8973
265.165043 84.248 -149.6543
267.086538 84.224 -149.4089
269.021957 84.199 -149.1546
270.971401 84.173 -148.8869
272.934972 84.147 -148.6049
274.912771 84.121 -148.3105
276.904902 84.097 -148.0064
278.911469 84.074 -147.6951
280.932577 84.053 -147.3792
282.968330 84.034 -147.0621
285.018835 84.017 -146.7498
287.084199 84.001 -146.4498
289.164530 83.986 -146.1685
291.259935 83.970 -145.9075
293.370525 83.953 -145.6614
295.496408 83.932 -145.4200
297.637697 83.908 -145.1728
299.794503 83.883 -144.9136
301.966937 83.856 -144.6404
304.155114 83.829 -144.3543
306.359147 83.802 -144.0576
308.579152 83.775 -143.7536
310.815244 83.749 -143.4456
313.067539 83.721 -143.1355
315.336156 83.694 -142.8222
317.621211 83.665 -142.5019
319.922826 83.635 -142.1699
322.241118 83.606 -141.8244
324.576210 83.577 -141.4669
326.928223 83.550 -141.1012
329.297280 83.524 -140.7306
331.683504 83.499 -140.3580
334.087019 83.475 -139.9857
336.507952 83.451 -139.6158
338.946427 83.427 -139.2490
341.402572 83.402 -138.8843
343.876516 83.377 -138.5185
346.368387 83.351 -138.1486
348.878315 83.325 -137.7722
351.406431 83.299 -137.3886
353.952867 83.273 -136.9978
356.517756 83.248 -136.6008
359.101230 83.222 -136.1993
361.703426 83.197 -135.7944
364.324478 83.172 -135.3862
366.964523 83.148 -134.9738
369.623699 83.123 -134.5563
372.302145 83.099 -134.1333
375.000000 83.074 -133.7052
377.717405 83.050 -133.2722
380.454501 83.026 -132.8344
383.211431 83.002 -132.3923
385.988339 82.978 -131.9467
388.785369 82.954 -131.4980
391.602668 82.931 -131.0463
394.440383 82.908 -130.5914
397.298660 82.886 -130.1329
400.177650 82.863 -129.6712
403.077502 82.842 -129.2077
405.998368 82.820 -128.7434
408.940400 82.799 -128.2779
411.903750 82.777 -127.8088
414.888575 82.754 -127.3332
417.895028 82.731 -126.8486
420.923268 82.708 -126.3536
423.973452 82.685 -125.8480
427.045738 82.664 -125.3329
430.140287 82.645 -124.8111
433.257261 82.627 -124.2868
436.396822 82.611 -123.7631
439.559133 82.597 -123.2413
442.744360 82.583 -122.7218
445.952668 82.571 -122.2073
449.184225 82.561 -121.7025
452.439199 82.550 -121.2131
455.717760 82.539 -120.7412
459.020079 82.525 -120.2822
462.346327 82.508 -119.8247
465.696680 82.489 -119.3571
469.071310 82.467 -118.8727
472.470394 82.445 -118.3709
475.894109 82.422 -117.8555
479.342634 82.401 -117.3324
482.816148 82.379 -116.8075
486.314833 82.358 -116.2825
489.838871 82.335 -115.7522
493.388445 82.312 -115.2078
496.963741 82.288 -114.6444
500.564945 82.266 -114.0654
504.192245 82.245 -113.4790
507.845830 82.226 -112.8931
511.525890 82.207 -112.3111
515.232618 82.189 -111.7319
518.966206 82.169 -111.1512
522.726849 82.149 -110.5634
526.514743 82.129 -109.9636
530.330086 82.109 -109.3502
534.173076 82.090 -108.7260
538.043915 82.072 -108.0959
541.942803 82.055 -107.4627
545.869944 82.038 -106.8254
549.825542 82.022 -106.1828
553.809805 82.007 -105.5361
557.822939 81.993 -104.8888
561.865154 81.978 -104.2431
565.936660 81.964 -103.5986
570.037671 81.949 -102.9523
574.168399 81.934 -102.3004
578.329060 81.918 -101.6405
582.519870 81.902 -100.9726
586.741049 81.886 -100.2965
590.992817 81.870 -99.6098
595.275394 81.854 -98.9102
599.589005 81.840 -98.1997
603.933874 81.826 -97.4837
608.310228 81.814 -96.7667
612.718295 81.801 -96.0492
617.158304 81.789 -95.3274
621.630488 81.776 -94.5939
626.135079 81.763 -93.8420
630.672311 81.751 -93.0699
635.242423 81.741 -92.2829
639.845651 81.734 -91.4883
644.482237 81.728 -90.6887
649.152421 81.724 -89.8828
653.856447 81.723 -89.0711
658.594560 81.725 -88.2605
663.367008 81.730 -87.4614
668.174039 81.736 -86.6818
673.015903 81.742 -85.9214
677.892854 81.746 -85.1725
682.805145 81.748 -84.4262
687.753032 81.748 -83.6746
692.736774 81.746 -82.9114
697.756631 81.744 -82.1321
702.812863 81.742 -81.3353
707.905735 81.742 -80.5237
713.035511 81.742 -79.7018
718.202461 81.743 -78.8728
723.406852 81.745 -78.0370
728.648956 81.747 -77.1930
733.929047 81.750 -76.3393
739.247399 81.754 -75.4755
744.604290 81.759 -74.6016
750.000000 81.765 -73.7180
755.434809 81.773 -72.8247
760.909001 81.782 -71.9220
766.422861 81.793 -71.0108
771.976677 81.806 -70.0924
777.570739 81.821 -69.1678
783.205337 81.838 -68.2373
788.880766 81.856 -67.2995
794.597321 81.877 -66.3508
800.355301 81.900 -65.3885
806.155005 81.926 -64.4134
811.996736 81.957 -63.4320
817.880799 81.992 -62.4545
823.807501 82.031 -61.4924
829.777150 82.072 -60.5554
835.790057 82.115 -59.6459
841.846536 82.157 -58.7571
847.946903 82.198 -57.8777
854.091476 82.238 -56.9994
860.280575 82.278 -56.1180
866.514523 82.318 -55.2303
872.793644 82.359 -54.3334
879.118267 82.401 -53.4287
885.488720 82.446 -52.5218
891.905336 82.493 -51.6175
898.368450 82.541 -50.7166
904.878398 82.591 -49.8170
911.435520 82.642 -48.9178
918.040157 82.696 -48.0211
924.692655 82.752 -47.1309
931.393359 82.810 -46.2511
938.142619 82.870 -45.3854
944.940787 82.931 -44.5350
951.788218 82.993 -43.6982
958.685268 83.055 -42.8719
965.632296 83.116 -42.0531
972.629666 83.178 -41.2395
979.677741 83.239 -40.4307
986.776890 83.301 -39.6277
993.927482 83.362 -38.8298
1001.129891 83.424 -38.0324
1008.384491 83.486 -37.2311
1015.691660 83.551 -36.4255
1023.051781 83.617 -35.6196
1030.465236 83.687 -34.8203
1037.932411 83.759 -34.0387
1045.453698 83.833 -33.2862
1053.029486 83.908 -32.5672
1060.660172 83.980 -31.8772
1068.346153 84.050 -31.2067
1076.087829 84.117 -30.5459
1083.885605 84.181 -29.8884
1091.739887 84.243 -29.2324
1099.651084 84.304 -28.5777
1107.619609 84.364 -27.9233
1115.645878 84.422 -27.2671
1123.730308 84.478 -26.6065
1131.873321 84.534 -25.9394
1140.075341 84.589 -25.2647
1148.336797 84.643 -24.5823
1156.658119 84.698 -23.8924
1165.039741 84.752 -23.1944
1173.482099 84.808 -22.4871
1181.985634 84.866 -21.7712
1190.550789 84.926 -21.0528
1199.178011 84.989 -20.3433
1207.867749 85.054 -19.6546
1216.620457 85.119 -18.9926
1225.436590 85.182 -18.3537
1234.316609 85.242 -17.7297
1243.260976 85.299 -17.1119
1252.270157 85.353 -16.4924
1261.344623 85.404 -15.8668
1270.484846 85.455 -15.2334
1279.691303 85.504 -14.5901
1288.964474 85.552 -13.9352
1298.304842 85.600 -13.2690
1307.712894 85.647 -12.5944
1317.189120 85.695 -11.9155
1326.734016 85.743 -11.2349
1336.348077 85.790 -10.5519
1346.031806 85.835 -9.8634
1355.785708 85.879 -9.1652
1365.610290 85.923 -8.4533
1375.506065 85.965 -7.7228
1385.473549 86.009 -6.9687
1395.513261 86.054 -6.1896
1405.625726 86.103 -5.3911
1415.811469 86.156 -4.5854
1426.071023 86.213 -3.7873
1436.404921 86.272 -3.0063
1446.813703 86.332 -2.2428
1457.297912 86.391 -1.4915
1467.858093 86.450 -0.7460
1478.494798 86.508 -0.0017
1489.208581 86.564 0.7450
1500.000000 86.620 1.4975
1510.869618 86.675 2.2590
1521.818002 86.731 3.0327
1532.845723 86.787 3.8214
1543.953355 86.844 4.6275
1555.141477 86.903 5.4516
1566.410674 86.966 6.2893
1577.761531 87.034 7.1288
1589.194642 87.105 7.9551
1600.710601 87.179 8.7585
1612.310010 87.254 9.5383
1623.993473 87.328 10.3003
1635.761599 87.401 11.0526
1647.615002 87.472 11.8021
1659.554299 87.543 12.5538
1671.580114 87.613 13.3108
1683.693072 87.684 14.0735
1695.893807 87.755 14.8395
1708.182952 87.826 15.6067
1720.561150 87.897 16.3757
1733.029045 87.968 17.1501
1745.587288 88.039 17.9359
1758.236533 88.110 18.7401
1770.977440 88.183 19.5684
1783.810673 88.259 20.4194
1796.736900 88.341 21.2827
1809.756796 88.427 22.1429
1822.871040 88.518 22.9883
1836.080315 88.611 23.8150
1849.385310 88.706 24.6240
1862.786718 88.801 25.4190
1876.285239 88.897 26.2046
1889.881575 88.993 26.9866
1903.576436 89.090 27.7710
1917.370535 89.188 28.5632
1931.264593 89.289 29.3665
1945.259332 89.394 30.1787
1959.355483 89.505 30.9894
1973.553781 89.620 31.7833
1987.854965 89.740 32.5488
2002.259781 89.862 33.2824
2016.768981 89.985 33.9865
2031.383320 90.109 34.6656
2046.103561 90.233 35.3250
2060.930471 90.357 35.9680
2075.864823 90.482 36.5955
2090.907395 90.607 37.2070
2106.058972 90.732 37.8040
2121.320344 90.856 38.3916
2136.692305 90.981 38.9778
2152.175658 91.107 39.5700
2167.771210 91.236 40.1691
2183.479774 91.369 40.7659
2199.302169 91.508 41.3463
2215.239219 91.650 41.8988
2231.291755 91.795 42.4178
2247.460615 91.942 42.9020
2263.746641 92.090 43.3543
2280.150683 92.238 43.7800
2296.673595 92.387 44.1853
2313.316238 92.538 44.5750
2330.079481 92.692 44.9479
2346.964198 92.850 45.2938
2363.971268 93.013 45.5984
2381.101578 93.178 45.8497
2398.356022 93.345 46.0418
2415.735498 93.512 46.1734
2433.240913 93.678 46.2463
2450.873180 93.843 46.2624
2468.633217 94.004 46.2228
2486.521951 94.162 46.1292
2504.540314 94.316 45.9867
2522.689246 94.466 45.8032
2540.969692 94.612 45.5864
2559.382606 94.755 45.3374
2577.928947 94.896 45.0493
2596.609683 95.034 44.7129
2615.425787 95.169 44.3214
2634.378241 95.299 43.8728
2653.468031 95.423 43.3700
2672.696154 95.539 42.8207
2692.063613 95.647 42.2344
2711.571415 95.748 41.6182
2731.220579 95.843 40.9721
2751.012130 95.932 40.2902
2770.947098 96.015 39.5669
2791.026522 96.089 38.7999
2811.251451 96.154 37.9916
2831.622938 96.208 37.1471
2852.142045 96.251 36.2729
2872.809842 96.281 35.3774
2893.627406 96.297 34.4729
2914.595823 96.300 33.5758
2935.716186 96.290 32.7015
2956.989596 96.269 31.8587
2978.417161 96.238 31.0497
3000.000000 96.198 30.2745
3021.739237 96.148 29.5343
3043.636005 96.089 28.8343
3065.691446 96.020 28.1844
3087.906710 95.943 27.5963
3110.282955 95.860 27.0774
3132.821347 95.772 26.6268
3155.523062 95.681 26.2385
3178.389283 95.589 25.9049
3201.421202 95.494 25.6195
3224.620020 95.397 25.3775
3247.986946 95.298 25.1754
3271.523198 95.196 25.0138
3295.230004 95.090 24.8988
3319.108599 94.981 24.8395
3343.160228 94.870 24.8408
3367.386145 94.758 24.9012
3391.787613 94.647 25.0153
3416.365904 94.536 25.1785
3441.122300 94.424 25.3910
3466.058091 94.313 25.6588
3491.174576 94.203 25.9882
3516.473066 94.096 26.3797
3541.954880 93.993 26.8266
3567.621345 93.896 27.3180
3593.473800 93.805 27.8425
3619.513592 93.718 28.3894
3645.742080 93.637 28.9506
3672.160630 93.558 29.5253
3698.770620 93.482 30.1195
3725.573436 93.407 30.7404
3752.570477 93.336 31.3902
3779.763150 93.268 32.0664
3807.152872 93.203 32.7659
3834.741071 93.141 33.4906
3862.529185 93.082 34.2487
3890.518664 93.027 35.0473
3918.710966 92.978 35.8873
3947.107561 92.936 36.7619
3975.709929 92.902 37.6596
4004.519563 92.877 38.5669
4033.537962 92.860 39.4715
4062.766641 92.849 40.3681
4092.207123 92.844 41.2594
4121.860942 92.844 42.1499
4151.729646 92.850 43.0404
4181.814790 92.860 43.9285
4212.117944 92.876 44.8140
4242.640687 92.895 45.7036
4273.384610 92.920 46.6069
4304.351317 92.951 47.5296
4335.542421 92.990 48.4690
4366.959549 93.040 49.4157
4398.604338 93.099 50.3550
4430.478438 93.169 51.2727
4462.583511 93.248 52.1610
4494.921231 93.336 53.0187
4527.493283 93.431 53.8451
4560.301365 93.533 54.6366
4593.347189 93.643 55.3902
4626.632476 93.759 56.1085
4660.158962 93.882 56.7989
4693.928395 94.012 57.4667
4727.942535 94.152 58.1105
4762.203156 94.303 58.7199
4796.712043 94.466 59.2780
4831.470996 94.641 59.7667
4866.481826 94.826 60.1730
4901.746360 95.022 60.4870
4937.266434 95.226 60.6983
4973.043902 95.437 60.7950
5009.080628 95.655 60.7695
5045.378492 95.877 60.6197
5081.939384 96.103 60.3450
5118.765212 96.332 59.9408
5155.857894 96.565 59.3955
5193.219366 96.800 58.6911
5230.851574 97.036 57.8082
5268.756481 97.269 56.7317
5306.936062 97.496 55.4508
5345.392309 97.712 53.9572
5384.127225 97.913 52.2479
5423.142830 98.095 50.3301
5462.441159 98.253 48.2213
5502.024259 98.383 45.9459
5541.894195 98.484 43.5309
5582.053045 98.554 41.0028
5622.502902 98.592 38.3888
5663.245876 98.595 35.7200
5704.284090 98.563 33.0300
5745.619684 98.496 30.3523
5787.254813 98.395 27.7207
5829.191647 98.259 25.1711
5871.432373 98.091 22.7408
5913.979192 97.893 20.4649
5956.834323 97.671 18.3710
6000.000000 97.427 16.4761
6043.478473 97.168 14.7883
6087.272010 96.897 13.3079
6131.382892 96.619 12.0281
6175.813420 96.338 10.9366
6220.565910 96.055 10.0212
6265.642695 95.773 9.2731
6311.046124 95.494 8.6869
6356.778566 95.219 8.2564
6402.842404 94.951 7.9727
6449.240040 94.693 7.8242
6495.973891 94.447 7.7975
6543.046396 94.215 7.8762
6590.460007 93.996 8.0438
6638.217197 93.793 8.2884
6686.320456 93.604 8.6034
6734.772290 93.431 8.9846
6783.575226 93.275 9.4265
6832.731809 93.139 9.9201
6882.244600 93.023 10.4528
6932.116181 92.930 11.0066
6982.349153 92.860 11.5617
7032.946133 92.814 12.1008
7083.909760 92.792 12.6109
7135.242690 92.793 13.0816
7186.947600 92.819 13.5015
7239.027185 92.872 13.8562
7291.484160 92.954 14.1256
7344.321260 93.065 14.2818
7397.541239 93.207 14.2917
7451.146872 93.380 14.1197
7505.140954 93.584 13.7279
7559.526299 93.818 13.0729
7614.305743 94.080 12.1053
7669.482141 94.366 10.7688
7725.058371 94.670 9.0032
7781.037328 94.980 6.7516
7837.421932 95.285 3.9715
7894.215122 95.568 0.6432
7951.419859 95.813 -3.2278
8009.039125 96.005 -7.6093
8067.075924 96.129 -12.4442
8125.533282 96.172 -17.6538
8184.414245 96.121 -23.1386
8243.721885 95.968 -28.7757
8303.459292 95.705 -34.4213
8363.629581 95.331 -39.9207
8424.235888 94.850 -45.1249
8485.281374 94.274 -49.9084
8546.769221 93.618 -54.1841
8608.702634 92.899 -57.9062
8671.084842 92.136 -61.0633
8733.919097 91.343 -63.6688
8797.208675 90.537 -65.7515
8860.956876 89.729 -67.3489
8925.167022 88.931 -68.5066
8989.842461 88.150 -69.2785
9054.986566 87.395 -69.7212
9120.602731 86.667 -69.8884
9186.694378 85.971 -69.8254
9253.264952 85.304 -69.5659
9320.317925 84.669 -69.1367
9387.856790 84.064 -68.5637
9455.885071 83.489 -67.8734
9524.406312 82.943 -67.0903
9593.424086 82.425 -66.2329
9662.941992 81.931 -65.3104
9732.963653 81.462 -64.3274
9803.492719 81.016 -63.2908
9874.532869 80.594 -62.2115
9946.087805 80.195 -61.1016
10018.161257 79.817 -59.9677
10090.756983 79.459 -58.8093
10163.878768 79.122 -57.6254
10237.530423 78.805 -56.4195
10311.715789 78.509 -55.2008
10386.438732 78.233 -53.9787
10461.703149 77.976 -52.7564
10537.512962 77.737 -51.5317
10613.872125 77.518 -50.3040
10690.784618 77.318 -49.0785
10768.254450 77.138 -47.8635
10846.285661 76.977 -46.6637
10924.882318 76.835 -45.4778
11004.048518 76.713 -44.3044
11083.788390 76.612 -43.1469
11164.106090 76.532 -42.0135
11245.005805 76.475 -40.9109
11326.491752 76.439 -39.8407
11408.568180 76.427 -38.8031
11491.239368 76.439 -37.8031
11574.509626 76.476 -36.8515
11658.383294 76.540 -35.9577
11742.864745 76.633 -35.1268
11827.958384 76.756 -34.3647
11913.668646 76.912 -33.6844
12000.000000 77.106 -33.1080
12086.956947 77.339 -32.6618
12174.544019 77.614 -32.3749
12262.765784 77.936 -32.2833
12351.626840 78.306 -32.4357
12441.131819 78.726 -32.8930
12531.285389 79.194 -33.7225
12622.092249 79.706 -34.9945
12713.557132 80.255 -36.7830
12805.684808 80.829 -39.1610
12898.480079 81.412 -42.1909
12991.947783 81.986 -45.9132
13086.092792 82.529 -50.3413
13180.920015 83.018 -55.4600
13276.434395 83.430 -61.2201
13372.640911 83.744 -67.5339
13469.544580 83.943 -74.2754
13567.150452 84.015 -81.2899
13665.463617 83.956 -88.4077
13764.489200 83.767 -95.4565
13864.232362 83.459 -102.2762
13964.698305 83.047 -108.7344
14065.892266 82.554 -114.7383
14167.819519 82.003 -120.2365
14270.485380 81.419 -125.2157
14373.895200 80.827 -129.6977
14478.054370 80.252 -133.7378
14582.968320 79.716 -137.4187
14688.642520 79.237 -140.8435
14795.082478 78.831 -144.1342
14902.293745 78.512 -147.4321
15010.281908 78.285 -150.8935
15119.052599 78.152 -154.6826
15228.611486 78.103 -158.9637
15338.964283 78.121 -163.8895
15450.116741 78.175 -169.5824
15562.074656 78.225 -176.1145
15674.843864 78.224 176.5096
15788.430244 78.123 168.3690
15902.839718 77.877 159.6347
16018.078250 77.448 150.5623
16134.151848 76.816 141.4607
16251.066563 75.977 132.6473
16368.828491 74.939 124.4059
16487.443769 73.724 116.9607
16606.918584 72.355 110.4698
16727.259161 70.861 105.0335
16848.471777 69.268 100.7118
16970.562748 67.602 97.5381
17093.538442 65.886 95.5325
17217.405268 64.144 94.7181
17342.169684 62.396 95.1359
17467.838194 60.666 96.8557
17594.417350 58.980 99.9812
17721.913751 57.373 104.6319
17850.334044 55.891 110.8830
17979.684923 54.599 118.6581
18109.973131 53.572 127.6100
18241.205462 52.882 137.0800
18373.388756 52.562 146.2378
18506.529905 52.593 154.3495
18640.635849 52.910 160.9804
18775.713581 53.429 166.0185
18911.770141 54.074 169.5638
19048.812624 54.788 171.8020
19186.848172 55.526 172.9299
19325.883983 56.253 173.1406
19465.927305 56.938 172.6326
19606.985439 57.547 171.6321
19749.065738 58.046 170.4139
19892.175609 58.401 169.2993
20036.322514 58.585 168.6199
