* Measurement data measured by REW V5.31.3
* Source: EXCL: Microphone (USB Sound Device        ), MICROPHONE (Master Volume), R, volume: 0.390
* Format: 256k Log Swept Sine, 1 sweep at -17.0 dBFS with no timing reference
* Dated: Jul 6, 2025 12:16:51 AM
* REW Settings:
*  C-weighting compensation: Off
*  Target level: 75.0 dB
* Note: BGVP DMA L
* Measurement: L BGVP DMA
* Smoothing: 1/12 octave
* Frequency Step: 96 ppo
* Start Frequency: 0.36621094 Hz
*
* Freq(Hz) SPL(dB) Phase(degrees)
0.366211 94.745 156.5797
0.368865 94.739 156.5553
0.371538 94.731 156.5188
0.374230 94.720 156.4729
0.376942 94.708 156.4200
0.379673 94.695 156.3618
0.382424 94.681 156.2995
0.385196 94.667 156.2338
0.387987 94.653 156.1651
0.390798 94.639 156.0936
0.393630 94.624 156.0194
0.396483 94.609 155.9425
0.399356 94.595 155.8629
0.402250 94.580 155.7807
0.405165 94.565 155.6958
0.408101 94.550 155.6082
0.411058 94.534 155.5178
0.414037 94.519 155.4247
0.417037 94.504 155.3288
0.420059 94.488 155.2301
0.423103 94.473 155.1285
0.426169 94.457 155.0241
0.429257 94.441 154.9168
0.432368 94.425 154.8066
0.435501 94.409 154.6934
0.438656 94.392 154.5773
0.441835 94.376 154.4582
0.445037 94.360 154.3360
0.448262 94.343 154.2108
0.451510 94.326 154.0826
0.454782 94.310 153.9513
0.458077 94.293 153.8169
0.461397 94.275 153.6794
0.464740 94.258 153.5387
0.468108 94.241 153.3948
0.471500 94.223 153.2478
0.474917 94.206 153.0976
0.478358 94.188 152.9442
0.481825 94.170 152.7875
0.485316 94.152 152.6277
0.488833 94.134 152.4645
0.492375 94.116 152.2981
0.495943 94.098 152.1284
0.499537 94.079 151.9555
0.503157 94.061 151.7793
0.506803 94.042 151.5998
0.510475 94.023 151.4169
0.514175 94.004 151.2309
0.517900 93.985 151.0415
0.521653 93.965 150.8488
0.525434 93.946 150.6528
0.529241 93.926 150.4536
0.533076 93.907 150.2511
0.536939 93.887 150.0453
0.540830 93.867 149.8364
0.544749 93.847 149.6242
0.548696 93.826 149.4088
0.552673 93.806 149.1902
0.556677 93.785 148.9685
0.560711 93.764 148.7437
0.564774 93.744 148.5158
0.568867 93.723 148.2849
0.572989 93.701 148.0510
0.577141 93.680 147.8141
0.581324 93.658 147.5743
0.585536 93.637 147.3317
0.589779 93.615 147.0863
0.594053 93.593 146.8383
0.598358 93.571 146.5875
0.602694 93.548 146.3342
0.607061 93.526 146.0784
0.611460 93.503 145.8202
0.615891 93.481 145.5597
0.620354 93.458 145.2970
0.624849 93.434 145.0322
0.629377 93.411 144.7654
0.633938 93.388 144.4967
0.638532 93.364 144.2263
0.643159 93.340 143.9543
0.647819 93.316 143.6809
0.652514 93.292 143.4061
0.657242 93.268 143.1301
0.662005 93.243 142.8532
0.666802 93.219 142.5755
0.671634 93.194 142.2971
0.676501 93.169 142.0183
0.681403 93.143 141.7393
0.686341 93.118 141.4603
0.691314 93.092 141.1814
0.696324 93.067 140.9030
0.701370 93.040 140.6252
0.706452 93.014 140.3482
0.711571 92.987 140.0719
0.716728 92.959 139.7965
0.721921 92.930 139.5217
0.727153 92.899 139.2469
0.732422 92.867 138.9714
0.737729 92.832 138.6941
0.743075 92.796 138.4139
0.748460 92.758 138.1299
0.753883 92.718 137.8412
0.759346 92.678 137.5474
0.764849 92.636 137.2480
0.770391 92.594 136.9429
0.775974 92.552 136.6318
0.781597 92.509 136.3147
0.787261 92.465 135.9914
0.792966 92.421 135.6619
0.798712 92.376 135.3261
0.804500 92.331 134.9839
0.810329 92.285 134.6353
0.816201 92.238 134.2802
0.822116 92.191 133.9187
0.828073 92.143 133.5506
0.834074 92.094 133.1759
0.840118 92.045 132.7947
0.846206 91.994 132.4068
0.852338 91.943 132.0123
0.858514 91.891 131.6112
0.864735 91.839 131.2034
0.871001 91.785 130.7891
0.877313 91.730 130.3682
0.883670 91.675 129.9408
0.890074 91.618 129.5070
0.896524 91.560 129.0668
0.903020 91.501 128.6203
0.909564 91.442 128.1675
0.916155 91.380 127.7088
0.922794 91.318 127.2441
0.929481 91.254 126.7736
0.936216 91.189 126.2976
0.943000 91.123 125.8162
0.949834 91.055 125.3298
0.956717 90.986 124.8384
0.963649 90.915 124.3425
0.970632 90.842 123.8424
0.977666 90.768 123.3384
0.984750 90.693 122.8309
0.991886 90.615 122.3204
0.999074 90.536 121.8074
1.006314 90.455 121.2922
1.013606 90.371 120.7756
1.020951 90.286 120.2581
1.028349 90.199 119.7404
1.035801 90.109 119.2232
1.043307 90.018 118.7071
1.050867 89.924 118.1931
1.058482 89.828 117.6819
1.066152 89.729 117.1742
1.073878 89.628 116.6708
1.081660 89.525 116.1722
1.089498 89.421 115.6788
1.097393 89.314 115.1904
1.105345 89.207 114.7066
1.113355 89.099 114.2267
1.121423 88.991 113.7500
1.129549 88.883 113.2757
1.137734 88.775 112.8031
1.145979 88.667 112.3317
1.154283 88.560 111.8610
1.162647 88.452 111.3906
1.171072 88.344 110.9199
1.179558 88.235 110.4486
1.188106 88.124 109.9762
1.196715 88.013 109.5023
1.205387 87.900 109.0264
1.214122 87.785 108.5481
1.222920 87.668 108.0668
1.231782 87.548 107.5820
1.240708 87.425 107.0932
1.249699 87.298 106.5999
1.258754 87.167 106.1013
1.267876 87.033 105.5970
1.277063 86.893 105.0863
1.286318 86.748 104.5685
1.295639 86.597 104.0429
1.305027 86.440 103.5089
1.314484 86.277 102.9656
1.324009 86.106 102.4122
1.333604 85.927 101.8481
1.343268 85.740 101.2725
1.353002 85.544 100.6844
1.362806 85.339 100.0831
1.372681 85.123 99.4679
1.382628 84.896 98.8379
1.392647 84.658 98.1925
1.402739 84.408 97.5309
1.412904 84.144 96.8529
1.423142 83.866 96.1580
1.433455 83.573 95.4464
1.443843 83.262 94.7184
1.454305 82.932 93.9748
1.464844 82.580 93.2167
1.475459 82.202 92.4455
1.486150 81.795 91.6619
1.496920 81.356 90.8664
1.507767 80.885 90.0583
1.518693 80.381 89.2364
1.529698 79.845 88.3989
1.540783 79.277 87.5431
1.551948 78.680 86.6660
1.563194 78.055 85.7638
1.574521 77.405 84.8322
1.585931 76.733 83.8657
1.597423 76.042 82.8582
1.608999 75.334 81.8021
1.620658 74.613 80.6882
1.632402 73.882 79.5054
1.644232 73.145 78.2400
1.656146 72.407 76.8750
1.668147 71.671 75.3889
1.680235 70.943 73.7545
1.692411 70.226 71.9366
1.704675 69.528 69.8895
1.717028 68.854 67.5524
1.729470 68.209 64.8440
1.742003 67.602 61.6535
1.754626 67.039 57.8289
1.767341 66.530 53.1610
1.780147 66.081 47.3642
1.793047 65.703 40.0645
1.806040 65.404 30.8256
1.819128 65.193 19.2843
1.832310 65.075 5.4862
1.845587 65.055 -9.7094
1.858961 65.134 -24.7278
1.872432 65.310 -38.1354
1.886001 65.577 -49.3234
1.899667 65.930 -58.3890
1.913433 66.362 -65.7141
1.927299 66.863 -71.6969
1.941265 67.426 -76.6621
1.955332 68.041 -80.8529
1.969501 68.700 -84.4463
1.983773 69.394 -87.5707
1.998148 70.113 -90.3198
2.012627 70.851 -92.7629
2.027212 71.597 -94.9520
2.041902 72.344 -96.9267
2.056698 73.084 -98.7172
2.071602 73.808 -100.3476
2.086614 74.510 -101.8368
2.101734 75.181 -103.2004
2.116964 75.816 -104.4517
2.132304 76.407 -105.6028
2.147756 76.952 -106.6659
2.163320 77.446 -107.6545
2.178996 77.889 -108.5839
2.194786 78.282 -109.4722
2.210690 78.631 -110.3387
2.226710 78.938 -111.2013
2.242845 79.211 -112.0731
2.259098 79.452 -112.9619
2.275468 79.664 -113.8708
2.291957 79.850 -114.7991
2.308566 80.012 -115.7443
2.325295 80.151 -116.7022
2.342145 80.269 -117.6678
2.359117 80.367 -118.6357
2.376212 80.448 -119.6000
2.393431 80.512 -120.5545
2.410775 80.561 -121.4932
2.428244 80.598 -122.4096
2.445840 80.624 -123.2974
2.463564 80.640 -124.1505
2.481416 80.649 -124.9634
2.499397 80.652 -125.7315
2.517509 80.650 -126.4524
2.535752 80.644 -127.1265
2.554127 80.633 -127.7579
2.572635 80.617 -128.3547
2.591277 80.592 -128.9270
2.610055 80.558 -129.4845
2.628968 80.513 -130.0345
2.648019 80.456 -130.5809
2.667208 80.387 -131.1249
2.686535 80.306 -131.6654
2.706003 80.212 -132.1995
2.725612 80.107 -132.7225
2.745363 79.991 -133.2285
2.765257 79.863 -133.7102
2.785295 79.726 -134.1592
2.805478 79.578 -134.5654
2.825808 79.422 -134.9179
2.846285 79.256 -135.2045
2.866910 79.081 -135.4122
2.887685 78.895 -135.5284
2.908611 78.697 -135.5408
2.929688 78.485 -135.4390
2.950917 78.255 -135.2141
2.972301 78.005 -134.8580
2.993839 77.733 -134.3623
3.015534 77.441 -133.7172
3.037386 77.130 -132.9109
3.059396 76.804 -131.9299
3.081565 76.468 -130.7591
3.103896 76.128 -129.3825
3.126388 75.792 -127.7838
3.149043 75.467 -125.9481
3.171862 75.161 -123.8629
3.194847 74.884 -121.5204
3.217998 74.644 -118.9182
3.241317 74.451 -116.0612
3.264805 74.313 -112.9611
3.288463 74.236 -109.6361
3.312293 74.223 -106.1118
3.336295 74.274 -102.4246
3.360471 74.387 -98.6271
3.384822 74.556 -94.7881
3.409350 74.774 -90.9867
3.434056 75.034 -87.3032
3.458940 75.327 -83.8100
3.484005 75.646 -80.5648
3.509252 75.983 -77.6080
3.534681 76.330 -74.9624
3.560295 76.680 -72.6362
3.586094 77.030 -70.6252
3.612081 77.374 -68.9169
3.638255 77.712 -67.4922
3.664620 78.044 -66.3276
3.691175 78.373 -65.3972
3.717923 78.702 -64.6745
3.744864 79.031 -64.1335
3.772001 79.361 -63.7498
3.799335 79.691 -63.5012
3.826866 80.018 -63.3677
3.854597 80.340 -63.3316
3.882529 80.654 -63.3779
3.910664 80.958 -63.4943
3.939002 81.248 -63.6716
3.967546 81.522 -63.9037
3.996296 81.779 -64.1878
4.025255 82.018 -64.5241
4.054423 82.238 -64.9144
4.083804 82.440 -65.3593
4.113396 82.625 -65.8567
4.143204 82.794 -66.4007
4.173227 82.948 -66.9825
4.203468 83.088 -67.5918
4.233928 83.214 -68.2178
4.264609 83.329 -68.8501
4.295512 83.432 -69.4798
4.326639 83.524 -70.1006
4.357992 83.606 -70.7097
4.389572 83.677 -71.3078
4.421380 83.737 -71.8991
4.453419 83.786 -72.4882
4.485691 83.822 -73.0777
4.518196 83.847 -73.6665
4.550936 83.860 -74.2501
4.583914 83.864 -74.8211
4.617131 83.857 -75.3704
4.650589 83.842 -75.8881
4.684289 83.819 -76.3647
4.718233 83.788 -76.7921
4.752424 83.750 -77.1653
4.786862 83.703 -77.4819
4.821549 83.648 -77.7423
4.856488 83.585 -77.9475
4.891680 83.515 -78.0981
4.927127 83.439 -78.1934
4.962831 83.359 -78.2316
4.998794 83.277 -78.2098
5.035017 83.196 -78.1241
5.071503 83.116 -77.9697
5.108253 83.039 -77.7416
5.145270 82.966 -77.4352
5.182555 82.896 -77.0479
5.220110 82.830 -76.5806
5.257937 82.769 -76.0386
5.296038 82.713 -75.4311
5.334415 82.665 -74.7706
5.373071 82.627 -74.0707
5.412006 82.600 -73.3451
5.451224 82.586 -72.6054
5.490725 82.586 -71.8601
5.530514 82.603 -71.1148
5.570590 82.634 -70.3749
5.610957 82.679 -69.6484
5.651616 82.737 -68.9467
5.692570 82.806 -68.2835
5.733821 82.884 -67.6737
5.775370 82.970 -67.1309
5.817221 83.062 -66.6657
5.859375 83.159 -66.2849
5.901834 83.262 -65.9907
5.944602 83.369 -65.7821
5.987679 83.480 -65.6565
6.031068 83.593 -65.6108
6.074771 83.706 -65.6424
6.118792 83.816 -65.7493
6.163131 83.923 -65.9305
6.207792 84.024 -66.1854
6.252776 84.119 -66.5131
6.298086 84.208 -66.9114
6.343725 84.289 -67.3751
6.389694 84.364 -67.8960
6.435996 84.431 -68.4646
6.482634 84.490 -69.0712
6.529610 84.541 -69.7079
6.576926 84.583 -70.3695
6.624585 84.617 -71.0534
6.672590 84.641 -71.7580
6.720942 84.656 -72.4800
6.769645 84.663 -73.2135
6.818700 84.662 -73.9502
6.868111 84.655 -74.6812
6.917881 84.641 -75.3985
6.968010 84.620 -76.0967
7.018504 84.594 -76.7728
7.069362 84.563 -77.4254
7.120590 84.527 -78.0528
7.172189 84.489 -78.6525
7.224161 84.449 -79.2208
7.276511 84.409 -79.7535
7.329239 84.370 -80.2473
7.382350 84.334 -80.7007
7.435845 84.299 -81.1145
7.489729 84.269 -81.4922
7.544002 84.243 -81.8389
7.598669 84.224 -82.1601
7.653732 84.213 -82.4605
7.709194 84.211 -82.7442
7.765058 84.217 -83.0148
7.821327 84.233 -83.2775
7.878004 84.258 -83.5398
7.935091 84.292 -83.8105
7.992592 84.336 -84.0984
8.050510 84.388 -84.4108
8.108847 84.448 -84.7523
8.167607 84.516 -85.1257
8.226793 84.592 -85.5332
8.286408 84.673 -85.9774
8.346454 84.758 -86.4604
8.406936 84.846 -86.9841
8.467856 84.937 -87.5486
8.529218 85.030 -88.1519
8.591024 85.123 -88.7903
8.653278 85.217 -89.4591
8.715983 85.309 -90.1533
8.779143 85.400 -90.8684
8.842760 85.488 -91.6006
8.906839 85.574 -92.3452
8.971381 85.657 -93.0965
9.036392 85.738 -93.8478
9.101873 85.815 -94.5925
9.167829 85.891 -95.3251
9.234263 85.963 -96.0414
9.301178 86.034 -96.7381
9.368578 86.103 -97.4113
9.436467 86.170 -98.0575
9.504847 86.238 -98.6733
9.573723 86.305 -99.2567
9.643099 86.373 -99.8071
9.712976 86.442 -100.3249
9.783361 86.512 -100.8112
9.854255 86.585 -101.2673
9.925663 86.660 -101.6950
9.997588 86.738 -102.0963
10.070035 86.819 -102.4745
10.143007 86.902 -102.8333
10.216507 86.989 -103.1765
10.290540 87.078 -103.5075
10.365109 87.169 -103.8292
10.440219 87.263 -104.1442
10.515873 87.357 -104.4551
10.592076 87.453 -104.7641
10.668830 87.549 -105.0729
10.746141 87.645 -105.3822
10.824012 87.741 -105.6921
10.902447 87.835 -106.0023
10.981451 87.928 -106.3122
11.061027 88.019 -106.6210
11.141180 88.107 -106.9276
11.221913 88.194 -107.2305
11.303232 88.277 -107.5281
11.385140 88.358 -107.8191
11.467641 88.436 -108.1022
11.550741 88.512 -108.3766
11.634442 88.585 -108.6415
11.718750 88.656 -108.8964
11.803669 88.724 -109.1411
11.889203 88.791 -109.3758
11.975357 88.855 -109.6010
12.062136 88.917 -109.8174
12.149543 88.978 -110.0256
12.237583 89.037 -110.2266
12.326262 89.094 -110.4212
12.415583 89.149 -110.6104
12.505552 89.202 -110.7949
12.596172 89.254 -110.9755
12.687449 89.303 -111.1526
12.779387 89.351 -111.3266
12.871992 89.397 -111.4980
12.965268 89.442 -111.6670
13.059220 89.484 -111.8342
13.153852 89.526 -112.0001
13.249170 89.566 -112.1652
13.345179 89.605 -112.3306
13.441884 89.643 -112.4976
13.539289 89.680 -112.6678
13.637401 89.717 -112.8428
13.736223 89.754 -113.0248
13.835761 89.791 -113.2159
13.936021 89.827 -113.4185
14.037007 89.863 -113.6347
14.138725 89.898 -113.8662
14.241180 89.933 -114.1146
14.344377 89.967 -114.3810
14.448323 89.999 -114.6658
14.553021 90.031 -114.9688
14.658478 90.060 -115.2891
14.764700 90.088 -115.6254
14.871691 90.115 -115.9760
14.979457 90.139 -116.3386
15.088005 90.162 -116.7108
15.197339 90.183 -117.0906
15.307465 90.203 -117.4757
15.418389 90.223 -117.8645
15.530117 90.242 -118.2560
15.642655 90.262 -118.6495
15.756008 90.283 -119.0453
15.870182 90.305 -119.4440
15.985184 90.329 -119.8470
16.101019 90.355 -120.2557
16.217694 90.383 -120.6719
16.335214 90.413 -121.0971
16.453586 90.446 -121.5325
16.572815 90.479 -121.9788
16.692909 90.515 -122.4359
16.813872 90.551 -122.9030
16.935713 90.589 -123.3787
17.058436 90.626 -123.8607
17.182048 90.665 -124.3463
17.306556 90.703 -124.8326
17.431967 90.741 -125.3164
17.558286 90.780 -125.7949
17.685521 90.819 -126.2655
17.813677 90.859 -126.7263
17.942762 90.900 -127.1759
18.072783 90.941 -127.6135
18.203746 90.984 -128.0390
18.335658 91.028 -128.4528
18.468526 91.074 -128.8557
18.602356 91.120 -129.2486
18.737156 91.168 -129.6322
18.872934 91.216 -130.0075
19.009695 91.265 -130.3750
19.147447 91.314 -130.7351
19.286197 91.363 -131.0877
19.425953 91.411 -131.4330
19.566721 91.459 -131.7708
19.708510 91.506 -132.1011
19.851326 91.553 -132.4239
19.995177 91.598 -132.7395
20.140070 91.642 -133.0483
20.286013 91.685 -133.3507
20.433014 91.726 -133.6474
20.581080 91.766 -133.9390
20.730219 91.805 -134.2260
20.880439 91.841 -134.5089
21.031747 91.876 -134.7882
21.184152 91.909 -135.0643
21.337661 91.940 -135.3377
21.492282 91.970 -135.6091
21.648024 91.998 -135.8795
21.804895 92.025 -136.1503
21.962902 92.050 -136.4228
22.122054 92.075 -136.6988
22.282360 92.098 -136.9800
22.443827 92.120 -137.2679
22.606464 92.141 -137.5639
22.770280 92.161 -137.8687
22.935283 92.179 -138.1826
23.101481 92.196 -138.5053
23.268884 92.213 -138.8362
23.437500 92.228 -139.1746
23.607338 92.242 -139.5195
23.778406 92.255 -139.8704
23.950714 92.269 -140.2267
24.124271 92.283 -140.5884
24.299086 92.297 -140.9558
24.475167 92.311 -141.3291
24.652524 92.327 -141.7087
24.831166 92.343 -142.0947
25.011103 92.360 -142.4866
25.192344 92.377 -142.8837
25.374898 92.396 -143.2849
25.558775 92.415 -143.6888
25.743984 92.434 -144.0937
25.930536 92.455 -144.4981
26.118439 92.476 -144.9006
26.307704 92.498 -145.3002
26.498341 92.521 -145.6960
26.690359 92.545 -146.0874
26.883768 92.569 -146.4740
27.078579 92.594 -146.8554
27.274801 92.619 -147.2312
27.472446 92.645 -147.6010
27.671522 92.670 -147.9646
27.872042 92.696 -148.3217
28.074014 92.721 -148.6722
28.277450 92.745 -149.0161
28.482360 92.769 -149.3536
28.688755 92.793 -149.6848
28.896645 92.815 -150.0102
29.106042 92.837 -150.3301
29.316957 92.857 -150.6451
29.529400 92.876 -150.9556
29.743382 92.894 -151.2625
29.958915 92.911 -151.5667
30.176009 92.927 -151.8695
30.394677 92.942 -152.1719
30.614929 92.956 -152.4751
30.836778 92.969 -152.7801
31.060234 92.981 -153.0875
31.285309 92.992 -153.3981
31.512015 93.002 -153.7122
31.740364 93.012 -154.0302
31.970368 93.021 -154.3526
32.202039 93.030 -154.6799
32.435388 93.038 -155.0126
32.670428 93.047 -155.3508
32.907171 93.055 -155.6946
33.145630 93.064 -156.0436
33.385817 93.073 -156.3970
33.627745 93.081 -156.7539
33.871425 93.090 -157.1134
34.116871 93.099 -157.4747
34.364096 93.109 -157.8368
34.613113 93.118 -158.1991
34.863934 93.128 -158.5607
35.116572 93.138 -158.9205
35.371041 93.148 -159.2773
35.627354 93.158 -159.6298
35.885525 93.168 -159.9772
36.145566 93.178 -160.3194
36.407492 93.188 -160.6568
36.671316 93.199 -160.9909
36.937051 93.209 -161.3234
37.204712 93.220 -161.6557
37.474313 93.229 -161.9888
37.745867 93.238 -162.3226
38.019389 93.246 -162.6563
38.294893 93.252 -162.9883
38.572394 93.257 -163.3176
38.851905 93.261 -163.6436
39.133442 93.264 -163.9668
39.417019 93.267 -164.2889
39.702651 93.270 -164.6121
39.990353 93.273 -164.9382
40.280140 93.275 -165.2686
40.572026 93.276 -165.6029
40.866028 93.276 -165.9394
41.162160 93.276 -166.2758
41.460438 93.275 -166.6097
41.760877 93.273 -166.9394
42.063494 93.272 -167.2648
42.368303 93.271 -167.5869
42.675322 93.272 -167.9071
42.984565 93.272 -168.2269
43.296048 93.274 -168.5470
43.609789 93.275 -168.8673
43.925804 93.276 -169.1873
44.244108 93.278 -169.5063
44.564719 93.279 -169.8242
44.887654 93.280 -170.1411
45.212928 93.281 -170.4572
45.540560 93.281 -170.7725
45.870565 93.280 -171.0861
46.202962 93.279 -171.3972
46.537768 93.278 -171.7049
46.875000 93.276 -172.0094
47.214676 93.274 -172.3119
47.556813 93.272 -172.6141
47.901429 93.271 -172.9185
48.248542 93.269 -173.2267
48.598171 93.267 -173.5391
48.950334 93.264 -173.8549
49.305048 93.261 -174.1722
49.662333 93.257 -174.4890
50.022206 93.252 -174.8037
50.384688 93.247 -175.1154
50.749796 93.242 -175.4242
51.117550 93.236 -175.7301
51.487969 93.230 -176.0328
51.861072 93.224 -176.3315
52.236879 93.217 -176.6255
52.615409 93.210 -176.9148
52.996681 93.203 -177.2002
53.380717 93.197 -177.4835
53.767536 93.191 -177.7665
54.157158 93.185 -178.0504
54.549603 93.178 -178.3360
54.944892 93.172 -178.6237
55.343045 93.167 -178.9140
55.744084 93.161 -179.2077
56.148028 93.155 -179.5057
56.554900 93.150 -179.8087
56.964720 93.145 179.8830
57.377510 93.140 179.5695
57.793291 93.134 179.2512
58.212085 93.129 178.9296
58.633914 93.122 178.6070
59.058799 93.115 178.2860
59.486764 93.108 177.9688
59.917829 93.101 177.6560
60.352019 93.094 177.3464
60.789354 93.087 177.0381
61.229859 93.079 176.7299
61.673556 93.071 176.4223
62.120468 93.063 176.1167
62.570618 93.053 175.8148
63.024031 93.044 175.5168
63.480729 93.034 175.2221
63.940736 93.024 174.9286
64.404077 93.013 174.6345
64.870776 93.003 174.3386
65.340856 92.991 174.0408
65.814343 92.979 173.7419
66.291261 92.966 173.4435
66.771635 92.952 173.1469
67.255489 92.937 172.8527
67.742850 92.922 172.5611
68.233743 92.906 172.2723
68.728193 92.890 171.9861
69.226226 92.874 171.7021
69.727867 92.857 171.4196
70.233144 92.841 171.1373
70.742083 92.824 170.8551
71.254709 92.808 170.5734
71.771050 92.791 170.2926
72.291132 92.775 170.0126
72.814984 92.758 169.7325
73.342631 92.742 169.4515
73.874102 92.727 169.1697
74.409424 92.710 168.8880
74.948626 92.694 168.6076
75.491734 92.678 168.3293
76.038779 92.661 168.0532
76.589787 92.645 167.7783
77.144788 92.629 167.5031
77.703811 92.612 167.2255
78.266885 92.596 166.9436
78.834039 92.579 166.6560
79.405303 92.562 166.3619
79.980706 92.544 166.0604
80.560280 92.525 165.7513
81.144053 92.506 165.4352
81.732056 92.485 165.1133
82.324320 92.463 164.7869
82.920876 92.439 164.4571
83.521755 92.415 164.1253
84.126988 92.390 163.7936
84.736607 92.364 163.4652
85.350643 92.337 163.1440
85.969129 92.310 162.8330
86.592097 92.283 162.5345
87.219579 92.256 162.2499
87.851608 92.230 161.9797
88.488217 92.204 161.7242
89.129439 92.179 161.4822
89.775308 92.154 161.2509
90.425856 92.130 161.0263
91.081119 92.105 160.8027
91.741131 92.080 160.5730
92.405925 92.054 160.3315
93.075536 92.025 160.0772
93.750000 91.993 159.8152
94.429351 91.959 159.5522
95.113625 91.925 159.2921
95.802858 91.890 159.0338
96.497085 91.857 158.7747
97.196342 91.826 158.5139
97.900667 91.795 158.2537
98.610096 91.765 157.9975
99.324665 91.736 157.7487
100.044413 91.707 157.5092
100.769376 91.677 157.2795
101.499592 91.647 157.0587
102.235100 91.616 156.8452
102.975938 91.585 156.6372
103.722144 91.552 156.4320
104.473757 91.520 156.2263
105.230817 91.487 156.0173
105.993363 91.455 155.8031
106.761435 91.422 155.5828
107.535072 91.389 155.3561
108.314315 91.355 155.1230
109.099206 91.321 154.8832
109.889783 91.286 154.6359
110.686090 91.250 154.3808
111.488167 91.213 154.1190
112.296056 91.176 153.8535
113.109800 91.138 153.5895
113.929440 91.101 153.3346
114.755020 91.064 153.0972
115.586582 91.029 152.8844
116.424170 90.996 152.6995
117.267827 90.965 152.5393
118.117598 90.937 152.3937
118.973527 90.907 152.2477
119.835658 90.874 152.0917
120.704037 90.836 151.9307
121.578708 90.791 151.7767
122.459718 90.741 151.6337
123.347111 90.691 151.4957
124.240935 90.640 151.3555
125.141236 90.591 151.2090
126.048061 90.544 151.0562
126.961458 90.499 150.8995
127.881473 90.457 150.7426
128.808154 90.416 150.5885
129.741551 90.376 150.4391
130.681712 90.337 150.2949
131.628686 90.298 150.1550
132.582521 90.259 150.0197
133.543269 90.218 149.8903
134.510979 90.176 149.7692
135.485701 90.134 149.6591
136.467486 90.091 149.5624
137.456386 90.047 149.4813
138.452451 90.005 149.4167
139.455735 89.964 149.3675
140.466288 89.925 149.3299
141.484165 89.890 149.2993
142.509418 89.857 149.2707
143.542100 89.828 149.2383
144.582265 89.802 149.1966
145.629968 89.778 149.1418
146.685262 89.753 149.0739
147.748204 89.728 148.9944
148.818849 89.701 148.9064
149.897251 89.673 148.8132
150.983469 89.643 148.7188
152.077557 89.613 148.6265
153.179574 89.582 148.5376
154.289576 89.552 148.4506
155.407622 89.524 148.3633
156.533770 89.497 148.2735
157.668078 89.472 148.1781
158.810606 89.449 148.0729
159.961413 89.428 147.9527
161.120559 89.406 147.8127
162.288105 89.383 147.6485
163.464112 89.357 147.4594
164.648640 89.326 147.2526
165.841752 89.291 147.0424
167.043510 89.253 146.8419
168.253976 89.214 146.6583
169.473213 89.175 146.4940
170.701286 89.137 146.3491
171.938258 89.100 146.2214
173.184194 89.065 146.1059
174.439158 89.030 145.9957
175.703216 88.996 145.8860
176.976434 88.963 145.7762
178.258878 88.929 145.6691
179.550615 88.894 145.5669
180.851713 88.858 145.4694
182.162239 88.820 145.3744
183.482262 88.782 145.2785
184.811850 88.742 145.1767
186.151073 88.703 145.0646
187.500000 88.663 144.9432
188.858702 88.623 144.8196
190.227250 88.584 144.7030
191.605715 88.545 144.5995
192.994169 88.505 144.5112
194.392685 88.466 144.4363
195.801334 88.426 144.3722
197.220191 88.385 144.3167
198.649330 88.345 144.2688
200.088825 88.306 144.2280
201.538751 88.268 144.1927
202.999184 88.231 144.1603
204.470200 88.196 144.1271
205.951875 88.163 144.0896
207.444287 88.129 144.0452
208.947514 88.096 143.9942
210.461634 88.061 143.9396
211.986726 88.024 143.8863
213.522869 87.985 143.8393
215.070144 87.944 143.8030
216.628631 87.902 143.7805
218.198411 87.861 143.7724
219.779567 87.820 143.7761
221.372180 87.781 143.7858
222.976334 87.744 143.7950
224.592112 87.709 143.7995
226.219600 87.675 143.7968
227.858880 87.641 143.7864
229.510039 87.608 143.7686
231.173164 87.576 143.7448
232.848340 87.545 143.7169
234.535655 87.514 143.6862
236.235197 87.484 143.6531
237.947054 87.455 143.6174
239.671317 87.426 143.5804
241.408074 87.395 143.5450
243.157416 87.364 143.5152
244.919435 87.330 143.4956
246.694223 87.294 143.4903
248.481871 87.257 143.5014
250.282473 87.219 143.5295
252.096123 87.181 143.5741
253.922915 87.146 143.6317
255.762945 87.113 143.6943
257.616309 87.083 143.7502
259.483103 87.055 143.7891
261.363424 87.029 143.8072
263.257372 87.002 143.8096
265.165043 86.974 143.8064
267.086538 86.946 143.8083
269.021957 86.917 143.8221
270.971401 86.890 143.8503
272.934972 86.865 143.8906
274.912771 86.843 143.9383
276.904902 86.822 143.9884
278.911469 86.805 144.0373
280.932577 86.789 144.0821
282.968330 86.775 144.1198
285.018835 86.762 144.1463
287.084199 86.751 144.1565
289.164530 86.739 144.1467
291.259935 86.726 144.1177
293.370525 86.711 144.0768
295.496408 86.693 144.0349
297.637697 86.672 144.0021
299.794503 86.649 143.9846
301.966937 86.625 143.9833
304.155114 86.602 143.9960
306.359147 86.578 144.0184
308.579152 86.555 144.0461
310.815244 86.533 144.0745
313.067539 86.510 144.1003
315.336156 86.486 144.1221
317.621211 86.462 144.1413
319.922826 86.438 144.1606
322.241118 86.415 144.1809
324.576210 86.393 144.2012
326.928223 86.373 144.2193
329.297280 86.356 144.2333
331.683504 86.340 144.2425
334.087019 86.326 144.2467
336.507952 86.313 144.2463
338.946427 86.301 144.2416
341.402572 86.288 144.2340
343.876516 86.274 144.2255
346.368387 86.260 144.2184
348.878315 86.246 144.2138
351.406431 86.231 144.2115
353.952867 86.217 144.2104
356.517756 86.203 144.2098
359.101230 86.189 144.2092
361.703426 86.176 144.2093
364.324478 86.163 144.2101
366.964523 86.150 144.2118
369.623699 86.138 144.2141
372.302145 86.126 144.2168
375.000000 86.114 144.2197
377.717405 86.103 144.2225
380.454501 86.092 144.2246
383.211431 86.081 144.2258
385.988339 86.072 144.2263
388.785369 86.062 144.2266
391.602668 86.053 144.2279
394.440383 86.045 144.2305
397.298660 86.037 144.2341
400.177650 86.031 144.2374
403.077502 86.025 144.2384
405.998368 86.020 144.2354
408.940400 86.015 144.2277
411.903750 86.009 144.2173
414.888575 86.004 144.2078
417.895028 85.998 144.2031
420.923268 85.992 144.2057
423.973452 85.987 144.2163
427.045738 85.984 144.2327
430.140287 85.983 144.2502
433.257261 85.983 144.2634
436.396822 85.985 144.2686
439.559133 85.989 144.2654
442.744360 85.993 144.2540
445.952668 86.000 144.2330
449.184225 86.008 144.1985
452.439199 86.016 144.1453
455.717760 86.024 144.0709
459.020079 86.029 143.9795
462.346327 86.031 143.8817
465.696680 86.030 143.7890
469.071310 86.028 143.7081
472.470394 86.025 143.6401
475.894109 86.023 143.5822
479.342634 86.022 143.5292
482.816148 86.021 143.4760
486.314833 86.021 143.4211
489.838871 86.019 143.3688
493.388445 86.017 143.3264
496.963741 86.016 143.2967
500.564945 86.017 143.2753
504.192245 86.019 143.2536
507.845830 86.024 143.2239
511.525890 86.030 143.1824
515.232618 86.036 143.1295
518.966206 86.043 143.0686
522.726849 86.049 143.0045
526.514743 86.055 142.9414
530.330086 86.061 142.8803
534.173076 86.068 142.8184
538.043915 86.076 142.7509
541.942803 86.083 142.6767
545.869944 86.090 142.5987
549.825542 86.097 142.5195
553.809805 86.105 142.4385
557.822939 86.112 142.3536
561.865154 86.119 142.2627
565.936660 86.126 142.1667
570.037671 86.132 142.0682
574.168399 86.138 141.9705
578.329060 86.144 141.8749
582.519870 86.149 141.7810
586.741049 86.154 141.6888
590.992817 86.160 141.6010
595.275394 86.165 141.5202
599.589005 86.171 141.4458
603.933874 86.178 141.3737
608.310228 86.185 141.3004
612.718295 86.192 141.2250
617.158304 86.199 141.1501
621.630488 86.204 141.0815
626.135079 86.210 141.0256
630.672311 86.216 140.9837
635.242423 86.224 140.9509
639.845651 86.233 140.9202
644.482237 86.245 140.8888
649.152421 86.259 140.8569
653.856447 86.274 140.8225
658.594560 86.293 140.7790
663.367008 86.314 140.7167
668.174039 86.335 140.6285
673.015903 86.355 140.5154
677.892854 86.374 140.3860
682.805145 86.389 140.2499
687.753032 86.402 140.1151
692.736774 86.414 139.9873
697.756631 86.424 139.8710
702.812863 86.434 139.7679
707.905735 86.443 139.6759
713.035511 86.454 139.5908
718.202461 86.464 139.5092
723.406852 86.475 139.4298
728.648956 86.485 139.3536
733.929047 86.495 139.2816
739.247399 86.505 139.2148
744.604290 86.515 139.1536
750.000000 86.525 139.0988
755.434809 86.536 139.0506
760.909001 86.547 139.0090
766.422861 86.558 138.9732
771.976677 86.570 138.9425
777.570739 86.582 138.9163
783.205337 86.594 138.8947
788.880766 86.607 138.8795
794.597321 86.620 138.8743
800.355301 86.634 138.8818
806.155005 86.650 138.9010
811.996736 86.670 138.9264
817.880799 86.693 138.9499
823.807501 86.718 138.9628
829.777150 86.746 138.9576
835.790057 86.773 138.9327
841.846536 86.799 138.8946
847.946903 86.824 138.8537
854.091476 86.847 138.8182
860.280575 86.870 138.7922
866.514523 86.892 138.7783
872.793644 86.915 138.7791
879.118267 86.939 138.7929
885.488720 86.965 138.8147
891.905336 86.992 138.8397
898.368450 87.020 138.8669
904.878398 87.049 138.8976
911.435520 87.079 138.9325
918.040157 87.112 138.9695
924.692655 87.147 139.0063
931.393359 87.184 139.0399
938.142619 87.222 139.0672
944.940787 87.262 139.0865
951.788218 87.303 139.0988
958.685268 87.343 139.1067
965.632296 87.384 139.1124
972.629666 87.426 139.1182
979.677741 87.467 139.1243
986.776890 87.510 139.1304
993.927482 87.552 139.1376
1001.129891 87.596 139.1497
1008.384491 87.640 139.1700
1015.691660 87.686 139.1973
1023.051781 87.736 139.2264
1030.465236 87.790 139.2498
1037.932411 87.847 139.2562
1045.453698 87.908 139.2343
1053.029486 87.969 139.1793
1060.660172 88.029 139.0956
1068.346153 88.088 138.9920
1076.087829 88.144 138.8783
1083.885605 88.199 138.7614
1091.739887 88.252 138.6436
1099.651084 88.305 138.5247
1107.619609 88.357 138.4046
1115.645878 88.408 138.2840
1123.730308 88.458 138.1638
1131.873321 88.507 138.0455
1140.075341 88.556 137.9301
1148.336797 88.604 137.8186
1156.658119 88.653 137.7118
1165.039741 88.702 137.6107
1173.482099 88.751 137.5167
1181.985634 88.803 137.4286
1190.550789 88.857 137.3401
1199.178011 88.913 137.2401
1207.867749 88.972 137.1167
1216.620457 89.030 136.9650
1225.436590 89.087 136.7890
1234.316609 89.140 136.5975
1243.260976 89.191 136.3995
1252.270157 89.239 136.2034
1261.344623 89.285 136.0135
1270.484846 89.329 135.8316
1279.691303 89.372 135.6593
1288.964474 89.415 135.4979
1298.304842 89.457 135.3466
1307.712894 89.499 135.2027
1317.189120 89.542 135.0624
1326.734016 89.584 134.9233
1336.348077 89.626 134.7860
1346.031806 89.667 134.6530
1355.785708 89.706 134.5280
1365.610290 89.746 134.4146
1375.506065 89.785 134.3173
1385.473549 89.824 134.2405
1395.513261 89.866 134.1846
1405.625726 89.911 134.1435
1415.811469 89.961 134.1047
1426.071023 90.014 134.0534
1436.404921 90.070 133.9804
1446.813703 90.127 133.8849
1457.297912 90.183 133.7722
1467.858093 90.239 133.6485
1478.494798 90.294 133.5185
1489.208581 90.348 133.3859
1500.000000 90.401 133.2542
1510.869618 90.454 133.1260
1521.818002 90.506 133.0034
1532.845723 90.559 132.8879
1543.953355 90.612 132.7803
1555.141477 90.668 132.6802
1566.410674 90.727 132.5828
1577.761531 90.790 132.4766
1589.194642 90.856 132.3475
1600.710601 90.923 132.1863
1612.310010 90.990 131.9920
1623.993473 91.056 131.7698
1635.761599 91.120 131.5267
1647.615002 91.181 131.2690
1659.554299 91.239 131.0015
1671.580114 91.296 130.7278
1683.693072 91.350 130.4487
1695.893807 91.403 130.1624
1708.182952 91.454 129.8669
1720.561150 91.502 129.5624
1733.029045 91.546 129.2522
1745.587288 91.587 128.9417
1758.236533 91.625 128.6382
1770.977440 91.660 128.3485
1783.810673 91.694 128.0734
1796.736900 91.729 127.8050
1809.756796 91.763 127.5309
1822.871040 91.796 127.2423
1836.080315 91.825 126.9382
1849.385310 91.851 126.6234
1862.786718 91.871 126.3055
1876.285239 91.885 125.9940
1889.881575 91.892 125.6996
1903.576436 91.893 125.4335
1917.370535 91.889 125.2063
1931.264593 91.881 125.0269
1945.259332 91.871 124.8995
1959.355483 91.861 124.8208
1973.553781 91.851 124.7819
1987.854965 91.842 124.7762
2002.259781 91.833 124.8034
2016.768981 91.824 124.8682
2031.383320 91.817 124.9770
2046.103561 91.811 125.1348
2060.930471 91.809 125.3436
2075.864823 91.812 125.6002
2090.907395 91.821 125.8982
2106.058972 91.837 126.2309
2121.320344 91.860 126.5934
2136.692305 91.892 126.9827
2152.175658 91.934 127.3949
2167.771210 91.988 127.8200
2183.479774 92.055 128.2388
2199.302169 92.135 128.6276
2215.239219 92.226 128.9670
2231.291755 92.327 129.2446
2247.460615 92.434 129.4549
2263.746641 92.547 129.5982
2280.150683 92.662 129.6788
2296.673595 92.781 129.7029
2313.316238 92.902 129.6756
2330.079481 93.025 129.5972
2346.964198 93.152 129.4603
2363.971268 93.280 129.2538
2381.101578 93.409 128.9693
2398.356022 93.537 128.6052
2415.735498 93.660 128.1647
2433.240913 93.778 127.6544
2450.873180 93.891 127.0805
2468.633217 93.996 126.4486
2486.521951 94.093 125.7652
2504.540314 94.181 125.0395
2522.689246 94.259 124.2840
2540.969692 94.329 123.5109
2559.382606 94.392 122.7264
2577.928947 94.448 121.9286
2596.609683 94.498 121.1128
2615.425787 94.541 120.2758
2634.378241 94.576 119.4187
2653.468031 94.602 118.5474
2672.696154 94.618 117.6716
2692.063613 94.625 116.8034
2711.571415 94.624 115.9517
2731.220579 94.617 115.1180
2751.012130 94.605 114.2972
2770.947098 94.587 113.4833
2791.026522 94.563 112.6730
2811.251451 94.532 111.8672
2831.622938 94.494 111.0690
2852.142045 94.448 110.2823
2872.809842 94.394 109.5125
2893.627406 94.331 108.7689
2914.595823 94.259 108.0643
2935.716186 94.179 107.4108
2956.989596 94.094 106.8137
2978.417161 94.004 106.2709
3000.000000 93.911 105.7784
3021.739237 93.814 105.3331
3043.636005 93.713 104.9360
3065.691446 93.608 104.5935
3087.906710 93.500 104.3144
3110.282955 93.391 104.1036
3132.821347 93.282 103.9579
3155.523062 93.175 103.8684
3178.389283 93.070 103.8251
3201.421202 92.966 103.8202
3224.620020 92.865 103.8481
3247.986946 92.763 103.9053
3271.523198 92.661 103.9921
3295.230004 92.558 104.1154
3319.108599 92.453 104.2850
3343.160228 92.348 104.5068
3367.386145 92.244 104.7800
3391.787613 92.141 105.0996
3416.365904 92.040 105.4615
3441.122300 91.939 105.8666
3466.058091 91.839 106.3220
3491.174576 91.741 106.8352
3516.473066 91.646 107.4078
3541.954880 91.556 108.0338
3567.621345 91.471 108.7032
3593.473800 91.392 109.4062
3619.513592 91.318 110.1339
3645.742080 91.248 110.8808
3672.160630 91.180 111.6487
3698.770620 91.115 112.4473
3725.573436 91.050 113.2873
3752.570477 90.989 114.1747
3779.763150 90.930 115.1109
3807.152872 90.874 116.0970
3834.741071 90.822 117.1400
3862.529185 90.773 118.2531
3890.518664 90.730 119.4500
3918.710966 90.695 120.7380
3947.107561 90.671 122.1176
3975.709929 90.662 123.5853
4004.519563 90.670 125.1330
4033.537962 90.698 126.7492
4062.766641 90.748 128.4221
4092.207123 90.823 130.1401
4121.860942 90.927 131.8835
4151.729646 91.063 133.6183
4181.814790 91.232 135.2954
4212.117944 91.434 136.8603
4242.640687 91.664 138.2620
4273.384610 91.918 139.4567
4304.351317 92.189 140.4091
4335.542421 92.469 141.0961
4366.959549 92.748 141.5122
4398.604338 93.019 141.6705
4430.478438 93.273 141.6018
4462.583511 93.507 141.3518
4494.921231 93.718 140.9725
4527.493283 93.907 140.5101
4560.301365 94.077 139.9980
4593.347189 94.230 139.4588
4626.632476 94.370 138.9085
4660.158962 94.498 138.3579
4693.928395 94.620 137.8085
4727.942535 94.738 137.2509
4762.203156 94.854 136.6655
4796.712043 94.969 136.0272
4831.470996 95.080 135.3119
4866.481826 95.185 134.5039
4901.746360 95.281 133.5959
4937.266434 95.363 132.5857
4973.043902 95.428 131.4757
5009.080628 95.472 130.2780
5045.378492 95.490 129.0164
5081.939384 95.481 127.7217
5118.765212 95.444 126.4257
5155.857894 95.379 125.1571
5193.219366 95.287 123.9390
5230.851574 95.170 122.7921
5268.756481 95.029 121.7376
5306.936062 94.865 120.7952
5345.392309 94.680 119.9789
5384.127225 94.478 119.2989
5423.142830 94.258 118.7670
5462.441159 94.023 118.3983
5502.024259 93.776 118.2082
5541.894195 93.519 118.2072
5582.053045 93.256 118.3977
5622.502902 92.990 118.7755
5663.245876 92.725 119.3345
5704.284090 92.462 120.0677
5745.619684 92.204 120.9650
5787.254813 91.952 122.0165
5829.191647 91.706 123.2179
5871.432373 91.466 124.5720
5913.979192 91.236 126.0852
5956.834323 91.016 127.7609
6000.000000 90.810 129.5958
6043.478473 90.619 131.5825
6087.272010 90.448 133.7109
6131.382892 90.296 135.9685
6175.813420 90.167 138.3415
6220.565910 90.061 140.8206
6265.642695 89.979 143.4035
6311.046124 89.923 146.0919
6356.778566 89.897 148.8843
6402.842404 89.905 151.7720
6449.240040 89.951 154.7377
6495.973891 90.038 157.7549
6543.046396 90.172 160.7859
6590.460007 90.355 163.7845
6638.217197 90.588 166.6995
6686.320456 90.872 169.4753
6734.772290 91.207 172.0479
6783.575226 91.590 174.3428
6832.731809 92.015 176.2797
6882.244600 92.472 177.7792
6932.116181 92.948 178.7717
6982.349153 93.426 179.2094
7032.946133 93.888 179.0778
7083.909760 94.315 178.4011
7135.242690 94.690 177.2401
7186.947600 94.999 175.6885
7239.027185 95.233 173.8666
7291.484160 95.388 171.9109
7344.321260 95.464 169.9609
7397.541239 95.470 168.1487
7451.146872 95.414 166.5890
7505.140954 95.313 165.3702
7559.526299 95.184 164.5456
7614.305743 95.044 164.1306
7669.482141 94.912 164.1029
7725.058371 94.802 164.4048
7781.037328 94.726 164.9535
7837.421932 94.689 165.6560
7894.215122 94.696 166.4217
7951.419859 94.745 167.1668
8009.039125 94.833 167.8146
8067.075924 94.958 168.2933
8125.533282 95.113 168.5316
8184.414245 95.288 168.4635
8243.721885 95.473 168.0378
8303.459292 95.653 167.2267
8363.629581 95.813 166.0280
8424.235888 95.941 164.4656
8485.281374 96.022 162.5864
8546.769221 96.046 160.4551
8608.702634 96.004 158.1547
8671.084842 95.888 155.7869
8733.919097 95.695 153.4688
8797.208675 95.426 151.3258
8860.956876 95.085 149.4825
8925.167022 94.683 148.0490
8989.842461 94.235 147.1107
9054.986566 93.758 146.7231
9120.602731 93.273 146.9072
9186.694378 92.801 147.6443
9253.264952 92.363 148.8682
9320.317925 91.980 150.4563
9387.856790 91.665 152.2333
9455.885071 91.421 153.9988
9524.406312 91.238 155.5716
9593.424086 91.099 156.8302
9662.941992 90.982 157.7306
9732.963653 90.863 158.2926
9803.492719 90.727 158.5745
9874.532869 90.560 158.6526
9946.087805 90.352 158.6135
10018.161257 90.098 158.5527
10090.756983 89.795 158.5720
10163.878768 89.445 158.7697
10237.530423 89.055 159.2300
10311.715789 88.634 160.0174
10386.438732 88.191 161.1763
10461.703149 87.738 162.7349
10537.512962 87.286 164.7036
10613.872125 86.848 167.0687
10690.784618 86.436 169.7905
10768.254450 86.058 172.8087
10846.285661 85.720 176.0572
10924.882318 85.426 179.4739
11004.048518 85.176 -176.9985
11083.788390 84.972 -173.4150
11164.106090 84.811 -169.8259
11245.005805 84.690 -166.2687
11326.491752 84.606 -162.7650
11408.568180 84.557 -159.3263
11491.239368 84.540 -155.9638
11574.509626 84.555 -152.6930
11658.383294 84.600 -149.5311
11742.864745 84.675 -146.4961
11827.958384 84.779 -143.6120
11913.668646 84.911 -140.9135
12000.000000 85.069 -138.4434
12086.956947 85.248 -136.2417
12174.544019 85.443 -134.3409
12262.765784 85.648 -132.7675
12351.626840 85.854 -131.5454
12441.131819 86.053 -130.6921
12531.285389 86.235 -130.2109
12622.092249 86.388 -130.0871
12713.557132 86.502 -130.2901
12805.684808 86.567 -130.7733
12898.480079 86.572 -131.4691
12991.947783 86.510 -132.2870
13086.092792 86.376 -133.1199
13180.920015 86.170 -133.8569
13276.434395 85.896 -134.3913
13372.640911 85.560 -134.6240
13469.544580 85.173 -134.4663
13567.150452 84.746 -133.8482
13665.463617 84.295 -132.7219
13764.489200 83.835 -131.0585
13864.232362 83.381 -128.8412
13964.698305 82.951 -126.0655
14065.892266 82.563 -122.7440
14167.819519 82.238 -118.9069
14270.485380 81.999 -114.6053
14373.895200 81.871 -109.9276
14478.054370 81.880 -105.0235
14582.968320 82.048 -100.1167
14688.642520 82.388 -95.5012
14795.082478 82.897 -91.5219
14902.293745 83.552 -88.5319
15010.281908 84.311 -86.8331
15119.052599 85.119 -86.6296
15228.611486 85.914 -88.0084
15338.964283 86.635 -90.9390
15450.116741 87.225 -95.2790
15562.074656 87.635 -100.7874
15674.843864 87.831 -107.1455
15788.430244 87.789 -113.9841
15902.839718 87.500 -120.9117
16018.078250 86.970 -127.5431
16134.151848 86.213 -133.5303
16251.066563 85.259 -138.5864
16368.828491 84.140 -142.4963
16487.443769 82.893 -145.1180
16606.918584 81.559 -146.3827
16727.259161 80.178 -146.2900
16848.471777 78.788 -144.9017
16970.562748 77.426 -142.3371
17093.538442 76.127 -138.7650
17217.405268 74.917 -134.3863
17342.169684 73.819 -129.4140
17467.838194 72.845 -124.0592
17594.417350 72.000 -118.5172
17721.913751 71.282 -112.9615
17850.334044 70.684 -107.5484
17979.684923 70.194 -102.4176
18109.973131 69.797 -97.6863
18241.205462 69.474 -93.4411
18373.388756 69.203 -89.7282
18506.529905 68.967 -86.5494
18640.635849 68.749 -83.8784
18775.713581 68.539 -81.6902
18911.770141 68.330 -79.9858
19048.812624 68.118 -78.8032
19186.848172 67.896 -78.2013
19325.883983 67.655 -78.2204
19465.927305 67.387 -78.8382
19606.985439 67.095 -79.9368
19749.065738 66.803 -81.2828
19892.175609 66.557 -82.5334
20036.322514 66.415 -83.2996
