* Measurement data measured by REW V5.31
* Source: EXCL: Microphone (USB Sound Device        ), MICROPHONE (Master Volume), R, volume: 0.390
* Format: 256k Log Swept Sine, 1 sweep at -15.0 dBFS with no timing reference
* Dated: Dec 24, 2024 1:11:04 AM
* REW Settings:
*  C-weighting compensation: Off
*  Target level: 75.0 dB
* Note: L BLON BL03 II Grey
* Measurement: L BLON BL03 II Grey
* Smoothing: 1/12 octave
* Frequency Step: 96 ppo
* Start Frequency: 0.36621094 Hz
*
* Freq(Hz) SPL(dB) Phase(degrees)
0.366211 95.034 160.0506
0.368865 95.029 160.0296
0.371538 95.020 159.9982
0.374230 95.009 159.9587
0.376942 94.998 159.9133
0.379673 94.985 159.8633
0.382424 94.971 159.8098
0.385196 94.958 159.7534
0.387987 94.944 159.6945
0.390798 94.929 159.6331
0.393630 94.915 159.5695
0.396483 94.901 159.5036
0.399356 94.886 159.4354
0.402250 94.871 159.3650
0.405165 94.857 159.2923
0.408101 94.842 159.2173
0.411058 94.827 159.1400
0.414037 94.812 159.0604
0.417037 94.796 158.9784
0.420059 94.781 158.8940
0.423103 94.766 158.8072
0.426169 94.750 158.7180
0.429257 94.734 158.6263
0.432368 94.719 158.5322
0.435501 94.703 158.4356
0.438656 94.687 158.3364
0.441835 94.671 158.2348
0.445037 94.654 158.1306
0.448262 94.638 158.0238
0.451510 94.622 157.9145
0.454782 94.605 157.8025
0.458077 94.588 157.6880
0.461397 94.571 157.5708
0.464740 94.554 157.4509
0.468108 94.537 157.3284
0.471500 94.520 157.2031
0.474917 94.503 157.0752
0.478358 94.485 156.9446
0.481825 94.468 156.8113
0.485316 94.450 156.6752
0.488833 94.432 156.5364
0.492375 94.414 156.3948
0.495943 94.396 156.2504
0.499537 94.378 156.1033
0.503157 94.360 155.9535
0.506803 94.341 155.8008
0.510475 94.322 155.6454
0.514175 94.304 155.4872
0.517900 94.285 155.3262
0.521653 94.266 155.1624
0.525434 94.247 154.9959
0.529241 94.227 154.8266
0.533076 94.208 154.6545
0.536939 94.188 154.4797
0.540830 94.169 154.3021
0.544749 94.149 154.1218
0.548696 94.129 153.9388
0.552673 94.108 153.7532
0.556677 94.088 153.5648
0.560711 94.068 153.3739
0.564774 94.047 153.1803
0.568867 94.026 152.9841
0.572989 94.005 152.7854
0.577141 93.984 152.5842
0.581324 93.963 152.3805
0.585536 93.942 152.1744
0.589779 93.920 151.9659
0.594053 93.899 151.7551
0.598358 93.877 151.5421
0.602694 93.855 151.3268
0.607061 93.833 151.1094
0.611460 93.810 150.8899
0.615891 93.788 150.6684
0.620354 93.765 150.4450
0.624849 93.742 150.2198
0.629377 93.719 149.9929
0.633938 93.696 149.7643
0.638532 93.673 149.5342
0.643159 93.650 149.3026
0.647819 93.626 149.0698
0.652514 93.602 148.8357
0.657242 93.578 148.6006
0.662005 93.554 148.3646
0.666802 93.530 148.1279
0.671634 93.505 147.8905
0.676501 93.481 147.6526
0.681403 93.456 147.4145
0.686341 93.431 147.1762
0.691314 93.405 146.9380
0.696324 93.380 146.7001
0.701370 93.354 146.4625
0.706452 93.328 146.2255
0.711571 93.301 145.9891
0.716728 93.274 145.7532
0.721921 93.245 145.5177
0.727153 93.215 145.2822
0.732422 93.183 145.0459
0.737729 93.149 144.8080
0.743075 93.113 144.5675
0.748460 93.075 144.3237
0.753883 93.036 144.0758
0.759346 92.996 143.8235
0.764849 92.955 143.5665
0.770391 92.914 143.3044
0.775974 92.872 143.0373
0.781597 92.829 142.7650
0.787261 92.786 142.4873
0.792966 92.742 142.2043
0.798712 92.698 141.9159
0.804500 92.653 141.6221
0.810329 92.608 141.3227
0.816201 92.562 141.0178
0.822116 92.515 140.7073
0.828073 92.468 140.3911
0.834074 92.420 140.0693
0.840118 92.371 139.7419
0.846206 92.322 139.4087
0.852338 92.271 139.0698
0.858514 92.220 138.7252
0.864735 92.168 138.3749
0.871001 92.115 138.0189
0.877313 92.061 137.6572
0.883670 92.006 137.2898
0.890074 91.950 136.9168
0.896524 91.893 136.5383
0.903020 91.835 136.1542
0.909564 91.776 135.7647
0.916155 91.715 135.3698
0.922794 91.654 134.9697
0.929481 91.591 134.5644
0.936216 91.526 134.1541
0.943000 91.461 133.7390
0.949834 91.393 133.3193
0.956717 91.325 132.8950
0.963649 91.255 132.4665
0.970632 91.183 132.0340
0.977666 91.109 131.5978
0.984750 91.034 131.1581
0.991886 90.957 130.7153
0.999074 90.878 130.2698
1.006314 90.798 129.8219
1.013606 90.715 129.3721
1.020951 90.630 128.9209
1.028349 90.543 128.4688
1.035801 90.454 128.0162
1.043307 90.363 127.5639
1.050867 90.269 127.1123
1.058482 90.173 126.6622
1.066152 90.074 126.2142
1.073878 89.973 125.7688
1.081660 89.870 125.3264
1.089498 89.764 124.8873
1.097393 89.655 124.4515
1.105345 89.545 124.0185
1.113355 89.432 123.5878
1.121423 89.317 123.1588
1.129549 89.200 122.7308
1.137734 89.082 122.3033
1.145979 88.961 121.8758
1.154283 88.839 121.4479
1.162647 88.714 121.0192
1.171072 88.588 120.5893
1.179558 88.459 120.1577
1.188106 88.328 119.7241
1.196715 88.194 119.2881
1.205387 88.058 118.8491
1.214122 87.919 118.4067
1.222920 87.777 117.9605
1.231782 87.633 117.5098
1.240708 87.486 117.0540
1.249699 87.335 116.5927
1.258754 87.181 116.1252
1.267876 87.024 115.6507
1.277063 86.863 115.1685
1.286318 86.699 114.6780
1.295639 86.531 114.1781
1.305027 86.358 113.6682
1.314484 86.182 113.1472
1.324009 86.001 112.6141
1.333604 85.816 112.0679
1.343268 85.626 111.5076
1.353002 85.431 110.9318
1.362806 85.231 110.3393
1.372681 85.026 109.7289
1.382628 84.816 109.0991
1.392647 84.600 108.4485
1.402739 84.377 107.7757
1.412904 84.149 107.0792
1.423142 83.914 106.3577
1.433455 83.671 105.6097
1.443843 83.419 104.8342
1.454305 83.158 104.0302
1.464844 82.884 103.1968
1.475459 82.595 102.3332
1.486150 82.290 101.4379
1.496920 81.966 100.5088
1.507767 81.623 99.5429
1.518693 81.259 98.5361
1.529698 80.877 97.4834
1.540783 80.476 96.3785
1.551948 80.057 95.2144
1.563194 79.623 93.9824
1.574521 79.175 92.6722
1.585931 78.715 91.2720
1.597423 78.245 89.7675
1.608999 77.767 88.1415
1.620658 77.283 86.3737
1.632402 76.797 84.4393
1.644232 76.310 82.3088
1.656146 75.825 79.9462
1.668147 75.346 77.3081
1.680235 74.875 74.3424
1.692411 74.416 70.9873
1.704675 73.973 67.1704
1.717028 73.549 62.8110
1.729470 73.148 57.8241
1.742003 72.775 52.1320
1.754626 72.435 45.6839
1.767341 72.131 38.4845
1.780147 71.870 30.6256
1.793047 71.657 22.3042
1.806040 71.496 13.8053
1.819128 71.393 5.4450
1.832310 71.350 -2.5032
1.845587 71.371 -9.8581
1.858961 71.456 -16.5383
1.872432 71.604 -22.5384
1.886001 71.813 -27.8984
1.899667 72.079 -32.6793
1.913433 72.398 -36.9482
1.927299 72.765 -40.7698
1.941265 73.175 -44.2025
1.955332 73.623 -47.2975
1.969501 74.104 -50.0985
1.983773 74.611 -52.6425
1.998148 75.140 -54.9607
2.012627 75.684 -57.0792
2.027212 76.237 -59.0199
2.041902 76.795 -60.8012
2.056698 77.352 -62.4383
2.071602 77.901 -63.9444
2.086614 78.437 -65.3304
2.101734 78.955 -66.6058
2.116964 79.450 -67.7792
2.132304 79.918 -68.8584
2.147756 80.354 -69.8513
2.163320 80.757 -70.7663
2.178996 81.125 -71.6129
2.194786 81.461 -72.4023
2.210690 81.765 -73.1460
2.226710 82.043 -73.8551
2.242845 82.297 -74.5386
2.259098 82.530 -75.2024
2.275468 82.746 -75.8500
2.291957 82.944 -76.4830
2.308566 83.128 -77.1016
2.325295 83.298 -77.7054
2.342145 83.455 -78.2930
2.359117 83.602 -78.8632
2.376212 83.738 -79.4140
2.393431 83.865 -79.9435
2.410775 83.985 -80.4497
2.428244 84.099 -80.9304
2.445840 84.208 -81.3832
2.463564 84.314 -81.8061
2.481416 84.418 -82.1970
2.499397 84.520 -82.5542
2.517509 84.623 -82.8764
2.535752 84.726 -83.1636
2.554127 84.828 -83.4165
2.572635 84.930 -83.6374
2.591277 85.028 -83.8291
2.610055 85.122 -83.9947
2.628968 85.211 -84.1368
2.648019 85.295 -84.2571
2.667208 85.373 -84.3570
2.686535 85.447 -84.4373
2.706003 85.516 -84.4985
2.725612 85.581 -84.5407
2.745363 85.642 -84.5641
2.765257 85.702 -84.5686
2.785295 85.759 -84.5541
2.805478 85.816 -84.5205
2.825808 85.873 -84.4674
2.846285 85.931 -84.3945
2.866910 85.991 -84.3013
2.887685 86.052 -84.1871
2.908611 86.116 -84.0511
2.929688 86.182 -83.8922
2.950917 86.249 -83.7093
2.972301 86.318 -83.5019
2.993839 86.387 -83.2703
3.015534 86.456 -83.0155
3.037386 86.526 -82.7396
3.059396 86.597 -82.4449
3.081565 86.668 -82.1342
3.103896 86.739 -81.8107
3.126388 86.813 -81.4775
3.149043 86.887 -81.1379
3.171862 86.964 -80.7953
3.194847 87.043 -80.4524
3.217998 87.125 -80.1119
3.241317 87.210 -79.7754
3.264805 87.299 -79.4437
3.288463 87.391 -79.1163
3.312293 87.487 -78.7917
3.336295 87.586 -78.4682
3.360471 87.690 -78.1450
3.384822 87.796 -77.8225
3.409350 87.906 -77.5027
3.434056 88.019 -77.1881
3.458940 88.134 -76.8823
3.484005 88.251 -76.5888
3.509252 88.370 -76.3116
3.534681 88.489 -76.0541
3.560295 88.609 -75.8197
3.586094 88.730 -75.6113
3.612081 88.851 -75.4309
3.638255 88.971 -75.2794
3.664620 89.092 -75.1568
3.691175 89.213 -75.0618
3.717923 89.335 -74.9928
3.744864 89.457 -74.9480
3.772001 89.579 -74.9261
3.799335 89.702 -74.9258
3.826866 89.824 -74.9464
3.854597 89.946 -74.9872
3.882529 90.066 -75.0479
3.910664 90.185 -75.1283
3.939002 90.302 -75.2282
3.967546 90.416 -75.3478
3.996296 90.528 -75.4874
4.025255 90.637 -75.6475
4.054423 90.743 -75.8285
4.083804 90.846 -76.0301
4.113396 90.947 -76.2517
4.143204 91.045 -76.4918
4.173227 91.140 -76.7486
4.203468 91.232 -77.0196
4.233928 91.322 -77.3027
4.264609 91.408 -77.5956
4.295512 91.492 -77.8964
4.326639 91.572 -78.2039
4.357992 91.649 -78.5175
4.389572 91.722 -78.8374
4.421380 91.792 -79.1644
4.453419 91.858 -79.4994
4.485691 91.921 -79.8424
4.518196 91.980 -80.1926
4.550936 92.036 -80.5481
4.583914 92.088 -80.9068
4.617131 92.137 -81.2657
4.650589 92.184 -81.6225
4.684289 92.228 -81.9745
4.718233 92.270 -82.3202
4.752424 92.309 -82.6587
4.786862 92.345 -82.9901
4.821549 92.378 -83.3150
4.856488 92.409 -83.6340
4.891680 92.437 -83.9473
4.927127 92.463 -84.2545
4.962831 92.487 -84.5550
4.998794 92.510 -84.8475
5.035017 92.532 -85.1311
5.071503 92.552 -85.4044
5.108253 92.573 -85.6665
5.145270 92.593 -85.9167
5.182555 92.612 -86.1552
5.220110 92.631 -86.3823
5.257937 92.649 -86.5993
5.296038 92.668 -86.8075
5.334415 92.686 -87.0085
5.373071 92.706 -87.2037
5.412006 92.726 -87.3943
5.451224 92.747 -87.5811
5.490725 92.771 -87.7645
5.530514 92.795 -87.9444
5.570590 92.822 -88.1212
5.610957 92.850 -88.2960
5.651616 92.879 -88.4705
5.692570 92.910 -88.6471
5.733821 92.943 -88.8286
5.775370 92.977 -89.0173
5.817221 93.013 -89.2155
5.859375 93.051 -89.4242
5.901834 93.091 -89.6442
5.944602 93.132 -89.8757
5.987679 93.175 -90.1193
6.031068 93.219 -90.3757
6.074771 93.265 -90.6462
6.118792 93.311 -90.9324
6.163131 93.358 -91.2355
6.207792 93.405 -91.5569
6.252776 93.452 -91.8970
6.298086 93.499 -92.2558
6.343725 93.547 -92.6329
6.389694 93.594 -93.0274
6.435996 93.641 -93.4381
6.482634 93.687 -93.8641
6.529610 93.733 -94.3048
6.576926 93.777 -94.7598
6.624585 93.820 -95.2287
6.672590 93.862 -95.7111
6.720942 93.903 -96.2060
6.769645 93.942 -96.7117
6.818700 93.980 -97.2261
6.868111 94.016 -97.7472
6.917881 94.051 -98.2730
6.968010 94.085 -98.8026
7.018504 94.117 -99.3351
7.069362 94.148 -99.8698
7.120590 94.178 -100.4056
7.172189 94.207 -100.9409
7.224161 94.235 -101.4740
7.276511 94.263 -102.0033
7.329239 94.290 -102.5273
7.382350 94.317 -103.0455
7.435845 94.344 -103.5575
7.489729 94.371 -104.0633
7.544002 94.398 -104.5627
7.598669 94.426 -105.0555
7.653732 94.455 -105.5414
7.709194 94.486 -106.0201
7.765058 94.517 -106.4918
7.821327 94.550 -106.9570
7.878004 94.584 -107.4165
7.935091 94.620 -107.8715
7.992592 94.658 -108.3229
8.050510 94.698 -108.7716
8.108847 94.739 -109.2182
8.167607 94.783 -109.6634
8.226793 94.828 -110.1081
8.286408 94.875 -110.5531
8.346454 94.924 -110.9996
8.406936 94.974 -111.4486
8.467856 95.026 -111.9006
8.529218 95.079 -112.3558
8.591024 95.133 -112.8142
8.653278 95.188 -113.2759
8.715983 95.243 -113.7409
8.779143 95.299 -114.2090
8.842760 95.355 -114.6800
8.906839 95.411 -115.1533
8.971381 95.467 -115.6282
9.036392 95.522 -116.1036
9.101873 95.577 -116.5783
9.167829 95.632 -117.0515
9.234263 95.686 -117.5223
9.301178 95.739 -117.9898
9.368578 95.792 -118.4528
9.436467 95.843 -118.9101
9.504847 95.894 -119.3605
9.573723 95.944 -119.8033
9.643099 95.992 -120.2378
9.712976 96.039 -120.6635
9.783361 96.084 -121.0798
9.854255 96.127 -121.4862
9.925663 96.167 -121.8826
9.997588 96.205 -122.2688
10.070035 96.240 -122.6451
10.143007 96.273 -123.0119
10.216507 96.305 -123.3694
10.290540 96.335 -123.7183
10.365109 96.364 -124.0590
10.440219 96.392 -124.3921
10.515873 96.419 -124.7185
10.592076 96.446 -125.0389
10.668830 96.472 -125.3541
10.746141 96.498 -125.6646
10.824012 96.524 -125.9711
10.902447 96.549 -126.2742
10.981451 96.574 -126.5744
11.061027 96.598 -126.8722
11.141180 96.622 -127.1679
11.221913 96.644 -127.4616
11.303232 96.666 -127.7537
11.385140 96.687 -128.0442
11.467641 96.706 -128.3331
11.550741 96.725 -128.6205
11.634442 96.743 -128.9064
11.718750 96.759 -129.1907
11.803669 96.775 -129.4733
11.889203 96.790 -129.7542
11.975357 96.804 -130.0333
12.062136 96.817 -130.3106
12.149543 96.830 -130.5861
12.237583 96.841 -130.8598
12.326262 96.851 -131.1319
12.415583 96.860 -131.4023
12.505552 96.868 -131.6712
12.596172 96.875 -131.9389
12.687449 96.881 -132.2055
12.779387 96.886 -132.4713
12.871992 96.890 -132.7368
12.965268 96.893 -133.0024
13.059220 96.896 -133.2686
13.153852 96.898 -133.5359
13.249170 96.900 -133.8052
13.345179 96.902 -134.0771
13.441884 96.904 -134.3524
13.539289 96.906 -134.6321
13.637401 96.907 -134.9171
13.736223 96.909 -135.2082
13.835761 96.910 -135.5063
13.936021 96.912 -135.8122
14.037007 96.912 -136.1264
14.138725 96.913 -136.4494
14.241180 96.912 -136.7813
14.344377 96.911 -137.1222
14.448323 96.909 -137.4716
14.553021 96.906 -137.8290
14.658478 96.902 -138.1934
14.764700 96.897 -138.5637
14.871691 96.891 -138.9384
14.979457 96.884 -139.3162
15.088005 96.877 -139.6954
15.197339 96.869 -140.0744
15.307465 96.861 -140.4521
15.418389 96.853 -140.8271
15.530117 96.845 -141.1986
15.642655 96.838 -141.5663
15.756008 96.831 -141.9301
15.870182 96.826 -142.2905
15.985184 96.823 -142.6485
16.101019 96.821 -143.0052
16.217694 96.821 -143.3622
16.335214 96.823 -143.7212
16.453586 96.827 -144.0838
16.572815 96.833 -144.4518
16.692909 96.841 -144.8262
16.813872 96.851 -145.2079
16.935713 96.861 -145.5972
17.058436 96.873 -145.9938
17.182048 96.885 -146.3968
17.306556 96.897 -146.8047
17.431967 96.909 -147.2156
17.558286 96.920 -147.6272
17.685521 96.930 -148.0371
17.813677 96.939 -148.4426
17.942762 96.947 -148.8414
18.072783 96.954 -149.2312
18.203746 96.960 -149.6105
18.335658 96.966 -149.9778
18.468526 96.972 -150.3326
18.602356 96.978 -150.6746
18.737156 96.984 -151.0042
18.872934 96.990 -151.3221
19.009695 96.997 -151.6293
19.147447 97.004 -151.9269
19.286197 97.011 -152.2160
19.425953 97.018 -152.4974
19.566721 97.026 -152.7720
19.708510 97.033 -153.0402
19.851326 97.039 -153.3019
19.995177 97.045 -153.5571
20.140070 97.051 -153.8056
20.286013 97.055 -154.0470
20.433014 97.059 -154.2814
20.581080 97.063 -154.5091
20.730219 97.067 -154.7309
20.880439 97.071 -154.9480
21.031747 97.075 -155.1625
21.184152 97.081 -155.3768
21.337661 97.087 -155.5936
21.492282 97.093 -155.8158
21.648024 97.101 -156.0461
21.804895 97.108 -156.2867
21.962902 97.116 -156.5392
22.122054 97.122 -156.8041
22.282360 97.128 -157.0811
22.443827 97.132 -157.3688
22.606464 97.135 -157.6655
22.770280 97.137 -157.9690
22.935283 97.138 -158.2774
23.101481 97.138 -158.5896
23.268884 97.138 -158.9055
23.437500 97.138 -159.2266
23.607338 97.139 -159.5554
23.778406 97.141 -159.8959
23.950714 97.144 -160.2526
24.124271 97.146 -160.6293
24.299086 97.149 -161.0289
24.475167 97.149 -161.4518
24.652524 97.147 -161.8956
24.831166 97.140 -162.3542
25.011103 97.129 -162.8186
25.192344 97.111 -163.2769
25.374898 97.088 -163.7158
25.558775 97.060 -164.1221
25.743984 97.029 -164.4844
25.930536 96.996 -164.7949
26.118439 96.965 -165.0511
26.307704 96.938 -165.2565
26.498341 96.918 -165.4206
26.690359 96.905 -165.5576
26.883768 96.900 -165.6848
27.078579 96.903 -165.8193
27.274801 96.911 -165.9755
27.472446 96.924 -166.1628
27.671522 96.937 -166.3843
27.872042 96.948 -166.6367
28.074014 96.956 -166.9114
28.277450 96.959 -167.1962
28.482360 96.958 -167.4784
28.688755 96.952 -167.7465
28.896645 96.943 -167.9933
29.106042 96.934 -168.2162
29.316957 96.925 -168.4184
29.529400 96.918 -168.6069
29.743382 96.914 -168.7919
29.958915 96.913 -168.9835
30.176009 96.913 -169.1900
30.394677 96.914 -169.4162
30.614929 96.913 -169.6628
30.836778 96.911 -169.9267
31.060234 96.906 -170.2023
31.285309 96.899 -170.4829
31.512015 96.889 -170.7628
31.740364 96.878 -171.0381
31.970368 96.866 -171.3072
32.202039 96.854 -171.5712
32.435388 96.844 -171.8326
32.670428 96.834 -172.0947
32.907171 96.826 -172.3604
33.145630 96.818 -172.6319
33.385817 96.811 -172.9098
33.627745 96.804 -173.1936
33.871425 96.797 -173.4821
34.116871 96.790 -173.7731
34.364096 96.782 -174.0645
34.613113 96.773 -174.3537
34.863934 96.764 -174.6383
35.116572 96.754 -174.9158
35.371041 96.744 -175.1844
35.627354 96.734 -175.4428
35.885525 96.724 -175.6914
36.145566 96.715 -175.9317
36.407492 96.707 -176.1666
36.671316 96.699 -176.3994
36.937051 96.692 -176.6331
37.204712 96.685 -176.8699
37.474313 96.677 -177.1101
37.745867 96.668 -177.3526
38.019389 96.657 -177.5950
38.294893 96.646 -177.8353
38.572394 96.633 -178.0718
38.851905 96.620 -178.3043
39.133442 96.607 -178.5340
39.417019 96.594 -178.7630
39.702651 96.581 -178.9935
39.990353 96.568 -179.2275
40.280140 96.555 -179.4657
40.572026 96.542 -179.7082
40.866028 96.529 -179.9541
41.162160 96.515 179.7975
41.460438 96.501 179.5477
41.760877 96.487 179.2974
42.063494 96.473 179.0474
42.368303 96.458 178.7985
42.675322 96.444 178.5515
42.984565 96.429 178.3073
43.296048 96.414 178.0665
43.609789 96.400 177.8293
43.925804 96.385 177.5953
44.244108 96.371 177.3633
44.564719 96.357 177.1323
44.887654 96.343 176.9010
45.212928 96.328 176.6691
45.540560 96.313 176.4368
45.870565 96.298 176.2049
46.202962 96.281 175.9749
46.537768 96.264 175.7481
46.875000 96.246 175.5253
47.214676 96.229 175.3066
47.556813 96.211 175.0909
47.901429 96.194 174.8765
48.248542 96.177 174.6613
48.598171 96.161 174.4439
48.950334 96.145 174.2237
49.305048 96.128 174.0014
49.662333 96.111 173.7790
50.022206 96.093 173.5587
50.384688 96.075 173.3419
50.749796 96.057 173.1293
51.117550 96.040 172.9198
51.487969 96.023 172.7121
51.861072 96.006 172.5046
52.236879 95.989 172.2968
52.615409 95.972 172.0889
52.996681 95.955 171.8819
53.380717 95.938 171.6769
53.767536 95.920 171.4749
54.157158 95.903 171.2758
54.549603 95.886 171.0788
54.944892 95.870 170.8820
55.343045 95.854 170.6829
55.744084 95.839 170.4786
56.148028 95.824 170.2679
56.554900 95.809 170.0512
56.964720 95.793 169.8310
57.377510 95.776 169.6116
57.793291 95.757 169.3967
58.212085 95.739 169.1886
58.633914 95.721 168.9866
59.058799 95.703 168.7880
59.486764 95.686 168.5890
59.917829 95.669 168.3864
60.352019 95.651 168.1786
60.789354 95.632 167.9657
61.229859 95.612 167.7496
61.673556 95.590 167.5334
62.120468 95.565 167.3215
62.570618 95.540 167.1176
63.024031 95.513 166.9242
63.480729 95.488 166.7405
63.940736 95.463 166.5624
64.404077 95.440 166.3839
64.870776 95.418 166.1990
65.340856 95.397 166.0040
65.814343 95.377 165.7985
66.291261 95.355 165.5849
66.771635 95.333 165.3674
67.255489 95.309 165.1508
67.742850 95.284 164.9394
68.233743 95.258 164.7369
68.728193 95.231 164.5462
69.226226 95.205 164.3681
69.727867 95.179 164.2016
70.233144 95.155 164.0429
70.742083 95.131 163.8864
71.254709 95.109 163.7263
71.771050 95.088 163.5582
72.291132 95.066 163.3806
72.814984 95.043 163.1948
73.342631 95.019 163.0042
73.874102 94.994 162.8124
74.409424 94.967 162.6225
74.948626 94.940 162.4370
75.491734 94.912 162.2574
76.038779 94.884 162.0847
76.589787 94.856 161.9190
77.144788 94.829 161.7597
77.703811 94.803 161.6047
78.266885 94.778 161.4508
78.834039 94.755 161.2943
79.405303 94.733 161.1310
79.980706 94.711 160.9580
80.560280 94.690 160.7742
81.144053 94.667 160.5800
81.732056 94.643 160.3773
82.324320 94.618 160.1688
82.920876 94.591 159.9570
83.521755 94.561 159.7448
84.126988 94.530 159.5350
84.736607 94.497 159.3302
85.350643 94.463 159.1324
85.969129 94.428 158.9433
86.592097 94.392 158.7636
87.219579 94.355 158.5938
87.851608 94.319 158.4339
88.488217 94.282 158.2837
89.129439 94.246 158.1421
89.775308 94.211 158.0071
90.425856 94.177 157.8766
91.081119 94.143 157.7480
91.741131 94.111 157.6189
92.405925 94.079 157.4878
93.075536 94.047 157.3542
93.750000 94.015 157.2185
94.429351 93.984 157.0816
95.113625 93.952 156.9451
95.802858 93.920 156.8104
96.497085 93.888 156.6792
97.196342 93.856 156.5529
97.900667 93.823 156.4328
98.610096 93.790 156.3199
99.324665 93.756 156.2146
100.044413 93.723 156.1158
100.769376 93.689 156.0211
101.499592 93.655 155.9276
102.235100 93.622 155.8322
102.975938 93.589 155.7330
103.722144 93.555 155.6293
104.473757 93.522 155.5215
105.230817 93.488 155.4112
105.993363 93.454 155.2997
106.761435 93.420 155.1885
107.535072 93.385 155.0778
108.314315 93.349 154.9675
109.099206 93.313 154.8576
109.889783 93.276 154.7475
110.686090 93.239 154.6356
111.488167 93.203 154.5195
112.296056 93.166 154.3994
113.109800 93.130 154.2797
113.929440 93.092 154.1677
114.755020 93.054 154.0712
115.586582 93.015 153.9972
116.424170 92.976 153.9504
117.267827 92.935 153.9299
118.117598 92.895 153.9277
118.973527 92.854 153.9297
119.835658 92.811 153.9214
120.704037 92.766 153.8989
121.578708 92.719 153.8693
122.459718 92.671 153.8392
123.347111 92.624 153.8096
124.240935 92.580 153.7792
125.141236 92.538 153.7491
126.048061 92.499 153.7236
126.961458 92.462 153.7080
127.881473 92.427 153.7051
128.808154 92.393 153.7136
129.741551 92.361 153.7276
130.681712 92.329 153.7382
131.628686 92.298 153.7373
132.582521 92.267 153.7205
133.543269 92.236 153.6880
134.510979 92.204 153.6442
135.485701 92.172 153.5935
136.467486 92.139 153.5403
137.456386 92.106 153.4882
138.452451 92.071 153.4402
139.455735 92.036 153.3975
140.466288 91.999 153.3594
141.484165 91.962 153.3243
142.509418 91.924 153.2909
143.542100 91.886 153.2591
144.582265 91.849 153.2305
145.629968 91.811 153.2070
146.685262 91.773 153.1905
147.748204 91.735 153.1824
148.818849 91.697 153.1835
149.897251 91.657 153.1940
150.983469 91.616 153.2141
152.077557 91.574 153.2443
153.179574 91.532 153.2850
154.289576 91.491 153.3352
155.407622 91.452 153.3917
156.533770 91.416 153.4496
157.668078 91.383 153.5040
158.810606 91.353 153.5497
159.961413 91.325 153.5833
161.120559 91.298 153.6029
162.288105 91.271 153.6082
163.464112 91.241 153.6000
164.648640 91.210 153.5803
165.841752 91.177 153.5518
167.043510 91.142 153.5183
168.253976 91.105 153.4844
169.473213 91.067 153.4547
170.701286 91.029 153.4320
171.938258 90.991 153.4173
173.184194 90.952 153.4092
174.439158 90.913 153.4052
175.703216 90.874 153.4025
176.976434 90.833 153.3991
178.258878 90.792 153.3943
179.550615 90.750 153.3888
180.851713 90.708 153.3846
182.162239 90.665 153.3837
183.482262 90.622 153.3871
184.811850 90.579 153.3946
186.151073 90.535 153.4055
187.500000 90.492 153.4199
188.858702 90.448 153.4384
190.227250 90.403 153.4615
191.605715 90.358 153.4900
192.994169 90.313 153.5250
194.392685 90.267 153.5685
195.801334 90.221 153.6230
197.220191 90.175 153.6906
198.649330 90.129 153.7730
200.088825 90.084 153.8700
201.538751 90.040 153.9799
202.999184 89.997 154.0991
204.470200 89.956 154.2229
205.951875 89.917 154.3464
207.444287 89.880 154.4661
208.947514 89.844 154.5806
210.461634 89.809 154.6902
211.986726 89.774 154.7958
213.522869 89.739 154.8990
215.070144 89.704 155.0021
216.628631 89.670 155.1072
218.198411 89.636 155.2154
219.779567 89.603 155.3247
221.372180 89.569 155.4323
222.976334 89.534 155.5360
224.592112 89.499 155.6345
226.219600 89.463 155.7264
227.858880 89.426 155.8113
229.510039 89.388 155.8911
231.173164 89.350 155.9689
232.848340 89.311 156.0481
234.535655 89.271 156.1303
236.235197 89.230 156.2156
237.947054 89.189 156.3032
239.671317 89.146 156.3925
241.408074 89.103 156.4839
243.157416 89.059 156.5789
244.919435 89.013 156.6804
246.694223 88.967 156.7918
248.481871 88.920 156.9171
250.282473 88.873 157.0598
252.096123 88.827 157.2221
253.922915 88.782 157.4030
255.762945 88.739 157.5967
257.616309 88.700 157.7926
259.483103 88.662 157.9796
261.363424 88.626 158.1516
263.257372 88.590 158.3090
265.165043 88.553 158.4582
267.086538 88.514 158.6072
269.021957 88.474 158.7637
270.971401 88.434 158.9330
272.934972 88.395 159.1168
274.912771 88.356 159.3132
276.904902 88.319 159.5181
278.911469 88.283 159.7277
280.932577 88.249 159.9389
282.968330 88.217 160.1484
285.018835 88.187 160.3515
287.084199 88.159 160.5417
289.164530 88.132 160.7136
291.259935 88.103 160.8658
293.370525 88.073 161.0037
295.496408 88.039 161.1368
297.637697 88.002 161.2747
299.794503 87.963 161.4238
301.966937 87.923 161.5867
304.155114 87.882 161.7624
306.359147 87.842 161.9484
308.579152 87.801 162.1413
310.815244 87.761 162.3382
313.067539 87.721 162.5375
315.336156 87.681 162.7399
317.621211 87.640 162.9487
319.922826 87.598 163.1682
322.241118 87.556 163.4004
324.576210 87.515 163.6447
326.928223 87.474 163.8979
329.297280 87.435 164.1569
331.683504 87.396 164.4186
334.087019 87.359 164.6807
336.507952 87.322 164.9412
338.946427 87.286 165.1992
341.402572 87.250 165.4550
343.876516 87.213 165.7110
346.368387 87.175 165.9700
348.878315 87.137 166.2341
351.406431 87.099 166.5042
353.952867 87.061 166.7802
356.517756 87.023 167.0619
359.101230 86.985 167.3490
361.703426 86.948 167.6410
364.324478 86.911 167.9375
366.964523 86.875 168.2379
369.623699 86.839 168.5417
372.302145 86.804 168.8492
375.000000 86.769 169.1605
377.717405 86.734 169.4759
380.454501 86.699 169.7952
383.211431 86.665 170.1183
385.988339 86.631 170.4453
388.785369 86.598 170.7762
391.602668 86.564 171.1119
394.440383 86.532 171.4525
397.298660 86.501 171.7977
400.177650 86.470 172.1465
403.077502 86.440 172.4975
405.998368 86.410 172.8490
408.940400 86.380 173.2007
411.903750 86.350 173.5545
414.888575 86.319 173.9139
417.895028 86.288 174.2827
420.923268 86.258 174.6632
423.973452 86.229 175.0561
427.045738 86.201 175.4596
430.140287 86.176 175.8699
433.257261 86.152 176.2821
436.396822 86.131 176.6926
439.559133 86.111 177.1001
442.744360 86.092 177.5048
445.952668 86.075 177.9050
449.184225 86.059 178.2961
452.439199 86.044 178.6725
455.717760 86.029 179.0310
459.020079 86.012 179.3758
462.346327 85.992 179.7180
465.696680 85.970 -179.9299
469.071310 85.946 -179.5608
472.470394 85.922 -179.1738
475.894109 85.899 -178.7725
479.342634 85.877 -178.3630
482.816148 85.855 -177.9510
486.314833 85.835 -177.5386
489.838871 85.813 -177.1215
493.388445 85.792 -176.6918
496.963741 85.771 -176.2452
500.564945 85.753 -175.7847
504.192245 85.737 -175.3179
507.845830 85.723 -174.8516
511.525890 85.710 -174.3894
515.232618 85.698 -173.9312
518.966206 85.686 -173.4741
522.726849 85.673 -173.0137
526.514743 85.662 -172.5453
530.330086 85.651 -172.0663
534.173076 85.642 -171.5789
538.043915 85.634 -171.0882
541.942803 85.629 -170.5973
545.869944 85.625 -170.1061
549.825542 85.623 -169.6139
553.809805 85.623 -169.1223
557.822939 85.623 -168.6348
561.865154 85.625 -168.1539
565.936660 85.627 -167.6793
570.037671 85.629 -167.2087
574.168399 85.632 -166.7390
578.329060 85.634 -166.2684
582.519870 85.638 -165.7970
586.741049 85.641 -165.3244
590.992817 85.646 -164.8478
595.275394 85.650 -164.3644
599.589005 85.657 -163.8752
603.933874 85.664 -163.3844
608.310228 85.673 -162.8958
612.718295 85.682 -162.4114
617.158304 85.692 -161.9293
621.630488 85.701 -161.4445
626.135079 85.711 -160.9515
630.672311 85.722 -160.4480
635.242423 85.735 -159.9377
639.845651 85.750 -159.4263
644.482237 85.767 -158.9151
649.152421 85.787 -158.4023
653.856447 85.809 -157.8886
658.594560 85.834 -157.3801
663.367008 85.862 -156.8866
668.174039 85.890 -156.4160
673.015903 85.919 -155.9675
677.892854 85.946 -155.5330
682.805145 85.971 -155.1035
687.753032 85.996 -154.6724
692.736774 86.021 -154.2356
697.756631 86.046 -153.7920
702.812863 86.072 -153.3442
707.905735 86.101 -152.8992
713.035511 86.130 -152.4646
718.202461 86.160 -152.0440
723.406852 86.189 -151.6356
728.648956 86.218 -151.2335
733.929047 86.245 -150.8313
739.247399 86.272 -150.4241
744.604290 86.298 -150.0094
750.000000 86.326 -149.5880
755.434809 86.354 -149.1627
760.909001 86.384 -148.7379
766.422861 86.416 -148.3179
771.976677 86.448 -147.9056
777.570739 86.480 -147.5023
783.205337 86.511 -147.1065
788.880766 86.542 -146.7135
794.597321 86.572 -146.3168
800.355301 86.602 -145.9109
806.155005 86.633 -145.4945
811.996736 86.666 -145.0720
817.880799 86.702 -144.6510
823.807501 86.741 -144.2411
829.777150 86.781 -143.8507
835.790057 86.820 -143.4820
841.846536 86.858 -143.1287
847.946903 86.894 -142.7805
854.091476 86.927 -142.4294
860.280575 86.960 -142.0720
866.514523 86.991 -141.7062
872.793644 87.022 -141.3292
879.118267 87.054 -140.9411
885.488720 87.087 -140.5460
891.905336 87.121 -140.1475
898.368450 87.155 -139.7462
904.878398 87.191 -139.3403
911.435520 87.228 -138.9289
918.040157 87.266 -138.5138
924.692655 87.307 -138.0979
931.393359 87.349 -137.6850
938.142619 87.393 -137.2786
944.940787 87.439 -136.8809
951.788218 87.485 -136.4905
958.685268 87.531 -136.1049
965.632296 87.578 -135.7214
972.629666 87.625 -135.3376
979.677741 87.673 -134.9525
986.776890 87.722 -134.5670
993.927482 87.772 -134.1803
1001.129891 87.822 -133.7885
1008.384491 87.875 -133.3882
1015.691660 87.930 -132.9803
1023.051781 87.989 -132.5698
1030.465236 88.052 -132.1646
1037.932411 88.119 -131.7761
1045.453698 88.189 -131.4164
1053.029486 88.259 -131.0910
1060.660172 88.329 -130.7961
1068.346153 88.398 -130.5232
1076.087829 88.464 -130.2629
1083.885605 88.529 -130.0087
1091.739887 88.593 -129.7580
1099.651084 88.656 -129.5107
1107.619609 88.719 -129.2664
1115.645878 88.781 -129.0243
1123.730308 88.843 -128.7836
1131.873321 88.904 -128.5432
1140.075341 88.965 -128.3024
1148.336797 89.027 -128.0603
1156.658119 89.089 -127.8160
1165.039741 89.151 -127.5683
1173.482099 89.215 -127.3156
1181.985634 89.280 -127.0586
1190.550789 89.349 -126.8030
1199.178011 89.422 -126.5599
1207.867749 89.497 -126.3413
1216.620457 89.573 -126.1533
1225.436590 89.647 -125.9926
1234.316609 89.719 -125.8509
1243.260976 89.789 -125.7191
1252.270157 89.856 -125.5895
1261.344623 89.921 -125.4579
1270.484846 89.985 -125.3229
1279.691303 90.048 -125.1831
1288.964474 90.111 -125.0370
1298.304842 90.173 -124.8849
1307.712894 90.236 -124.7291
1317.189120 90.300 -124.5733
1326.734016 90.364 -124.4201
1336.348077 90.429 -124.2690
1346.031806 90.495 -124.1174
1355.785708 90.562 -123.9618
1365.610290 90.630 -123.7985
1375.506065 90.700 -123.6232
1385.473549 90.772 -123.4312
1395.513261 90.848 -123.2211
1405.625726 90.928 -122.9984
1415.811469 91.013 -122.7748
1426.071023 91.102 -122.5652
1436.404921 91.194 -122.3794
1446.813703 91.287 -122.2182
1457.297912 91.379 -122.0766
1467.858093 91.470 -121.9489
1478.494798 91.560 -121.8307
1489.208581 91.647 -121.7186
1500.000000 91.732 -121.6092
1510.869618 91.814 -121.4992
1521.818002 91.892 -121.3860
1532.845723 91.967 -121.2672
1543.953355 92.039 -121.1413
1555.141477 92.111 -121.0085
1566.410674 92.183 -120.8733
1577.761531 92.258 -120.7468
1589.194642 92.336 -120.6432
1600.710601 92.416 -120.5722
1612.310010 92.496 -120.5349
1623.993473 92.574 -120.5261
1635.761599 92.652 -120.5388
1647.615002 92.727 -120.5669
1659.554299 92.802 -120.6058
1671.580114 92.876 -120.6525
1683.693072 92.950 -120.7066
1695.893807 93.024 -120.7704
1708.182952 93.098 -120.8464
1720.561150 93.171 -120.9345
1733.029045 93.242 -121.0320
1745.587288 93.311 -121.1340
1758.236533 93.378 -121.2342
1770.977440 93.445 -121.3276
1783.810673 93.514 -121.4152
1796.736900 93.586 -121.5066
1809.756796 93.661 -121.6162
1822.871040 93.739 -121.7557
1836.080315 93.817 -121.9294
1849.385310 93.896 -122.1363
1862.786718 93.975 -122.3731
1876.285239 94.052 -122.6351
1889.881575 94.130 -122.9167
1903.576436 94.209 -123.2121
1917.370535 94.289 -123.5162
1931.264593 94.373 -123.8256
1945.259332 94.462 -124.1417
1959.355483 94.556 -124.4731
1973.553781 94.654 -124.8332
1987.854965 94.755 -125.2328
2002.259781 94.855 -125.6763
2016.768981 94.954 -126.1622
2031.383320 95.050 -126.6867
2046.103561 95.142 -127.2451
2060.930471 95.230 -127.8336
2075.864823 95.314 -128.4507
2090.907395 95.393 -129.0956
2106.058972 95.467 -129.7657
2121.320344 95.534 -130.4550
2136.692305 95.594 -131.1540
2152.175658 95.647 -131.8532
2167.771210 95.696 -132.5479
2183.479774 95.741 -133.2420
2199.302169 95.782 -133.9442
2215.239219 95.821 -134.6611
2231.291755 95.854 -135.3950
2247.460615 95.882 -136.1441
2263.746641 95.904 -136.9031
2280.150683 95.919 -137.6642
2296.673595 95.928 -138.4180
2313.316238 95.932 -139.1560
2330.079481 95.932 -139.8745
2346.964198 95.929 -140.5780
2363.971268 95.925 -141.2758
2381.101578 95.918 -141.9760
2398.356022 95.908 -142.6813
2415.735498 95.892 -143.3906
2433.240913 95.872 -144.0993
2450.873180 95.845 -144.8028
2468.633217 95.813 -145.4972
2486.521951 95.774 -146.1782
2504.540314 95.729 -146.8388
2522.689246 95.678 -147.4684
2540.969692 95.621 -148.0565
2559.382606 95.562 -148.5987
2577.928947 95.500 -149.0990
2596.609683 95.437 -149.5653
2615.425787 95.374 -150.0043
2634.378241 95.308 -150.4190
2653.468031 95.240 -150.8077
2672.696154 95.170 -151.1644
2692.063613 95.097 -151.4809
2711.571415 95.024 -151.7516
2731.220579 94.952 -151.9789
2751.012130 94.882 -152.1720
2770.947098 94.815 -152.3416
2791.026522 94.750 -152.4957
2811.251451 94.685 -152.6383
2831.622938 94.621 -152.7707
2852.142045 94.557 -152.8933
2872.809842 94.492 -153.0047
2893.627406 94.425 -153.0990
2914.595823 94.356 -153.1664
2935.716186 94.287 -153.1977
2956.989596 94.218 -153.1906
2978.417161 94.150 -153.1497
3000.000000 94.085 -153.0822
3021.739237 94.022 -152.9932
3043.636005 93.961 -152.8833
3065.691446 93.901 -152.7474
3087.906710 93.842 -152.5783
3110.282955 93.787 -152.3727
3132.821347 93.736 -152.1358
3155.523062 93.690 -151.8774
3178.389283 93.650 -151.6079
3201.421202 93.615 -151.3355
3224.620020 93.584 -151.0658
3247.986946 93.556 -150.8024
3271.523198 93.529 -150.5445
3295.230004 93.503 -150.2852
3319.108599 93.478 -150.0141
3343.160228 93.455 -149.7250
3367.386145 93.436 -149.4182
3391.787613 93.419 -149.0981
3416.365904 93.407 -148.7681
3441.122300 93.398 -148.4273
3466.058091 93.392 -148.0692
3491.174576 93.391 -147.6874
3516.473066 93.395 -147.2820
3541.954880 93.407 -146.8606
3567.621345 93.427 -146.4346
3593.473800 93.454 -146.0157
3619.513592 93.488 -145.6147
3645.742080 93.527 -145.2391
3672.160630 93.571 -144.8897
3698.770620 93.617 -144.5601
3725.573436 93.666 -144.2437
3752.570477 93.719 -143.9386
3779.763150 93.775 -143.6481
3807.152872 93.833 -143.3754
3834.741071 93.893 -143.1195
3862.529185 93.956 -142.8741
3890.518664 94.021 -142.6339
3918.710966 94.091 -142.4009
3947.107561 94.168 -142.1842
3975.709929 94.252 -141.9970
4004.519563 94.343 -141.8542
4033.537962 94.441 -141.7690
4062.766641 94.542 -141.7476
4092.207123 94.647 -141.7890
4121.860942 94.754 -141.8909
4151.729646 94.863 -142.0546
4181.814790 94.973 -142.2839
4212.117944 95.082 -142.5809
4242.640687 95.191 -142.9420
4273.384610 95.299 -143.3610
4304.351317 95.405 -143.8357
4335.542421 95.512 -144.3713
4366.959549 95.619 -144.9783
4398.604338 95.725 -145.6712
4430.478438 95.828 -146.4630
4462.583511 95.927 -147.3594
4494.921231 96.019 -148.3585
4527.493283 96.101 -149.4562
4560.301365 96.173 -150.6487
4593.347189 96.232 -151.9301
4626.632476 96.276 -153.2884
4660.158962 96.303 -154.7052
4693.928395 96.313 -156.1620
4727.942535 96.306 -157.6440
4762.203156 96.284 -159.1422
4796.712043 96.246 -160.6520
4831.470996 96.192 -162.1697
4866.481826 96.122 -163.6870
4901.746360 96.035 -165.1917
4937.266434 95.930 -166.6719
4973.043902 95.808 -168.1170
5009.080628 95.668 -169.5139
5045.378492 95.510 -170.8445
5081.939384 95.334 -172.0888
5118.765212 95.143 -173.2295
5155.857894 94.939 -174.2561
5193.219366 94.725 -175.1656
5230.851574 94.503 -175.9592
5268.756481 94.274 -176.6371
5306.936062 94.041 -177.1998
5345.392309 93.804 -177.6521
5384.127225 93.566 -178.0027
5423.142830 93.326 -178.2602
5462.441159 93.084 -178.4293
5502.024259 92.839 -178.5098
5541.894195 92.593 -178.4976
5582.053045 92.346 -178.3877
5622.502902 92.098 -178.1761
5663.245876 91.852 -177.8584
5704.284090 91.609 -177.4328
5745.619684 91.372 -176.9034
5787.254813 91.142 -176.2786
5829.191647 90.919 -175.5651
5871.432373 90.705 -174.7657
5913.979192 90.500 -173.8806
5956.834323 90.307 -172.9130
6000.000000 90.125 -171.8709
6043.478473 89.958 -170.7648
6087.272010 89.806 -169.6062
6131.382892 89.668 -168.4084
6175.813420 89.546 -167.1854
6220.565910 89.438 -165.9462
6265.642695 89.344 -164.6926
6311.046124 89.262 -163.4218
6356.778566 89.193 -162.1315
6402.842404 89.138 -160.8233
6449.240040 89.097 -159.5015
6495.973891 89.073 -158.1736
6543.046396 89.064 -156.8502
6590.460007 89.072 -155.5422
6638.217197 89.095 -154.2556
6686.320456 89.134 -152.9909
6734.772290 89.188 -151.7465
6783.575226 89.260 -150.5234
6832.731809 89.349 -149.3265
6882.244600 89.457 -148.1660
6932.116181 89.584 -147.0581
6982.349153 89.731 -146.0216
7032.946133 89.899 -145.0734
7083.909760 90.089 -144.2278
7135.242690 90.301 -143.4997
7186.947600 90.538 -142.9101
7239.027185 90.802 -142.4876
7291.484160 91.092 -142.2715
7344.321260 91.409 -142.3110
7397.541239 91.749 -142.6596
7451.146872 92.108 -143.3686
7505.140954 92.477 -144.4842
7559.526299 92.849 -146.0476
7614.305743 93.214 -148.0929
7669.482141 93.557 -150.6434
7725.058371 93.865 -153.7079
7781.037328 94.120 -157.2720
7837.421932 94.304 -161.2890
7894.215122 94.401 -165.6749
7951.419859 94.398 -170.3129
8009.039125 94.286 -175.0609
8067.075924 94.062 -179.7647
8125.533282 93.729 175.7247
8184.414245 93.296 171.5385
8243.721885 92.774 167.7827
8303.459292 92.176 164.5371
8363.629581 91.518 161.8544
8424.235888 90.814 159.7634
8485.281374 90.081 158.2697
8546.769221 89.333 157.3554
8608.702634 88.584 156.9838
8671.084842 87.844 157.1104
8733.919097 87.120 157.6926
8797.208675 86.417 158.6974
8860.956876 85.739 160.1038
8925.167022 85.088 161.8981
8989.842461 84.470 164.0690
9054.986566 83.887 166.6081
9120.602731 83.345 169.5146
9186.694378 82.848 172.7964
9253.264952 82.407 176.4658
9320.317925 82.032 -179.4769
9387.856790 81.738 -175.0660
9455.885071 81.543 -170.3863
9524.406312 81.459 -165.5785
9593.424086 81.493 -160.8300
9662.941992 81.642 -156.3486
9732.963653 81.895 -152.3337
9803.492719 82.227 -148.9439
9874.532869 82.609 -146.2684
9946.087805 83.011 -144.3155
10018.161257 83.405 -143.0172
10090.756983 83.771 -142.2524
10163.878768 84.097 -141.8763
10237.530423 84.379 -141.7449
10311.715789 84.618 -141.7294
10386.438732 84.820 -141.7207
10461.703149 84.995 -141.6302
10537.512962 85.154 -141.3943
10613.872125 85.312 -140.9797
10690.784618 85.482 -140.3838
10768.254450 85.676 -139.6275
10846.285661 85.907 -138.7455
10924.882318 86.184 -137.7817
11004.048518 86.517 -136.7939
11083.788390 86.915 -135.8584
11164.106090 87.385 -135.0694
11245.005805 87.930 -134.5332
11326.491752 88.549 -134.3652
11408.568180 89.237 -134.6919
11491.239368 89.982 -135.6499
11574.509626 90.764 -137.3746
11658.383294 91.557 -139.9823
11742.864745 92.327 -143.5537
11827.958384 93.039 -148.1216
11913.668646 93.654 -153.6588
12000.000000 94.133 -160.0625
12086.956947 94.443 -167.1420
12174.544019 94.560 -174.6201
12262.765784 94.476 177.8388
12351.626840 94.195 170.5803
12441.131819 93.739 163.9076
12531.285389 93.138 158.0476
12622.092249 92.430 153.1387
12713.557132 91.656 149.2341
12805.684808 90.856 146.3121
12898.480079 90.070 144.2940
12991.947783 89.329 143.0628
13086.092792 88.661 142.4777
13180.920015 88.088 142.3816
13276.434395 87.624 142.6077
13372.640911 87.277 142.9877
13469.544580 87.052 143.3555
13567.150452 86.947 143.5423
13665.463617 86.957 143.3754
13764.489200 87.068 142.6862
13864.232362 87.260 141.3240
13964.698305 87.507 139.1677
14065.892266 87.774 136.1365
14167.819519 88.024 132.2036
14270.485380 88.216 127.4080
14373.895200 88.313 121.8592
14478.054370 88.281 115.7354
14582.968320 88.097 109.2740
14688.642520 87.748 102.7510
14795.082478 87.239 96.4436
14902.293745 86.584 90.5916
15010.281908 85.812 85.3725
15119.052599 84.958 80.8875
15228.611486 84.064 77.1538
15338.964283 83.176 74.1007
15450.116741 82.341 71.5710
15562.074656 81.602 69.3297
15674.843864 80.992 67.0819
15788.430244 80.524 64.5040
15902.839718 80.186 61.2892
16018.078250 79.936 57.1986
16134.151848 79.714 52.1047
16251.066563 79.444 46.0231
16368.828491 79.055 39.1272
16487.443769 78.489 31.7328
16606.918584 77.709 24.2432
16727.259161 76.705 17.0698
16848.471777 75.489 10.5650
16970.562748 74.083 4.9869
17093.538442 72.519 0.4964
17217.405268 70.830 -2.8304
17342.169684 69.049 -4.9880
17467.838194 67.207 -6.0291
17594.417350 65.331 -6.0510
17721.913751 63.447 -5.1785
17850.334044 61.573 -3.5446
17979.684923 59.726 -1.2683
18109.973131 57.915 1.5675
18241.205462 56.143 4.9238
18373.388756 54.407 8.8096
18506.529905 52.706 13.2941
18640.635849 51.037 18.5210
18775.713581 49.405 24.7338
18911.770141 47.829 32.3518
19048.812624 46.346 42.0768
19186.848172 45.038 54.8757
19325.883983 44.025 71.3076
19465.927305 43.430 89.7602
19606.985439 43.274 106.2434
19749.065738 43.436 117.9448
19892.175609 43.705 124.8063
20036.322514 43.892 127.8566
