* Measurement data measured by REW V5.31
* Source: EXCL: Microphone (USB Sound Device        ), MICROPHONE (Master Volume), R, volume: 0.390
* Format: 256k Log Swept Sine, 1 sweep at -15.0 dBFS with no timing reference
* Dated: Dec 24, 2024 1:08:42 AM
* REW Settings:
*  C-weighting compensation: Off
*  Target level: 75.0 dB
* Note: L BLON BL03 II White2
* Measurement: L BLON BL03 II White2
* Smoothing: 1/12 octave
* Frequency Step: 96 ppo
* Start Frequency: 0.36621094 Hz
*
* Freq(Hz) SPL(dB) Phase(degrees)
0.366211 95.182 159.6964
0.368865 95.177 159.6751
0.371538 95.168 159.6431
0.374230 95.157 159.6030
0.376942 95.145 159.5567
0.379673 95.132 159.5059
0.382424 95.119 159.4515
0.385196 95.105 159.3942
0.387987 95.091 159.3342
0.390798 95.076 159.2718
0.393630 95.062 159.2070
0.396483 95.047 159.1400
0.399356 95.033 159.0706
0.402250 95.018 158.9989
0.405165 95.003 158.9250
0.408101 94.988 158.8486
0.411058 94.973 158.7700
0.414037 94.958 158.6889
0.417037 94.942 158.6054
0.420059 94.927 158.5195
0.423103 94.911 158.4312
0.426169 94.895 158.3403
0.429257 94.880 158.2470
0.432368 94.864 158.1512
0.435501 94.848 158.0528
0.438656 94.832 157.9519
0.441835 94.815 157.8484
0.445037 94.799 157.7423
0.448262 94.782 157.6336
0.451510 94.766 157.5222
0.454782 94.749 157.4082
0.458077 94.732 157.2915
0.461397 94.715 157.1721
0.464740 94.698 157.0500
0.468108 94.681 156.9252
0.471500 94.663 156.7977
0.474917 94.646 156.6674
0.478358 94.628 156.5343
0.481825 94.611 156.3985
0.485316 94.593 156.2598
0.488833 94.575 156.1184
0.492375 94.557 155.9742
0.495943 94.538 155.8271
0.499537 94.520 155.6772
0.503157 94.501 155.5245
0.506803 94.483 155.3689
0.510475 94.464 155.2105
0.514175 94.445 155.0493
0.517900 94.426 154.8852
0.521653 94.407 154.7183
0.525434 94.387 154.5486
0.529241 94.368 154.3760
0.533076 94.348 154.2006
0.536939 94.329 154.0224
0.540830 94.309 153.8414
0.544749 94.289 153.6577
0.548696 94.268 153.4711
0.552673 94.248 153.2818
0.556677 94.228 153.0898
0.560711 94.207 152.8952
0.564774 94.186 152.6978
0.568867 94.165 152.4978
0.572989 94.144 152.2952
0.577141 94.123 152.0900
0.581324 94.101 151.8823
0.585536 94.080 151.6721
0.589779 94.058 151.4596
0.594053 94.036 151.2446
0.598358 94.014 151.0273
0.602694 93.992 150.8078
0.607061 93.970 150.5860
0.611460 93.947 150.3622
0.615891 93.924 150.1363
0.620354 93.902 149.9085
0.624849 93.879 149.6788
0.629377 93.855 149.4473
0.633938 93.832 149.2142
0.638532 93.809 148.9794
0.643159 93.785 148.7432
0.647819 93.761 148.5057
0.652514 93.737 148.2670
0.657242 93.713 148.0272
0.662005 93.688 147.7864
0.666802 93.664 147.5449
0.671634 93.639 147.3027
0.676501 93.614 147.0600
0.681403 93.589 146.8171
0.686341 93.564 146.5740
0.691314 93.538 146.3310
0.696324 93.513 146.0883
0.701370 93.487 145.8459
0.706452 93.460 145.6041
0.711571 93.433 145.3629
0.716728 93.405 145.1222
0.721921 93.377 144.8819
0.727153 93.346 144.6416
0.732422 93.314 144.4005
0.737729 93.280 144.1577
0.743075 93.243 143.9123
0.748460 93.205 143.6635
0.753883 93.166 143.4105
0.759346 93.125 143.1530
0.764849 93.084 142.8906
0.770391 93.042 142.6231
0.775974 93.000 142.3504
0.781597 92.957 142.0724
0.787261 92.913 141.7889
0.792966 92.869 141.4999
0.798712 92.825 141.2054
0.804500 92.779 140.9052
0.810329 92.734 140.5994
0.816201 92.687 140.2879
0.822116 92.640 139.9707
0.828073 92.592 139.6476
0.834074 92.544 139.3188
0.840118 92.495 138.9841
0.846206 92.444 138.6436
0.852338 92.394 138.2971
0.858514 92.342 137.9448
0.864735 92.289 137.5866
0.871001 92.236 137.2226
0.877313 92.181 136.8526
0.883670 92.126 136.4768
0.890074 92.069 136.0952
0.896524 92.012 135.7079
0.903020 91.953 135.3149
0.909564 91.893 134.9162
0.916155 91.832 134.5120
0.922794 91.770 134.1024
0.929481 91.706 133.6875
0.936216 91.641 133.2674
0.943000 91.575 132.8422
0.949834 91.507 132.4123
0.956717 91.438 131.9776
0.963649 91.367 131.5386
0.970632 91.294 131.0954
0.977666 91.220 130.6483
0.984750 91.144 130.1976
0.991886 91.066 129.7437
0.999074 90.987 129.2869
1.006314 90.905 128.8276
1.013606 90.822 128.3663
1.020951 90.736 127.9034
1.028349 90.648 127.4395
1.035801 90.558 126.9752
1.043307 90.466 126.5109
1.050867 90.371 126.0474
1.058482 90.274 125.5854
1.066152 90.174 125.1253
1.073878 90.072 124.6679
1.081660 89.968 124.2135
1.089498 89.860 123.7623
1.097393 89.750 123.3144
1.105345 89.638 122.8693
1.113355 89.524 122.4264
1.121423 89.407 121.9850
1.129549 89.288 121.5446
1.137734 89.166 121.1045
1.145979 89.043 120.6641
1.154283 88.917 120.2232
1.162647 88.789 119.7811
1.171072 88.658 119.3375
1.179558 88.525 118.8920
1.188106 88.390 118.4441
1.196715 88.252 117.9933
1.205387 88.111 117.5392
1.214122 87.967 117.0812
1.222920 87.821 116.6188
1.231782 87.672 116.1515
1.240708 87.519 115.6785
1.249699 87.364 115.1993
1.258754 87.205 114.7132
1.267876 87.043 114.2194
1.277063 86.878 113.7172
1.286318 86.709 113.2056
1.295639 86.537 112.6840
1.305027 86.361 112.1511
1.314484 86.181 111.6062
1.324009 85.997 111.0481
1.333604 85.809 110.4757
1.343268 85.617 109.8877
1.353002 85.420 109.2830
1.362806 85.219 108.6601
1.372681 85.014 108.0176
1.382628 84.803 107.3542
1.392647 84.588 106.6682
1.402739 84.368 105.9582
1.412904 84.142 105.2225
1.423142 83.911 104.4597
1.433455 83.673 103.6684
1.443843 83.427 102.8473
1.454305 83.173 101.9953
1.464844 82.908 101.1115
1.475459 82.630 100.1946
1.486150 82.336 99.2431
1.496920 82.026 98.2543
1.507767 81.698 97.2249
1.518693 81.353 96.1502
1.529698 80.989 95.0246
1.540783 80.609 93.8413
1.551948 80.213 92.5922
1.563194 79.803 91.2678
1.574521 79.381 89.8568
1.585931 78.948 88.3461
1.597423 78.506 86.7199
1.608999 78.057 84.9596
1.620658 77.604 83.0428
1.632402 77.148 80.9430
1.644232 76.693 78.6282
1.656146 76.240 76.0604
1.668147 75.793 73.1945
1.680235 75.354 69.9773
1.692411 74.927 66.3477
1.704675 74.515 62.2375
1.717028 74.121 57.5754
1.729470 73.750 52.2948
1.742003 73.404 46.3477
1.754626 73.090 39.7260
1.767341 72.810 32.4853
1.780147 72.570 24.7635
1.793047 72.374 16.7781
1.806040 72.227 8.7934
1.819128 72.134 1.0652
1.832310 72.097 -6.2101
1.845587 72.120 -12.9194
1.858961 72.202 -19.0245
1.872432 72.343 -24.5393
1.886001 72.541 -29.5051
1.899667 72.792 -33.9751
1.913433 73.094 -38.0043
1.927299 73.440 -41.6449
1.941265 73.827 -44.9438
1.955332 74.250 -47.9422
1.969501 74.704 -50.6757
1.983773 75.183 -53.1750
1.998148 75.682 -55.4660
2.012627 76.196 -57.5706
2.027212 76.720 -59.5075
2.041902 77.248 -61.2926
2.056698 77.775 -62.9391
2.071602 78.295 -64.4585
2.086614 78.803 -65.8605
2.101734 79.294 -67.1537
2.116964 79.764 -68.3457
2.132304 80.208 -69.4438
2.147756 80.622 -70.4553
2.163320 81.005 -71.3884
2.178996 81.355 -72.2523
2.194786 81.673 -73.0581
2.210690 81.963 -73.8173
2.226710 82.226 -74.5413
2.242845 82.468 -75.2390
2.259098 82.690 -75.9165
2.275468 82.895 -76.5774
2.291957 83.084 -77.2233
2.308566 83.259 -77.8545
2.325295 83.420 -78.4705
2.342145 83.570 -79.0700
2.359117 83.709 -79.6515
2.376212 83.838 -80.2132
2.393431 83.959 -80.7529
2.410775 84.073 -81.2686
2.428244 84.181 -81.7578
2.445840 84.285 -82.2183
2.463564 84.385 -82.6476
2.481416 84.484 -83.0436
2.499397 84.581 -83.4043
2.517509 84.677 -83.7285
2.535752 84.774 -84.0158
2.554127 84.870 -84.2671
2.572635 84.964 -84.4843
2.591277 85.056 -84.6704
2.610055 85.143 -84.8284
2.628968 85.225 -84.9610
2.648019 85.302 -85.0700
2.667208 85.374 -85.1568
2.686535 85.440 -85.2222
2.706003 85.503 -85.2667
2.725612 85.561 -85.2906
2.745363 85.616 -85.2940
2.765257 85.669 -85.2769
2.785295 85.721 -85.2393
2.805478 85.772 -85.1810
2.825808 85.823 -85.1018
2.846285 85.876 -85.0013
2.866910 85.931 -84.8792
2.887685 85.988 -84.7348
2.908611 86.047 -84.5669
2.929688 86.109 -84.3746
2.950917 86.173 -84.1564
2.972301 86.238 -83.9119
2.993839 86.305 -83.6413
3.015534 86.372 -83.3456
3.037386 86.440 -83.0270
3.059396 86.508 -82.6882
3.081565 86.578 -82.3324
3.103896 86.649 -81.9629
3.126388 86.722 -81.5835
3.149043 86.796 -81.1979
3.171862 86.873 -80.8097
3.194847 86.952 -80.4223
3.217998 87.035 -80.0384
3.241317 87.121 -79.6603
3.264805 87.211 -79.2886
3.288463 87.305 -78.9231
3.312293 87.403 -78.5621
3.336295 87.506 -78.2038
3.360471 87.612 -77.8474
3.384822 87.723 -77.4934
3.409350 87.837 -77.1435
3.434056 87.954 -76.8008
3.458940 88.074 -76.4687
3.484005 88.196 -76.1512
3.509252 88.320 -75.8520
3.534681 88.444 -75.5751
3.560295 88.570 -75.3239
3.586094 88.695 -75.1013
3.612081 88.821 -74.9094
3.638255 88.947 -74.7491
3.664620 89.072 -74.6204
3.691175 89.198 -74.5219
3.717923 89.324 -74.4519
3.744864 89.450 -74.4083
3.772001 89.577 -74.3896
3.799335 89.703 -74.3945
3.826866 89.830 -74.4217
3.854597 89.955 -74.4705
3.882529 90.079 -74.5403
3.910664 90.202 -74.6305
3.939002 90.322 -74.7410
3.967546 90.439 -74.8718
3.996296 90.554 -75.0232
4.025255 90.665 -75.1956
4.054423 90.774 -75.3895
4.083804 90.879 -75.6049
4.113396 90.981 -75.8408
4.143204 91.080 -76.0959
4.173227 91.177 -76.3680
4.203468 91.270 -76.6546
4.233928 91.360 -76.9531
4.264609 91.447 -77.2612
4.295512 91.531 -77.5767
4.326639 91.611 -77.8981
4.357992 91.688 -78.2249
4.389572 91.762 -78.5572
4.421380 91.831 -78.8958
4.453419 91.897 -79.2418
4.485691 91.959 -79.5952
4.518196 92.017 -79.9552
4.550936 92.071 -80.3199
4.583914 92.122 -80.6870
4.617131 92.170 -81.0535
4.650589 92.216 -81.4166
4.684289 92.258 -81.7739
4.718233 92.298 -82.1234
4.752424 92.335 -82.4643
4.786862 92.370 -82.7967
4.821549 92.402 -83.1210
4.856488 92.431 -83.4380
4.891680 92.457 -83.7479
4.927127 92.481 -84.0505
4.962831 92.504 -84.3451
4.998794 92.525 -84.6307
5.035017 92.545 -84.9060
5.071503 92.564 -85.1700
5.108253 92.583 -85.4215
5.145270 92.602 -85.6600
5.182555 92.620 -85.8853
5.220110 92.638 -86.0982
5.257937 92.656 -86.2997
5.296038 92.674 -86.4916
5.334415 92.693 -86.6756
5.373071 92.712 -86.8533
5.412006 92.732 -87.0263
5.451224 92.754 -87.1955
5.490725 92.778 -87.3614
5.530514 92.804 -87.5240
5.570590 92.832 -87.6837
5.610957 92.861 -87.8416
5.651616 92.892 -87.9997
5.692570 92.925 -88.1605
5.733821 92.960 -88.3270
5.775370 92.997 -88.5019
5.817221 93.035 -88.6875
5.859375 93.076 -88.8851
5.901834 93.118 -89.0954
5.944602 93.162 -89.3187
5.987679 93.208 -89.5554
6.031068 93.255 -89.8064
6.074771 93.303 -90.0728
6.118792 93.352 -90.3561
6.163131 93.402 -90.6577
6.207792 93.451 -90.9788
6.252776 93.501 -91.3200
6.298086 93.551 -91.6812
6.343725 93.601 -92.0617
6.389694 93.650 -92.4606
6.435996 93.699 -92.8765
6.482634 93.747 -93.3083
6.529610 93.794 -93.7551
6.576926 93.840 -94.2164
6.624585 93.884 -94.6919
6.672590 93.927 -95.1810
6.720942 93.969 -95.6826
6.769645 94.008 -96.1950
6.818700 94.047 -96.7158
6.868111 94.084 -97.2427
6.917881 94.119 -97.7739
6.968010 94.153 -98.3081
7.018504 94.185 -98.8444
7.069362 94.216 -99.3821
7.120590 94.245 -99.9202
7.172189 94.274 -100.4570
7.224161 94.302 -100.9908
7.276511 94.329 -101.5197
7.329239 94.356 -102.0425
7.382350 94.382 -102.5585
7.435845 94.409 -103.0676
7.489729 94.435 -103.5695
7.544002 94.463 -104.0644
7.598669 94.490 -104.5521
7.653732 94.519 -105.0325
7.709194 94.549 -105.5053
7.765058 94.581 -105.9708
7.821327 94.614 -106.4295
7.878004 94.649 -106.8825
7.935091 94.685 -107.3310
7.992592 94.724 -107.7761
8.050510 94.764 -108.2189
8.108847 94.806 -108.6600
8.167607 94.850 -109.1002
8.226793 94.897 -109.5402
8.286408 94.944 -109.9811
8.346454 94.994 -110.4240
8.406936 95.045 -110.8699
8.467856 95.097 -111.3194
8.529218 95.151 -111.7726
8.591024 95.206 -112.2295
8.653278 95.261 -112.6900
8.715983 95.317 -113.1539
8.779143 95.373 -113.6212
8.842760 95.429 -114.0914
8.906839 95.486 -114.5639
8.971381 95.542 -115.0379
9.036392 95.597 -115.5122
9.101873 95.653 -115.9857
9.167829 95.707 -116.4572
9.234263 95.761 -116.9260
9.301178 95.815 -117.3911
9.368578 95.867 -117.8513
9.436467 95.919 -118.3055
9.504847 95.970 -118.7526
9.573723 96.020 -119.1919
9.643099 96.069 -119.6227
9.712976 96.117 -120.0446
9.783361 96.162 -120.4573
9.854255 96.206 -120.8605
9.925663 96.247 -121.2540
9.997588 96.285 -121.6379
10.070035 96.321 -122.0125
10.143007 96.355 -122.3782
10.216507 96.388 -122.7357
10.290540 96.419 -123.0854
10.365109 96.449 -123.4278
10.440219 96.478 -123.7635
10.515873 96.506 -124.0934
10.592076 96.534 -124.4181
10.668830 96.561 -124.7382
10.746141 96.588 -125.0541
10.824012 96.614 -125.3663
10.902447 96.639 -125.6752
10.981451 96.664 -125.9811
11.061027 96.689 -126.2842
11.141180 96.712 -126.5847
11.221913 96.734 -126.8826
11.303232 96.756 -127.1779
11.385140 96.776 -127.4707
11.467641 96.796 -127.7609
11.550741 96.814 -128.0486
11.634442 96.832 -128.3338
11.718750 96.848 -128.6166
11.803669 96.864 -128.8971
11.889203 96.880 -129.1755
11.975357 96.894 -129.4521
12.062136 96.908 -129.7271
12.149543 96.921 -130.0009
12.237583 96.934 -130.2740
12.326262 96.946 -130.5466
12.415583 96.956 -130.8191
12.505552 96.966 -131.0921
12.596172 96.975 -131.3657
12.687449 96.982 -131.6403
12.779387 96.989 -131.9161
12.871992 96.994 -132.1934
12.965268 96.998 -132.4723
13.059220 97.002 -132.7529
13.153852 97.004 -133.0353
13.249170 97.006 -133.3195
13.345179 97.008 -133.6056
13.441884 97.008 -133.8938
13.539289 97.009 -134.1842
13.637401 97.009 -134.4771
13.736223 97.008 -134.7726
13.835761 97.007 -135.0712
13.936021 97.006 -135.3733
14.037007 97.005 -135.6794
14.138725 97.003 -135.9899
14.241180 97.001 -136.3053
14.344377 96.999 -136.6262
14.448323 96.997 -136.9528
14.553021 96.995 -137.2854
14.658478 96.992 -137.6244
14.764700 96.990 -137.9695
14.871691 96.988 -138.3208
14.979457 96.985 -138.6780
15.088005 96.983 -139.0406
15.197339 96.981 -139.4081
15.307465 96.979 -139.7801
15.418389 96.977 -140.1557
15.530117 96.976 -140.5345
15.642655 96.975 -140.9159
15.756008 96.974 -141.2994
15.870182 96.973 -141.6844
15.985184 96.973 -142.0708
16.101019 96.974 -142.4583
16.217694 96.976 -142.8466
16.335214 96.978 -143.2357
16.453586 96.981 -143.6255
16.572815 96.985 -144.0158
16.692909 96.990 -144.4064
16.813872 96.997 -144.7969
16.935713 97.004 -145.1870
17.058436 97.012 -145.5760
17.182048 97.021 -145.9634
17.306556 97.030 -146.3484
17.431967 97.040 -146.7301
17.558286 97.050 -147.1079
17.685521 97.060 -147.4809
17.813677 97.071 -147.8484
17.942762 97.082 -148.2101
18.072783 97.093 -148.5654
18.203746 97.104 -148.9140
18.335658 97.116 -149.2561
18.468526 97.127 -149.5914
18.602356 97.139 -149.9202
18.737156 97.151 -150.2426
18.872934 97.163 -150.5587
19.009695 97.175 -150.8689
19.147447 97.187 -151.1731
19.286197 97.199 -151.4717
19.425953 97.210 -151.7647
19.566721 97.221 -152.0522
19.708510 97.231 -152.3346
19.851326 97.241 -152.6120
19.995177 97.249 -152.8848
20.140070 97.257 -153.1534
20.286013 97.264 -153.4183
20.433014 97.270 -153.6801
20.581080 97.275 -153.9394
20.730219 97.279 -154.1968
20.880439 97.283 -154.4529
21.031747 97.285 -154.7083
21.184152 97.287 -154.9635
21.337661 97.288 -155.2189
21.492282 97.288 -155.4751
21.648024 97.288 -155.7323
21.804895 97.287 -155.9912
21.962902 97.285 -156.2522
22.122054 97.282 -156.5158
22.282360 97.279 -156.7825
22.443827 97.275 -157.0528
22.606464 97.270 -157.3272
22.770280 97.265 -157.6061
22.935283 97.260 -157.8897
23.101481 97.254 -158.1781
23.268884 97.248 -158.4712
23.437500 97.242 -158.7690
23.607338 97.236 -159.0710
23.778406 97.229 -159.3771
23.950714 97.223 -159.6870
24.124271 97.216 -160.0002
24.299086 97.210 -160.3164
24.475167 97.204 -160.6353
24.652524 97.198 -160.9565
24.831166 97.193 -161.2795
25.011103 97.189 -161.6037
25.192344 97.185 -161.9283
25.374898 97.181 -162.2526
25.558775 97.178 -162.5757
25.743984 97.176 -162.8968
25.930536 97.174 -163.2151
26.118439 97.172 -163.5299
26.307704 97.171 -163.8409
26.498341 97.171 -164.1477
26.690359 97.171 -164.4501
26.883768 97.171 -164.7482
27.078579 97.172 -165.0417
27.274801 97.172 -165.3306
27.472446 97.173 -165.6148
27.671522 97.173 -165.8941
27.872042 97.173 -166.1683
28.074014 97.172 -166.4371
28.277450 97.171 -166.7006
28.482360 97.169 -166.9587
28.688755 97.166 -167.2117
28.896645 97.163 -167.4601
29.106042 97.159 -167.7047
29.316957 97.155 -167.9461
29.529400 97.150 -168.1855
29.743382 97.145 -168.4238
29.958915 97.139 -168.6620
30.176009 97.132 -168.9010
30.394677 97.125 -169.1417
30.614929 97.118 -169.3846
30.836778 97.110 -169.6302
31.060234 97.101 -169.8788
31.285309 97.092 -170.1305
31.512015 97.083 -170.3855
31.740364 97.073 -170.6438
31.970368 97.063 -170.9053
32.202039 97.053 -171.1702
32.435388 97.043 -171.4383
32.670428 97.032 -171.7097
32.907171 97.022 -171.9841
33.145630 97.013 -172.2611
33.385817 97.003 -172.5402
33.627745 96.994 -172.8209
33.871425 96.984 -173.1024
34.116871 96.976 -173.3839
34.364096 96.967 -173.6647
34.613113 96.959 -173.9442
34.863934 96.951 -174.2216
35.116572 96.943 -174.4964
35.371041 96.935 -174.7681
35.627354 96.927 -175.0363
35.885525 96.919 -175.3008
36.145566 96.911 -175.5615
36.407492 96.903 -175.8185
36.671316 96.895 -176.0721
36.937051 96.887 -176.3224
37.204712 96.878 -176.5697
37.474313 96.869 -176.8143
37.745867 96.859 -177.0563
38.019389 96.849 -177.2961
38.294893 96.838 -177.5339
38.572394 96.827 -177.7702
38.851905 96.815 -178.0053
39.133442 96.803 -178.2396
39.417019 96.790 -178.4738
39.702651 96.777 -178.7082
39.990353 96.764 -178.9433
40.280140 96.751 -179.1796
40.572026 96.738 -179.4173
40.866028 96.724 -179.6566
41.162160 96.710 -179.8973
41.460438 96.697 179.8609
41.760877 96.683 179.6184
42.063494 96.669 179.3757
42.368303 96.655 179.1332
42.675322 96.641 178.8913
42.984565 96.627 178.6501
43.296048 96.613 178.4099
43.609789 96.598 178.1709
43.925804 96.584 177.9334
44.244108 96.570 177.6976
44.564719 96.555 177.4636
44.887654 96.540 177.2313
45.212928 96.525 177.0005
45.540560 96.510 176.7708
45.870565 96.495 176.5421
46.202962 96.479 176.3145
46.537768 96.463 176.0884
46.875000 96.447 175.8640
47.214676 96.430 175.6415
47.556813 96.414 175.4206
47.901429 96.397 175.2009
48.248542 96.381 174.9815
48.598171 96.365 174.7619
48.950334 96.349 174.5416
49.305048 96.333 174.3210
49.662333 96.317 174.1005
50.022206 96.301 173.8806
50.384688 96.284 173.6617
50.749796 96.267 173.4439
51.117550 96.250 173.2272
51.487969 96.233 173.0120
51.861072 96.215 172.7988
52.236879 96.197 172.5884
52.615409 96.179 172.3814
52.996681 96.161 172.1779
53.380717 96.143 171.9773
53.767536 96.125 171.7784
54.157158 96.107 171.5804
54.549603 96.090 171.3824
54.944892 96.073 171.1840
55.343045 96.056 170.9851
55.744084 96.040 170.7852
56.148028 96.024 170.5837
56.554900 96.009 170.3796
56.964720 95.994 170.1723
57.377510 95.979 169.9618
57.793291 95.964 169.7488
58.212085 95.948 169.5344
58.633914 95.932 169.3199
59.058799 95.915 169.1065
59.486764 95.897 168.8950
59.917829 95.879 168.6860
60.352019 95.860 168.4799
60.789354 95.840 168.2762
61.229859 95.820 168.0738
61.673556 95.799 167.8714
62.120468 95.778 167.6683
62.570618 95.755 167.4650
63.024031 95.732 167.2631
63.480729 95.707 167.0645
63.940736 95.682 166.8702
64.404077 95.658 166.6801
64.870776 95.633 166.4928
65.340856 95.609 166.3065
65.814343 95.586 166.1196
66.291261 95.562 165.9317
66.771635 95.539 165.7433
67.255489 95.516 165.5560
67.742850 95.493 165.3708
68.233743 95.470 165.1877
68.728193 95.447 165.0054
69.226226 95.424 164.8224
69.727867 95.402 164.6380
70.233144 95.379 164.4527
70.742083 95.355 164.2677
71.254709 95.331 164.0839
71.771050 95.308 163.9012
72.291132 95.284 163.7193
72.814984 95.260 163.5376
73.342631 95.236 163.3563
73.874102 95.211 163.1764
74.409424 95.187 162.9986
74.948626 95.163 162.8233
75.491734 95.138 162.6495
76.038779 95.114 162.4758
76.589787 95.090 162.3009
77.144788 95.066 162.1244
77.703811 95.042 161.9463
78.266885 95.017 161.7665
78.834039 94.993 161.5836
79.405303 94.968 161.3955
79.980706 94.944 161.2010
80.560280 94.919 160.9996
81.144053 94.894 160.7920
81.732056 94.867 160.5796
82.324320 94.840 160.3644
82.920876 94.812 160.1495
83.521755 94.782 159.9387
84.126988 94.750 159.7354
84.736607 94.718 159.5425
85.350643 94.684 159.3607
85.969129 94.650 159.1891
86.592097 94.615 159.0261
87.219579 94.579 158.8701
87.851608 94.542 158.7203
88.488217 94.504 158.5765
89.129439 94.466 158.4385
89.775308 94.427 158.3068
90.425856 94.389 158.1819
91.081119 94.352 158.0638
91.741131 94.317 157.9494
92.405925 94.285 157.8317
93.075536 94.255 157.7031
93.750000 94.226 157.5601
94.429351 94.196 157.4055
95.113625 94.165 157.2462
95.802858 94.133 157.0895
96.497085 94.099 156.9411
97.196342 94.064 156.8036
97.900667 94.028 156.6769
98.610096 93.992 156.5593
99.324665 93.956 156.4490
100.044413 93.920 156.3450
100.769376 93.884 156.2469
101.499592 93.848 156.1537
102.235100 93.813 156.0631
102.975938 93.779 155.9724
103.722144 93.745 155.8806
104.473757 93.712 155.7881
105.230817 93.678 155.6953
105.993363 93.645 155.6026
106.761435 93.611 155.5105
107.535072 93.578 155.4192
108.314315 93.544 155.3279
109.099206 93.511 155.2357
109.889783 93.479 155.1421
110.686090 93.446 155.0466
111.488167 93.412 154.9504
112.296056 93.376 154.8563
113.109800 93.338 154.7687
113.929440 93.297 154.6924
114.755020 93.252 154.6322
115.586582 93.203 154.5914
116.424170 93.152 154.5715
117.267827 93.101 154.5718
118.117598 93.050 154.5873
118.973527 93.004 154.6066
119.835658 92.964 154.6091
120.704037 92.930 154.5732
121.578708 92.897 154.4944
122.459718 92.865 154.3893
123.347111 92.831 154.2837
124.240935 92.796 154.1986
125.141236 92.760 154.1455
126.048061 92.725 154.1238
126.961458 92.691 154.1245
127.881473 92.656 154.1367
128.808154 92.621 154.1542
129.741551 92.584 154.1739
130.681712 92.546 154.1906
131.628686 92.508 154.1987
132.582521 92.469 154.1967
133.543269 92.432 154.1869
134.510979 92.395 154.1714
135.485701 92.360 154.1535
136.467486 92.325 154.1396
137.456386 92.292 154.1371
138.452451 92.259 154.1507
139.455735 92.228 154.1798
140.466288 92.198 154.2188
141.484165 92.170 154.2601
142.509418 92.142 154.2987
143.542100 92.115 154.3341
144.582265 92.089 154.3663
145.629968 92.064 154.3932
146.685262 92.041 154.4095
147.748204 92.018 154.4108
148.818849 91.994 154.3958
149.897251 91.970 154.3666
150.983469 91.944 154.3275
152.077557 91.915 154.2842
153.179574 91.884 154.2416
154.289576 91.853 154.2024
155.407622 91.821 154.1665
156.533770 91.790 154.1327
157.668078 91.759 154.0991
158.810606 91.728 154.0641
159.961413 91.697 154.0254
161.120559 91.666 153.9795
162.288105 91.632 153.9235
163.464112 91.596 153.8574
164.648640 91.558 153.7823
165.841752 91.518 153.6983
167.043510 91.478 153.6052
168.253976 91.437 153.5058
169.473213 91.397 153.4058
170.701286 91.356 153.3138
171.938258 91.314 153.2409
173.184194 91.270 153.2007
174.439158 91.224 153.2034
175.703216 91.177 153.2487
176.976434 91.132 153.3237
178.258878 91.090 153.4064
179.550615 91.050 153.4754
180.851713 91.013 153.5180
182.162239 90.975 153.5341
183.482262 90.937 153.5336
184.811850 90.897 153.5286
186.151073 90.857 153.5272
187.500000 90.816 153.5314
188.858702 90.775 153.5421
190.227250 90.733 153.5600
191.605715 90.690 153.5859
192.994169 90.646 153.6190
194.392685 90.601 153.6569
195.801334 90.554 153.6970
197.220191 90.506 153.7372
198.649330 90.459 153.7778
200.088825 90.413 153.8209
201.538751 90.370 153.8696
202.999184 90.330 153.9266
204.470200 90.293 153.9919
205.951875 90.256 154.0624
207.444287 90.221 154.1335
208.947514 90.184 154.2014
210.461634 90.146 154.2645
211.986726 90.106 154.3248
213.522869 90.063 154.3870
215.070144 90.019 154.4569
216.628631 89.973 154.5396
218.198411 89.927 154.6374
219.779567 89.881 154.7484
221.372180 89.836 154.8675
222.976334 89.793 154.9890
224.592112 89.751 155.1082
226.219600 89.709 155.2231
227.858880 89.667 155.3337
229.510039 89.625 155.4416
231.173164 89.583 155.5487
232.848340 89.542 155.6568
234.535655 89.501 155.7662
236.235197 89.459 155.8760
237.947054 89.418 155.9851
239.671317 89.376 156.0926
241.408074 89.334 156.1992
243.157416 89.290 156.3068
244.919435 89.245 156.4186
246.694223 89.199 156.5385
248.481871 89.152 156.6707
250.282473 89.106 156.8196
252.096123 89.060 156.9883
253.922915 89.015 157.1756
255.762945 88.974 157.3741
257.616309 88.935 157.5722
259.483103 88.899 157.7591
261.363424 88.864 157.9299
263.257372 88.828 158.0872
265.165043 88.791 158.2380
267.086538 88.752 158.3897
269.021957 88.712 158.5490
270.971401 88.672 158.7196
272.934972 88.631 158.9027
274.912771 88.592 159.0967
276.904902 88.553 159.2992
278.911469 88.516 159.5081
280.932577 88.481 159.7213
282.968330 88.448 159.9353
285.018835 88.417 160.1441
287.084199 88.389 160.3400
289.164530 88.360 160.5167
291.259935 88.332 160.6730
293.370525 88.301 160.8146
295.496408 88.267 160.9517
297.637697 88.230 161.0945
299.794503 88.191 161.2498
301.966937 88.151 161.4189
304.155114 88.110 161.6003
306.359147 88.069 161.7905
308.579152 88.029 161.9860
310.815244 87.989 162.1838
313.067539 87.949 162.3829
315.336156 87.908 162.5848
317.621211 87.867 162.7935
319.922826 87.825 163.0137
322.241118 87.783 163.2475
324.576210 87.742 163.4936
326.928223 87.702 163.7490
329.297280 87.663 164.0105
331.683504 87.625 164.2749
334.087019 87.588 164.5389
336.507952 87.551 164.8004
338.946427 87.515 165.0592
341.402572 87.478 165.3167
343.876516 87.441 165.5755
346.368387 87.403 165.8381
348.878315 87.364 166.1060
351.406431 87.326 166.3797
353.952867 87.288 166.6591
356.517756 87.250 166.9436
359.101230 87.213 167.2321
361.703426 87.176 167.5238
364.324478 87.140 167.8182
366.964523 87.104 168.1160
369.623699 87.068 168.4179
372.302145 87.032 168.7250
375.000000 86.997 169.0371
377.717405 86.962 169.3536
380.454501 86.927 169.6741
383.211431 86.893 169.9986
385.988339 86.859 170.3275
388.785369 86.826 170.6612
391.602668 86.793 170.9999
394.440383 86.761 171.3438
397.298660 86.729 171.6923
400.177650 86.698 172.0446
403.077502 86.668 172.3989
405.998368 86.638 172.7532
408.940400 86.609 173.1060
411.903750 86.580 173.4584
414.888575 86.550 173.8143
417.895028 86.520 174.1783
420.923268 86.491 174.5542
423.973452 86.462 174.9433
427.045738 86.435 175.3440
430.140287 86.410 175.7524
433.257261 86.387 176.1634
436.396822 86.366 176.5738
439.559133 86.346 176.9829
442.744360 86.328 177.3898
445.952668 86.312 177.7916
449.184225 86.297 178.1826
452.439199 86.283 178.5575
455.717760 86.268 178.9135
459.020079 86.252 179.2545
462.346327 86.233 179.5915
465.696680 86.211 179.9370
469.071310 86.188 -179.7009
472.470394 86.165 -179.3206
475.894109 86.143 -178.9252
479.342634 86.122 -178.5208
482.816148 86.102 -178.1135
486.314833 86.081 -177.7054
489.838871 86.061 -177.2918
493.388445 86.040 -176.8645
496.963741 86.020 -176.4200
500.564945 86.003 -175.9625
504.192245 85.987 -175.5002
507.845830 85.974 -175.0404
511.525890 85.962 -174.5863
515.232618 85.950 -174.1370
518.966206 85.939 -173.6892
522.726849 85.927 -173.2383
526.514743 85.916 -172.7799
530.330086 85.906 -172.3119
534.173076 85.898 -171.8367
538.043915 85.892 -171.3589
541.942803 85.887 -170.8814
545.869944 85.884 -170.4038
549.825542 85.882 -169.9254
553.809805 85.881 -169.4476
557.822939 85.882 -168.9736
561.865154 85.883 -168.5059
565.936660 85.885 -168.0447
570.037671 85.887 -167.5877
574.168399 85.890 -167.1316
578.329060 85.892 -166.6745
582.519870 85.895 -166.2164
586.741049 85.899 -165.7574
590.992817 85.902 -165.2954
595.275394 85.907 -164.8277
599.589005 85.912 -164.3548
603.933874 85.919 -163.8811
608.310228 85.928 -163.4104
612.718295 85.936 -162.9444
617.158304 85.945 -162.4806
621.630488 85.954 -162.0134
626.135079 85.963 -161.5366
630.672311 85.973 -161.0483
635.242423 85.985 -160.5526
639.845651 86.000 -160.0553
644.482237 86.016 -159.5582
649.152421 86.034 -159.0602
653.856447 86.054 -158.5625
658.594560 86.078 -158.0717
663.367008 86.104 -157.5973
668.174039 86.131 -157.1465
673.015903 86.158 -156.7184
677.892854 86.183 -156.3049
682.805145 86.207 -155.8963
687.753032 86.228 -155.4855
692.736774 86.249 -155.0674
697.756631 86.271 -154.6390
702.812863 86.293 -154.2010
707.905735 86.316 -153.7595
713.035511 86.342 -153.3224
718.202461 86.368 -152.8960
723.406852 86.395 -152.4815
728.648956 86.421 -152.0759
733.929047 86.447 -151.6748
739.247399 86.471 -151.2737
744.604290 86.495 -150.8687
750.000000 86.519 -150.4575
755.434809 86.543 -150.0391
760.909001 86.568 -149.6146
766.422861 86.594 -149.1868
771.976677 86.620 -148.7591
777.570739 86.648 -148.3346
783.205337 86.677 -147.9149
788.880766 86.707 -147.4985
794.597321 86.736 -147.0812
800.355301 86.767 -146.6586
806.155005 86.799 -146.2297
811.996736 86.833 -145.7984
817.880799 86.869 -145.3719
823.807501 86.908 -144.9587
829.777150 86.948 -144.5663
835.790057 86.987 -144.1965
841.846536 87.025 -143.8428
847.946903 87.060 -143.4950
854.091476 87.092 -143.1452
860.280575 87.124 -142.7898
866.514523 87.154 -142.4257
872.793644 87.184 -142.0495
879.118267 87.215 -141.6612
885.488720 87.247 -141.2652
891.905336 87.280 -140.8655
898.368450 87.313 -140.4632
904.878398 87.348 -140.0565
911.435520 87.384 -139.6448
918.040157 87.421 -139.2296
924.692655 87.460 -138.8139
931.393359 87.501 -138.4012
938.142619 87.544 -137.9953
944.940787 87.589 -137.5976
951.788218 87.634 -137.2073
958.685268 87.680 -136.8220
965.632296 87.726 -136.4393
972.629666 87.773 -136.0571
979.677741 87.820 -135.6745
986.776890 87.869 -135.2922
993.927482 87.918 -134.9089
1001.129891 87.968 -134.5209
1008.384491 88.019 -134.1243
1015.691660 88.073 -133.7198
1023.051781 88.131 -133.3120
1030.465236 88.193 -132.9087
1037.932411 88.258 -132.5218
1045.453698 88.327 -132.1636
1053.029486 88.397 -131.8398
1060.660172 88.466 -131.5467
1068.346153 88.533 -131.2754
1076.087829 88.599 -131.0163
1083.885605 88.663 -130.7632
1091.739887 88.726 -130.5142
1099.651084 88.788 -130.2695
1107.619609 88.850 -130.0289
1115.645878 88.910 -129.7910
1123.730308 88.971 -129.5547
1131.873321 89.031 -129.3184
1140.075341 89.091 -129.0813
1148.336797 89.151 -128.8424
1156.658119 89.211 -128.6012
1165.039741 89.271 -128.3564
1173.482099 89.333 -128.1066
1181.985634 89.397 -127.8522
1190.550789 89.465 -127.5992
1199.178011 89.535 -127.3587
1207.867749 89.609 -127.1429
1216.620457 89.682 -126.9575
1225.436590 89.755 -126.7992
1234.316609 89.825 -126.6594
1243.260976 89.892 -126.5292
1252.270157 89.957 -126.4008
1261.344623 90.020 -126.2700
1270.484846 90.082 -126.1355
1279.691303 90.142 -125.9964
1288.964474 90.203 -125.8511
1298.304842 90.263 -125.6998
1307.712894 90.323 -125.5447
1317.189120 90.385 -125.3892
1326.734016 90.447 -125.2355
1336.348077 90.509 -125.0831
1346.031806 90.572 -124.9293
1355.785708 90.636 -124.7707
1365.610290 90.701 -124.6036
1375.506065 90.768 -124.4238
1385.473549 90.838 -124.2262
1395.513261 90.910 -124.0099
1405.625726 90.987 -123.7803
1415.811469 91.069 -123.5496
1426.071023 91.155 -123.3323
1436.404921 91.244 -123.1379
1446.813703 91.333 -122.9670
1457.297912 91.422 -122.8140
1467.858093 91.510 -122.6725
1478.494798 91.596 -122.5377
1489.208581 91.679 -122.4061
1500.000000 91.761 -122.2743
1510.869618 91.840 -122.1394
1521.818002 91.915 -121.9993
1532.845723 91.988 -121.8522
1543.953355 92.059 -121.6974
1555.141477 92.129 -121.5356
1566.410674 92.201 -121.3719
1577.761531 92.276 -121.2179
1589.194642 92.354 -121.0878
1600.710601 92.434 -120.9915
1612.310010 92.514 -120.9304
1623.993473 92.593 -120.8998
1635.761599 92.671 -120.8931
1647.615002 92.747 -120.9043
1659.554299 92.822 -120.9288
1671.580114 92.897 -120.9628
1683.693072 92.971 -121.0052
1695.893807 93.045 -121.0575
1708.182952 93.119 -121.1213
1720.561150 93.191 -121.1963
1733.029045 93.261 -121.2794
1745.587288 93.329 -121.3653
1758.236533 93.396 -121.4480
1770.977440 93.463 -121.5224
1783.810673 93.531 -121.5900
1796.736900 93.603 -121.6604
1809.756796 93.678 -121.7486
1822.871040 93.756 -121.8661
1836.080315 93.836 -122.0176
1849.385310 93.915 -122.2023
1862.786718 93.995 -122.4173
1876.285239 94.074 -122.6583
1889.881575 94.153 -122.9198
1903.576436 94.233 -123.1963
1917.370535 94.316 -123.4825
1931.264593 94.402 -123.7753
1945.259332 94.493 -124.0766
1959.355483 94.589 -124.3955
1973.553781 94.690 -124.7453
1987.854965 94.792 -125.1367
2002.259781 94.894 -125.5733
2016.768981 94.994 -126.0529
2031.383320 95.091 -126.5710
2046.103561 95.184 -127.1222
2060.930471 95.273 -127.7019
2075.864823 95.357 -128.3079
2090.907395 95.436 -128.9390
2106.058972 95.510 -129.5923
2121.320344 95.578 -130.2623
2136.692305 95.639 -130.9402
2152.175658 95.694 -131.6173
2167.771210 95.745 -132.2902
2183.479774 95.792 -132.9637
2199.302169 95.837 -133.6477
2215.239219 95.879 -134.3497
2231.291755 95.916 -135.0725
2247.460615 95.948 -135.8145
2263.746641 95.974 -136.5704
2280.150683 95.993 -137.3320
2296.673595 96.005 -138.0895
2313.316238 96.012 -138.8342
2330.079481 96.015 -139.5622
2346.964198 96.014 -140.2774
2363.971268 96.012 -140.9885
2381.101578 96.005 -141.7025
2398.356022 95.995 -142.4212
2415.735498 95.978 -143.1419
2433.240913 95.956 -143.8585
2450.873180 95.927 -144.5646
2468.633217 95.891 -145.2543
2486.521951 95.848 -145.9212
2504.540314 95.799 -146.5564
2522.689246 95.743 -147.1476
2540.969692 95.682 -147.6830
2559.382606 95.619 -148.1579
2577.928947 95.557 -148.5768
2596.609683 95.495 -148.9498
2615.425787 95.436 -149.2872
2634.378241 95.379 -149.5978
2653.468031 95.323 -149.8869
2672.696154 95.269 -150.1566
2692.063613 95.216 -150.4061
2711.571415 95.164 -150.6362
2731.220579 95.115 -150.8528
2751.012130 95.067 -151.0661
2770.947098 95.022 -151.2845
2791.026522 94.976 -151.5116
2811.251451 94.929 -151.7454
2831.622938 94.879 -151.9810
2852.142045 94.827 -152.2131
2872.809842 94.770 -152.4351
2893.627406 94.710 -152.6376
2914.595823 94.646 -152.8085
2935.716186 94.580 -152.9371
2956.989596 94.513 -153.0212
2978.417161 94.448 -153.0661
3000.000000 94.385 -153.0803
3021.739237 94.324 -153.0708
3043.636005 94.263 -153.0399
3065.691446 94.204 -152.9839
3087.906710 94.146 -152.8962
3110.282955 94.091 -152.7736
3132.821347 94.039 -152.6205
3155.523062 93.993 -152.4464
3178.389283 93.952 -152.2611
3201.421202 93.915 -152.0730
3224.620020 93.882 -151.8885
3247.986946 93.851 -151.7121
3271.523198 93.822 -151.5443
3295.230004 93.793 -151.3793
3319.108599 93.764 -151.2076
3343.160228 93.736 -151.0230
3367.386145 93.710 -150.8253
3391.787613 93.686 -150.6174
3416.365904 93.664 -150.4013
3441.122300 93.644 -150.1736
3466.058091 93.625 -149.9259
3491.174576 93.608 -149.6497
3516.473066 93.596 -149.3431
3541.954880 93.589 -149.0121
3567.621345 93.589 -148.6666
3593.473800 93.595 -148.3172
3619.513592 93.606 -147.9738
3645.742080 93.623 -147.6433
3672.160630 93.642 -147.3262
3698.770620 93.664 -147.0162
3725.573436 93.689 -146.7066
3752.570477 93.717 -146.3962
3779.763150 93.748 -146.0886
3807.152872 93.783 -145.7879
3834.741071 93.820 -145.4943
3862.529185 93.860 -145.2027
3890.518664 93.904 -144.9094
3918.710966 93.953 -144.6175
3947.107561 94.009 -144.3372
3975.709929 94.072 -144.0827
4004.519563 94.143 -143.8692
4033.537962 94.220 -143.7103
4062.766641 94.300 -143.6119
4092.207123 94.383 -143.5721
4121.860942 94.467 -143.5865
4151.729646 94.553 -143.6539
4181.814790 94.638 -143.7748
4212.117944 94.721 -143.9471
4242.640687 94.803 -144.1624
4273.384610 94.882 -144.4095
4304.351317 94.959 -144.6815
4335.542421 95.038 -144.9791
4366.959549 95.118 -145.3099
4398.604338 95.200 -145.6872
4430.478438 95.284 -146.1254
4462.583511 95.368 -146.6340
4494.921231 95.452 -147.2172
4527.493283 95.534 -147.8788
4560.301365 95.613 -148.6243
4593.347189 95.687 -149.4575
4626.632476 95.754 -150.3756
4660.158962 95.812 -151.3690
4693.928395 95.859 -152.4272
4727.942535 95.898 -153.5427
4762.203156 95.926 -154.7129
4796.712043 95.943 -155.9386
4831.470996 95.949 -157.2199
4866.481826 95.940 -158.5509
4901.746360 95.917 -159.9208
4937.266434 95.876 -161.3182
4973.043902 95.818 -162.7313
5009.080628 95.740 -164.1445
5045.378492 95.641 -165.5357
5081.939384 95.522 -166.8799
5118.765212 95.385 -168.1544
5155.857894 95.231 -169.3430
5193.219366 95.062 -170.4370
5230.851574 94.881 -171.4319
5268.756481 94.690 -172.3225
5306.936062 94.489 -173.1035
5345.392309 94.281 -173.7736
5384.127225 94.067 -174.3352
5423.142830 93.849 -174.7913
5462.441159 93.627 -175.1446
5502.024259 93.403 -175.3987
5541.894195 93.178 -175.5581
5582.053045 92.954 -175.6286
5622.502902 92.730 -175.6155
5663.245876 92.507 -175.5204
5704.284090 92.286 -175.3439
5745.619684 92.068 -175.0887
5787.254813 91.854 -174.7590
5829.191647 91.643 -174.3556
5871.432373 91.435 -173.8750
5913.979192 91.232 -173.3117
5956.834323 91.035 -172.6634
6000.000000 90.845 -171.9340
6043.478473 90.665 -171.1308
6087.272010 90.496 -170.2628
6131.382892 90.338 -169.3414
6175.813420 90.192 -168.3787
6220.565910 90.057 -167.3828
6265.642695 89.932 -166.3546
6311.046124 89.817 -165.2904
6356.778566 89.712 -164.1867
6402.842404 89.619 -163.0438
6449.240040 89.538 -161.8647
6495.973891 89.470 -160.6560
6543.046396 89.417 -159.4276
6590.460007 89.378 -158.1892
6638.217197 89.354 -156.9462
6686.320456 89.343 -155.6981
6734.772290 89.347 -154.4423
6783.575226 89.367 -153.1787
6832.731809 89.403 -151.9108
6882.244600 89.457 -150.6467
6932.116181 89.530 -149.4004
6982.349153 89.622 -148.1881
7032.946133 89.733 -147.0235
7083.909760 89.866 -145.9158
7135.242690 90.020 -144.8737
7186.947600 90.200 -143.9094
7239.027185 90.406 -143.0410
7291.484160 90.642 -142.2957
7344.321260 90.909 -141.7112
7397.541239 91.207 -141.3315
7451.146872 91.536 -141.2017
7505.140954 91.893 -141.3686
7559.526299 92.275 -141.8830
7614.305743 92.679 -142.8008
7669.482141 93.097 -144.1813
7725.058371 93.517 -146.0843
7781.037328 93.926 -148.5599
7837.421932 94.304 -151.6362
7894.215122 94.632 -155.3082
7951.419859 94.888 -159.5343
8009.039125 95.054 -164.2329
8067.075924 95.114 -169.2852
8125.533282 95.055 -174.5424
8184.414245 94.871 -179.8371
8243.721885 94.562 175.0058
8303.459292 94.132 170.1544
8363.629581 93.593 165.7557
8424.235888 92.959 161.9261
8485.281374 92.248 158.7451
8546.769221 91.479 156.2521
8608.702634 90.672 154.4522
8671.084842 89.844 153.3263
8733.919097 89.010 152.8429
8797.208675 88.183 152.9676
8860.956876 87.371 153.6694
8925.167022 86.584 154.9197
8989.842461 85.830 156.6911
9054.986566 85.116 158.9594
9120.602731 84.450 161.7076
9186.694378 83.839 164.9266
9253.264952 83.294 168.6095
9320.317925 82.828 172.7334
9387.856790 82.458 177.2350
9455.885071 82.200 -178.0073
9524.406312 82.066 -173.1756
9593.424086 82.060 -168.4934
9662.941992 82.174 -164.1890
9732.963653 82.388 -160.4583
9803.492719 82.673 -157.4347
9874.532869 82.998 -155.1702
9946.087805 83.330 -153.6353
10018.161257 83.642 -152.7323
10090.756983 83.915 -152.3198
10163.878768 84.138 -152.2425
10237.530423 84.309 -152.3525
10311.715789 84.430 -152.5221
10386.438732 84.508 -152.6465
10461.703149 84.551 -152.6422
10537.512962 84.572 -152.4494
10613.872125 84.582 -152.0358
10690.784618 84.593 -151.3963
10768.254450 84.616 -150.5450
10846.285661 84.660 -149.5044
10924.882318 84.731 -148.2991
11004.048518 84.837 -146.9599
11083.788390 84.985 -145.5264
11164.106090 85.180 -144.0465
11245.005805 85.427 -142.5690
11326.491752 85.731 -141.1422
11408.568180 86.094 -139.8194
11491.239368 86.522 -138.6668
11574.509626 87.016 -137.7638
11658.383294 87.575 -137.1990
11742.864745 88.195 -137.0666
11827.958384 88.869 -137.4676
11913.668646 89.583 -138.5081
12000.000000 90.319 -140.2897
12086.956947 91.053 -142.8926
12174.544019 91.756 -146.3633
12262.765784 92.397 -150.7052
12351.626840 92.946 -155.8699
12441.131819 93.370 -161.7469
12531.285389 93.647 -168.1569
12622.092249 93.758 -174.8600
12713.557132 93.699 178.4197
12805.684808 93.480 171.9567
12898.480079 93.118 165.9900
12991.947783 92.643 160.7005
13086.092792 92.087 156.1986
13180.920015 91.488 152.5214
13276.434395 90.885 149.6386
13372.640911 90.313 147.4655
13469.544580 89.803 145.8741
13567.150452 89.383 144.6993
13665.463617 89.073 143.7436
13764.489200 88.886 142.7874
13864.232362 88.822 141.6034
13964.698305 88.875 139.9677
14065.892266 89.024 137.6741
14167.819519 89.236 134.5546
14270.485380 89.471 130.5009
14373.895200 89.679 125.4783
14478.054370 89.810 119.5375
14582.968320 89.816 112.8250
14688.642520 89.659 105.5830
14795.082478 89.313 98.1255
14902.293745 88.771 90.7921
15010.281908 88.043 83.8987
15119.052599 87.150 77.6986
15228.611486 86.125 72.3633
15338.964283 85.008 67.9790
15450.116741 83.839 64.5541
15562.074656 82.660 62.0293
15674.843864 81.514 60.2847
15788.430244 80.437 59.1459
15902.839718 79.463 58.3938
16018.078250 78.616 57.7764
16134.151848 77.907 57.0229
16251.066563 77.335 55.8640
16368.828491 76.879 54.0618
16487.443769 76.503 51.4406
16606.918584 76.155 47.9116
16727.259161 75.779 43.4929
16848.471777 75.316 38.3203
16970.562748 74.718 32.6351
17093.538442 73.952 26.7502
17217.405268 73.004 21.0017
17342.169684 71.875 15.6967
17467.838194 70.580 11.0785
17594.417350 69.140 7.3149
17721.913751 67.579 4.5047
17850.334044 65.922 2.6880
17979.684923 64.192 1.8591
18109.973131 62.408 1.9833
18241.205462 60.587 3.0164
18373.388756 58.741 4.9239
18506.529905 56.881 7.7026
18640.635849 55.014 11.4025
18775.713581 53.148 16.1556
18911.770141 51.295 22.2229
19048.812624 49.479 30.0806
19186.848172 47.742 40.5601
19325.883983 46.159 54.9417
19465.927305 44.844 74.2625
19606.985439 43.918 96.4901
19749.065738 43.421 115.6526
19892.175609 43.249 127.9744
20036.322514 43.225 133.6762
