* Measurement data measured by REW V5.31
* Source: EXCL: Microphone (USB Sound Device        ), MICROPHONE (Master Volume), L, volume: 0.560
* Format: 256k Log Swept Sine, 1 sweep at 0.0 dBFS with no timing reference
* Dated: Apr 23, 2024 11:55:45 PM
* REW Settings:
*  C-weighting compensation: Off
*  Target level: 75.0 dB
* Note: CCA Hydro 1111
* Measurement: L CCA Hydro 1111
* Smoothing: 1/12 octave
* Frequency Step: 96 ppo
* Start Frequency: 0.36621094 Hz
*
* Freq(Hz) SPL(dB) Phase(degrees)
0.366211 82.186 166.0152
0.368865 82.178 166.0011
0.371538 82.166 165.9800
0.374230 82.152 165.9534
0.376942 82.136 165.9227
0.379673 82.119 165.8889
0.382424 82.101 165.8527
0.385196 82.082 165.8143
0.387987 82.064 165.7741
0.390798 82.045 165.7322
0.393630 82.025 165.6886
0.396483 82.006 165.6433
0.399356 81.986 165.5965
0.402250 81.967 165.5479
0.405165 81.947 165.4977
0.408101 81.927 165.4459
0.411058 81.907 165.3923
0.414037 81.886 165.3371
0.417037 81.866 165.2801
0.420059 81.846 165.2214
0.423103 81.825 165.1609
0.426169 81.804 165.0987
0.429257 81.783 165.0347
0.432368 81.762 164.9689
0.435501 81.740 164.9013
0.438656 81.719 164.8318
0.441835 81.697 164.7606
0.445037 81.675 164.6875
0.448262 81.654 164.6125
0.451510 81.631 164.5356
0.454782 81.609 164.4569
0.458077 81.587 164.3763
0.461397 81.564 164.2937
0.464740 81.541 164.2092
0.468108 81.518 164.1228
0.471500 81.495 164.0345
0.474917 81.472 163.9441
0.478358 81.449 163.8519
0.481825 81.425 163.7576
0.485316 81.401 163.6614
0.488833 81.377 163.5632
0.492375 81.353 163.4630
0.495943 81.329 163.3608
0.499537 81.304 163.2567
0.503157 81.280 163.1505
0.506803 81.255 163.0423
0.510475 81.230 162.9321
0.514175 81.205 162.8199
0.517900 81.179 162.7056
0.521653 81.154 162.5894
0.525434 81.128 162.4712
0.529241 81.102 162.3510
0.533076 81.076 162.2288
0.536939 81.050 162.1047
0.540830 81.023 161.9785
0.544749 80.997 161.8505
0.548696 80.970 161.7204
0.552673 80.943 161.5885
0.556677 80.916 161.4546
0.560711 80.888 161.3189
0.564774 80.860 161.1812
0.568867 80.833 161.0418
0.572989 80.805 160.9005
0.577141 80.776 160.7574
0.581324 80.748 160.6126
0.585536 80.719 160.4661
0.589779 80.690 160.3179
0.594053 80.661 160.1680
0.598358 80.632 160.0166
0.602694 80.602 159.8636
0.607061 80.573 159.7092
0.611460 80.543 159.5533
0.615891 80.513 159.3960
0.620354 80.482 159.2374
0.624849 80.452 159.0776
0.629377 80.421 158.9167
0.633938 80.390 158.7546
0.638532 80.358 158.5916
0.643159 80.327 158.4277
0.647819 80.295 158.2629
0.652514 80.263 158.0975
0.657242 80.231 157.9315
0.662005 80.199 157.7650
0.666802 80.166 157.5982
0.671634 80.133 157.4311
0.676501 80.100 157.2640
0.681403 80.067 157.0970
0.686341 80.033 156.9301
0.691314 79.999 156.7637
0.696324 79.965 156.5978
0.701370 79.930 156.4326
0.706452 79.894 156.2682
0.711571 79.858 156.1047
0.716728 79.820 155.9420
0.721921 79.780 155.7800
0.727153 79.737 155.6182
0.732422 79.690 155.4562
0.737729 79.639 155.2931
0.743075 79.583 155.1280
0.748460 79.524 154.9603
0.753883 79.463 154.7894
0.759346 79.399 154.6147
0.764849 79.334 154.4362
0.770391 79.267 154.2535
0.775974 79.200 154.0666
0.781597 79.131 153.8752
0.787261 79.061 153.6795
0.792966 78.990 153.4791
0.798712 78.918 153.2742
0.804500 78.844 153.0646
0.810329 78.770 152.8502
0.816201 78.694 152.6310
0.822116 78.617 152.4070
0.828073 78.539 152.1781
0.834074 78.459 151.9441
0.840118 78.378 151.7052
0.846206 78.295 151.4611
0.852338 78.211 151.2119
0.858514 78.125 150.9575
0.864735 78.038 150.6978
0.871001 77.948 150.4329
0.877313 77.857 150.1626
0.883670 77.765 149.8870
0.890074 77.670 149.6059
0.896524 77.573 149.3195
0.903020 77.474 149.0277
0.909564 77.373 148.7304
0.916155 77.270 148.4277
0.922794 77.165 148.1196
0.929481 77.057 147.8061
0.936216 76.946 147.4872
0.943000 76.833 147.1631
0.949834 76.718 146.8337
0.956717 76.600 146.4992
0.963649 76.478 146.1597
0.970632 76.354 145.8152
0.977666 76.227 145.4660
0.984750 76.097 145.1123
0.991886 75.964 144.7542
0.999074 75.827 144.3920
1.006314 75.687 144.0260
1.013606 75.543 143.6565
1.020951 75.396 143.2839
1.028349 75.244 142.9086
1.035801 75.089 142.5312
1.043307 74.930 142.1521
1.050867 74.766 141.7719
1.058482 74.598 141.3912
1.066152 74.425 141.0107
1.073878 74.246 140.6308
1.081660 74.061 140.2519
1.089498 73.869 139.8740
1.097393 73.669 139.4967
1.105345 73.458 139.1191
1.113355 73.235 138.7399
1.121423 72.998 138.3579
1.129549 72.746 137.9716
1.137734 72.479 137.5798
1.145979 72.197 137.1813
1.154283 71.900 136.7746
1.162647 71.588 136.3585
1.171072 71.263 135.9315
1.179558 70.925 135.4918
1.188106 70.575 135.0374
1.196715 70.214 134.5660
1.205387 69.843 134.0748
1.214122 69.462 133.5605
1.222920 69.074 133.0189
1.231782 68.679 132.4451
1.240708 68.279 131.8329
1.249699 67.874 131.1745
1.258754 67.467 130.4600
1.267876 67.059 129.6765
1.277063 66.651 128.8071
1.286318 66.245 127.8288
1.295639 65.843 126.7103
1.305027 65.446 125.4068
1.314484 65.058 123.8531
1.324009 64.678 121.9499
1.333604 64.311 119.5396
1.343268 63.957 116.3571
1.353002 63.620 111.9277
1.362806 63.302 105.3356
1.372681 63.005 94.7015
1.382628 62.733 76.3641
1.392647 62.489 47.1954
1.402739 62.275 16.4984
1.412904 62.096 -3.8367
1.423142 61.953 -15.5993
1.433455 61.852 -22.7847
1.443843 61.796 -27.5524
1.454305 61.787 -30.9496
1.464844 61.829 -33.5122
1.475459 61.923 -35.5352
1.486150 62.071 -37.1917
1.496920 62.273 -38.5888
1.507767 62.526 -39.7955
1.518693 62.831 -40.8584
1.529698 63.183 -41.8099
1.540783 63.581 -42.6732
1.551948 64.021 -43.4657
1.563194 64.500 -44.2003
1.574521 65.015 -44.8872
1.585931 65.563 -45.5341
1.597423 66.139 -46.1475
1.608999 66.739 -46.7325
1.620658 67.361 -47.2931
1.632402 68.001 -47.8330
1.644232 68.653 -48.3550
1.656146 69.314 -48.8615
1.668147 69.981 -49.3547
1.680235 70.648 -49.8363
1.692411 71.313 -50.3080
1.704675 71.969 -50.7711
1.717028 72.614 -51.2269
1.729470 73.243 -51.6764
1.742003 73.852 -52.1206
1.754626 74.437 -52.5606
1.767341 74.994 -52.9972
1.780147 75.521 -53.4314
1.793047 76.014 -53.8641
1.806040 76.474 -54.2964
1.819128 76.899 -54.7295
1.832310 77.292 -55.1646
1.845587 77.656 -55.6029
1.858961 77.994 -56.0451
1.872432 78.309 -56.4915
1.886001 78.603 -56.9419
1.899667 78.878 -57.3960
1.913433 79.136 -57.8531
1.927299 79.378 -58.3124
1.941265 79.604 -58.7732
1.955332 79.816 -59.2348
1.969501 80.016 -59.6964
1.983773 80.203 -60.1575
1.998148 80.379 -60.6173
2.012627 80.546 -61.0754
2.027212 80.705 -61.5313
2.041902 80.857 -61.9846
2.056698 81.003 -62.4347
2.071602 81.145 -62.8814
2.086614 81.284 -63.3244
2.101734 81.422 -63.7635
2.116964 81.561 -64.1986
2.132304 81.701 -64.6296
2.147756 81.844 -65.0569
2.163320 81.989 -65.4810
2.178996 82.139 -65.9029
2.194786 82.290 -66.3238
2.210690 82.443 -66.7454
2.226710 82.595 -67.1689
2.242845 82.746 -67.5955
2.259098 82.894 -68.0256
2.275468 83.038 -68.4592
2.291957 83.178 -68.8959
2.308566 83.315 -69.3352
2.325295 83.448 -69.7764
2.342145 83.578 -70.2187
2.359117 83.704 -70.6614
2.376212 83.827 -71.1035
2.393431 83.947 -71.5445
2.410775 84.065 -71.9835
2.428244 84.181 -72.4198
2.445840 84.294 -72.8527
2.463564 84.406 -73.2817
2.481416 84.517 -73.7062
2.499397 84.626 -74.1261
2.517509 84.735 -74.5412
2.535752 84.843 -74.9521
2.554127 84.949 -75.3594
2.572635 85.054 -75.7644
2.591277 85.158 -76.1685
2.610055 85.259 -76.5729
2.628968 85.358 -76.9781
2.648019 85.455 -77.3846
2.667208 85.549 -77.7922
2.686535 85.641 -78.2005
2.706003 85.730 -78.6089
2.725612 85.817 -79.0168
2.745363 85.903 -79.4235
2.765257 85.986 -79.8282
2.785295 86.068 -80.2300
2.805478 86.148 -80.6284
2.825808 86.227 -81.0225
2.846285 86.304 -81.4117
2.866910 86.381 -81.7957
2.887685 86.456 -82.1741
2.908611 86.531 -82.5473
2.929688 86.604 -82.9158
2.950917 86.676 -83.2805
2.972301 86.746 -83.6423
2.993839 86.815 -84.0019
3.015534 86.881 -84.3598
3.037386 86.947 -84.7159
3.059396 87.010 -85.0701
3.081565 87.072 -85.4221
3.103896 87.132 -85.7712
3.126388 87.191 -86.1170
3.149043 87.248 -86.4588
3.171862 87.305 -86.7959
3.194847 87.361 -87.1278
3.217998 87.416 -87.4537
3.241317 87.470 -87.7734
3.264805 87.523 -88.0864
3.288463 87.576 -88.3928
3.312293 87.628 -88.6928
3.336295 87.679 -88.9868
3.360471 87.729 -89.2752
3.384822 87.778 -89.5585
3.409350 87.826 -89.8370
3.434056 87.873 -90.1110
3.458940 87.919 -90.3807
3.484005 87.964 -90.6460
3.509252 88.009 -90.9072
3.534681 88.053 -91.1642
3.560295 88.096 -91.4171
3.586094 88.140 -91.6656
3.612081 88.183 -91.9098
3.638255 88.226 -92.1495
3.664620 88.269 -92.3845
3.691175 88.312 -92.6148
3.717923 88.354 -92.8402
3.744864 88.396 -93.0610
3.772001 88.438 -93.2775
3.799335 88.479 -93.4900
3.826866 88.521 -93.6990
3.854597 88.561 -93.9051
3.882529 88.602 -94.1087
3.910664 88.643 -94.3102
3.939002 88.684 -94.5102
3.967546 88.725 -94.7088
3.996296 88.766 -94.9063
4.025255 88.808 -95.1025
4.054423 88.849 -95.2973
4.083804 88.891 -95.4905
4.113396 88.933 -95.6822
4.143204 88.975 -95.8726
4.173227 89.017 -96.0620
4.203468 89.059 -96.2511
4.233928 89.101 -96.4406
4.264609 89.144 -96.6310
4.295512 89.186 -96.8231
4.326639 89.228 -97.0175
4.357992 89.271 -97.2145
4.389572 89.313 -97.4144
4.421380 89.355 -97.6172
4.453419 89.398 -97.8228
4.485691 89.440 -98.0311
4.518196 89.483 -98.2421
4.550936 89.525 -98.4557
4.583914 89.567 -98.6722
4.617131 89.609 -98.8917
4.650589 89.651 -99.1143
4.684289 89.692 -99.3405
4.718233 89.733 -99.5703
4.752424 89.774 -99.8040
4.786862 89.814 -100.0418
4.821549 89.853 -100.2837
4.856488 89.893 -100.5296
4.891680 89.931 -100.7793
4.927127 89.969 -101.0323
4.962831 90.007 -101.2883
4.998794 90.044 -101.5470
5.035017 90.081 -101.8080
5.071503 90.116 -102.0711
5.108253 90.151 -102.3362
5.145270 90.185 -102.6034
5.182555 90.219 -102.8728
5.220110 90.251 -103.1443
5.257937 90.283 -103.4177
5.296038 90.314 -103.6925
5.334415 90.345 -103.9682
5.373071 90.375 -104.2441
5.412006 90.404 -104.5197
5.451224 90.432 -104.7944
5.490725 90.460 -105.0680
5.530514 90.487 -105.3405
5.570590 90.513 -105.6119
5.610957 90.539 -105.8821
5.651616 90.564 -106.1510
5.692570 90.589 -106.4183
5.733821 90.614 -106.6837
5.775370 90.638 -106.9467
5.817221 90.662 -107.2071
5.859375 90.686 -107.4645
5.901834 90.709 -107.7189
5.944602 90.733 -107.9704
5.987679 90.757 -108.2190
6.031068 90.780 -108.4651
6.074771 90.804 -108.7088
6.118792 90.828 -108.9504
6.163131 90.852 -109.1901
6.207792 90.877 -109.4278
6.252776 90.902 -109.6638
6.298086 90.927 -109.8979
6.343725 90.953 -110.1306
6.389694 90.980 -110.3622
6.435996 91.007 -110.5931
6.482634 91.035 -110.8241
6.529610 91.063 -111.0556
6.576926 91.092 -111.2879
6.624585 91.121 -111.5214
6.672590 91.151 -111.7560
6.720942 91.182 -111.9922
6.769645 91.213 -112.2300
6.818700 91.244 -112.4699
6.868111 91.277 -112.7122
6.917881 91.309 -112.9574
6.968010 91.342 -113.2055
7.018504 91.375 -113.4568
7.069362 91.409 -113.7111
7.120590 91.442 -113.9683
7.172189 91.476 -114.2282
7.224161 91.510 -114.4906
7.276511 91.544 -114.7553
7.329239 91.578 -115.0223
7.382350 91.612 -115.2912
7.435845 91.645 -115.5620
7.489729 91.679 -115.8340
7.544002 91.712 -116.1068
7.598669 91.745 -116.3797
7.653732 91.778 -116.6522
7.709194 91.811 -116.9238
7.765058 91.844 -117.1942
7.821327 91.876 -117.4630
7.878004 91.908 -117.7298
7.935091 91.940 -117.9940
7.992592 91.972 -118.2551
8.050510 92.004 -118.5127
8.108847 92.036 -118.7664
8.167607 92.068 -119.0161
8.226793 92.100 -119.2616
8.286408 92.133 -119.5029
8.346454 92.166 -119.7399
8.406936 92.199 -119.9726
8.467856 92.232 -120.2010
8.529218 92.266 -120.4252
8.591024 92.301 -120.6453
8.653278 92.336 -120.8619
8.715983 92.371 -121.0752
8.779143 92.408 -121.2856
8.842760 92.444 -121.4934
8.906839 92.482 -121.6989
8.971381 92.520 -121.9024
9.036392 92.558 -122.1044
9.101873 92.597 -122.3052
9.167829 92.637 -122.5051
9.234263 92.677 -122.7044
9.301178 92.717 -122.9032
9.368578 92.757 -123.1015
9.436467 92.798 -123.2995
9.504847 92.838 -123.4971
9.573723 92.878 -123.6943
9.643099 92.917 -123.8909
9.712976 92.956 -124.0867
9.783361 92.993 -124.2814
9.854255 93.027 -124.4746
9.925663 93.059 -124.6660
9.997588 93.089 -124.8553
10.070035 93.116 -125.0422
10.143007 93.141 -125.2263
10.216507 93.163 -125.4072
10.290540 93.185 -125.5846
10.365109 93.204 -125.7583
10.440219 93.222 -125.9281
10.515873 93.240 -126.0940
10.592076 93.257 -126.2559
10.668830 93.274 -126.4138
10.746141 93.290 -126.5678
10.824012 93.306 -126.7181
10.902447 93.322 -126.8650
10.981451 93.338 -127.0086
11.061027 93.354 -127.1494
11.141180 93.370 -127.2877
11.221913 93.386 -127.4237
11.303232 93.402 -127.5579
11.385140 93.418 -127.6907
11.467641 93.434 -127.8223
11.550741 93.449 -127.9531
11.634442 93.465 -128.0832
11.718750 93.481 -128.2128
11.803669 93.497 -128.3422
11.889203 93.513 -128.4713
11.975357 93.529 -128.6003
12.062136 93.545 -128.7292
12.149543 93.562 -128.8579
12.237583 93.578 -128.9865
12.326262 93.594 -129.1150
12.415583 93.609 -129.2432
12.505552 93.625 -129.3713
12.596172 93.640 -129.4992
12.687449 93.655 -129.6269
12.779387 93.669 -129.7546
12.871992 93.683 -129.8824
12.965268 93.697 -130.0104
13.059220 93.711 -130.1388
13.153852 93.725 -130.2677
13.249170 93.739 -130.3974
13.345179 93.753 -130.5280
13.441884 93.767 -130.6597
13.539289 93.782 -130.7927
13.637401 93.796 -130.9271
13.736223 93.811 -131.0632
13.835761 93.826 -131.2009
13.936021 93.841 -131.3403
14.037007 93.856 -131.4817
14.138725 93.870 -131.6248
14.241180 93.885 -131.7700
14.344377 93.899 -131.9171
14.448323 93.914 -132.0663
14.553021 93.929 -132.2175
14.658478 93.943 -132.3709
14.764700 93.958 -132.5266
14.871691 93.973 -132.6845
14.979457 93.989 -132.8448
15.088005 94.005 -133.0075
15.197339 94.021 -133.1727
15.307465 94.037 -133.3403
15.418389 94.054 -133.5103
15.530117 94.071 -133.6826
15.642655 94.088 -133.8571
15.756008 94.105 -134.0334
15.870182 94.123 -134.2115
15.985184 94.140 -134.3909
16.101019 94.158 -134.5715
16.217694 94.176 -134.7527
16.335214 94.194 -134.9345
16.453586 94.213 -135.1165
16.572815 94.232 -135.2984
16.692909 94.251 -135.4801
16.813872 94.272 -135.6615
16.935713 94.293 -135.8424
17.058436 94.315 -136.0229
17.182048 94.337 -136.2029
17.306556 94.360 -136.3825
17.431967 94.384 -136.5617
17.558286 94.408 -136.7405
17.685521 94.432 -136.9188
17.813677 94.456 -137.0967
17.942762 94.481 -137.2739
18.072783 94.506 -137.4503
18.203746 94.531 -137.6258
18.335658 94.556 -137.8001
18.468526 94.582 -137.9731
18.602356 94.607 -138.1445
18.737156 94.633 -138.3142
18.872934 94.659 -138.4820
19.009695 94.685 -138.6479
19.147447 94.711 -138.8119
19.286197 94.737 -138.9738
19.425953 94.764 -139.1338
19.566721 94.790 -139.2919
19.708510 94.816 -139.4482
19.851326 94.842 -139.6028
19.995177 94.868 -139.7558
20.140070 94.894 -139.9073
20.286013 94.919 -140.0576
20.433014 94.944 -140.2067
20.581080 94.969 -140.3549
20.730219 94.993 -140.5023
20.880439 95.018 -140.6493
21.031747 95.042 -140.7961
21.184152 95.066 -140.9430
21.337661 95.091 -141.0903
21.492282 95.115 -141.2382
21.648024 95.139 -141.3872
21.804895 95.163 -141.5375
21.962902 95.187 -141.6892
22.122054 95.211 -141.8428
22.282360 95.234 -141.9982
22.443827 95.257 -142.1558
22.606464 95.280 -142.3158
22.770280 95.303 -142.4782
22.935283 95.325 -142.6433
23.101481 95.347 -142.8111
23.268884 95.369 -142.9818
23.437500 95.391 -143.1553
23.607338 95.412 -143.3318
23.778406 95.433 -143.5109
23.950714 95.454 -143.6926
24.124271 95.475 -143.8766
24.299086 95.495 -144.0626
24.475167 95.515 -144.2502
24.652524 95.535 -144.4393
24.831166 95.555 -144.6294
25.011103 95.575 -144.8205
25.192344 95.596 -145.0125
25.374898 95.617 -145.2054
25.558775 95.637 -145.3992
25.743984 95.659 -145.5940
25.930536 95.680 -145.7899
26.118439 95.702 -145.9869
26.307704 95.723 -146.1849
26.498341 95.745 -146.3836
26.690359 95.767 -146.5825
26.883768 95.788 -146.7812
27.078579 95.809 -146.9791
27.274801 95.831 -147.1754
27.472446 95.852 -147.3697
27.671522 95.872 -147.5616
27.872042 95.893 -147.7507
28.074014 95.914 -147.9372
28.277450 95.935 -148.1214
28.482360 95.955 -148.3037
28.688755 95.976 -148.4850
28.896645 95.997 -148.6658
29.106042 96.018 -148.8468
29.316957 96.038 -149.0286
29.529400 96.059 -149.2114
29.743382 96.079 -149.3952
29.958915 96.099 -149.5800
30.176009 96.119 -149.7657
30.394677 96.138 -149.9521
30.614929 96.158 -150.1393
30.836778 96.177 -150.3273
31.060234 96.196 -150.5168
31.285309 96.214 -150.7080
31.512015 96.233 -150.9017
31.740364 96.252 -151.0984
31.970368 96.270 -151.2983
32.202039 96.288 -151.5017
32.435388 96.306 -151.7083
32.670428 96.324 -151.9180
32.907171 96.341 -152.1302
33.145630 96.358 -152.3445
33.385817 96.375 -152.5605
33.627745 96.391 -152.7778
33.871425 96.408 -152.9960
34.116871 96.424 -153.2149
34.364096 96.440 -153.4343
34.613113 96.456 -153.6541
34.863934 96.473 -153.8741
35.116572 96.489 -154.0944
35.371041 96.505 -154.3147
35.627354 96.520 -154.5349
35.885525 96.536 -154.7547
36.145566 96.551 -154.9740
36.407492 96.566 -155.1924
36.671316 96.581 -155.4097
36.937051 96.596 -155.6257
37.204712 96.611 -155.8404
37.474313 96.625 -156.0541
37.745867 96.639 -156.2672
38.019389 96.654 -156.4800
38.294893 96.668 -156.6931
38.572394 96.682 -156.9068
38.851905 96.695 -157.1214
39.133442 96.709 -157.3370
39.417019 96.722 -157.5538
39.702651 96.735 -157.7718
39.990353 96.748 -157.9911
40.280140 96.760 -158.2118
40.572026 96.772 -158.4340
40.866028 96.783 -158.6577
41.162160 96.795 -158.8826
41.460438 96.806 -159.1085
41.760877 96.816 -159.3352
42.063494 96.827 -159.5621
42.368303 96.837 -159.7892
42.675322 96.846 -160.0163
42.984565 96.856 -160.2434
43.296048 96.865 -160.4707
43.609789 96.874 -160.6983
43.925804 96.883 -160.9261
44.244108 96.892 -161.1541
44.564719 96.900 -161.3820
44.887654 96.908 -161.6096
45.212928 96.916 -161.8366
45.540560 96.923 -162.0634
45.870565 96.931 -162.2902
46.202962 96.938 -162.5174
46.537768 96.945 -162.7453
46.875000 96.952 -162.9740
47.214676 96.959 -163.2031
47.556813 96.965 -163.4322
47.901429 96.971 -163.6607
48.248542 96.977 -163.8885
48.598171 96.983 -164.1158
48.950334 96.989 -164.3431
49.305048 96.995 -164.5711
49.662333 97.000 -164.8003
50.022206 97.006 -165.0308
50.384688 97.011 -165.2624
50.749796 97.016 -165.4944
51.117550 97.021 -165.7260
51.487969 97.025 -165.9566
51.861072 97.029 -166.1859
52.236879 97.033 -166.4136
52.615409 97.036 -166.6396
52.996681 97.040 -166.8641
53.380717 97.044 -167.0871
53.767536 97.048 -167.3089
54.157158 97.052 -167.5302
54.549603 97.056 -167.7515
54.944892 97.061 -167.9739
55.343045 97.066 -168.1980
55.744084 97.071 -168.4248
56.148028 97.076 -168.6548
56.554900 97.081 -168.8885
56.964720 97.086 -169.1263
57.377510 97.091 -169.3683
57.793291 97.095 -169.6140
58.212085 97.098 -169.8629
58.633914 97.101 -170.1141
59.058799 97.103 -170.3667
59.486764 97.104 -170.6198
59.917829 97.104 -170.8729
60.352019 97.103 -171.1255
60.789354 97.102 -171.3772
61.229859 97.100 -171.6277
61.673556 97.097 -171.8768
62.120468 97.094 -172.1242
62.570618 97.090 -172.3700
63.024031 97.086 -172.6141
63.480729 97.082 -172.8567
63.940736 97.077 -173.0980
64.404077 97.072 -173.3383
64.870776 97.067 -173.5778
65.340856 97.061 -173.8166
65.814343 97.056 -174.0549
66.291261 97.050 -174.2925
66.771635 97.044 -174.5294
67.255489 97.037 -174.7652
67.742850 97.030 -175.0001
68.233743 97.023 -175.2342
68.728193 97.016 -175.4678
69.226226 97.009 -175.7010
69.727867 97.001 -175.9334
70.233144 96.993 -176.1647
70.742083 96.984 -176.3946
71.254709 96.975 -176.6227
71.771050 96.966 -176.8493
72.291132 96.957 -177.0747
72.814984 96.947 -177.2989
73.342631 96.937 -177.5213
73.874102 96.927 -177.7408
74.409424 96.916 -177.9561
74.948626 96.906 -178.1672
75.491734 96.896 -178.3748
76.038779 96.887 -178.5800
76.589787 96.878 -178.7841
77.144788 96.869 -178.9878
77.703811 96.861 -179.1918
78.266885 96.854 -179.3957
78.834039 96.846 -179.5992
79.405303 96.840 -179.8023
79.980706 96.833 179.9940
80.560280 96.828 179.7870
81.144053 96.823 179.5737
81.732056 96.819 179.3511
82.324320 96.815 179.1171
82.920876 96.810 178.8706
83.521755 96.805 178.6117
84.126988 96.797 178.3418
84.736607 96.789 178.0632
85.350643 96.778 177.7794
85.969129 96.765 177.4941
86.592097 96.751 177.2108
87.219579 96.736 176.9324
87.851608 96.719 176.6610
88.488217 96.702 176.3978
89.129439 96.685 176.1428
89.775308 96.667 175.8956
90.425856 96.649 175.6554
91.081119 96.630 175.4214
91.741131 96.611 175.1929
92.405925 96.592 174.9692
93.075536 96.571 174.7495
93.750000 96.550 174.5331
94.429351 96.528 174.3185
95.113625 96.506 174.1034
95.802858 96.484 173.8852
96.497085 96.460 173.6626
97.196342 96.437 173.4369
97.900667 96.412 173.2106
98.610096 96.387 172.9871
99.324665 96.362 172.7683
100.044413 96.337 172.5554
100.769376 96.313 172.3484
101.499592 96.289 172.1477
102.235100 96.265 171.9530
102.975938 96.243 171.7638
103.722144 96.220 171.5785
104.473757 96.198 171.3952
105.230817 96.176 171.2119
105.993363 96.154 171.0272
106.761435 96.132 170.8399
107.535072 96.109 170.6493
108.314315 96.086 170.4546
109.099206 96.062 170.2552
109.889783 96.037 170.0513
110.686090 96.012 169.8433
111.488167 95.985 169.6328
112.296056 95.957 169.4219
113.109800 95.927 169.2134
113.929440 95.896 169.0109
114.755020 95.862 168.8193
115.586582 95.827 168.6434
116.424170 95.789 168.4876
117.267827 95.751 168.3539
118.117598 95.714 168.2393
118.973527 95.679 168.1356
119.835658 95.646 168.0306
120.704037 95.614 167.9148
121.578708 95.583 167.7866
122.459718 95.552 167.6504
123.347111 95.522 167.5112
124.240935 95.491 167.3719
125.141236 95.461 167.2341
126.048061 95.431 167.0978
126.961458 95.402 166.9628
127.881473 95.372 166.8281
128.808154 95.342 166.6920
129.741551 95.311 166.5532
130.681712 95.278 166.4115
131.628686 95.245 166.2677
132.582521 95.211 166.1235
133.543269 95.177 165.9807
134.510979 95.141 165.8412
135.485701 95.104 165.7067
136.467486 95.067 165.5783
137.456386 95.029 165.4570
138.452451 94.991 165.3425
139.455735 94.952 165.2341
140.466288 94.913 165.1309
141.484165 94.873 165.0325
142.509418 94.833 164.9384
143.542100 94.793 164.8483
144.582265 94.753 164.7624
145.629968 94.712 164.6810
146.685262 94.671 164.6049
147.748204 94.628 164.5349
148.818849 94.584 164.4727
149.897251 94.539 164.4203
150.983469 94.493 164.3804
152.077557 94.446 164.3560
153.179574 94.399 164.3493
154.289576 94.354 164.3605
155.407622 94.310 164.3863
156.533770 94.270 164.4208
157.668078 94.232 164.4568
158.810606 94.196 164.4877
159.961413 94.162 164.5086
161.120559 94.128 164.5176
162.288105 94.094 164.5151
163.464112 94.060 164.5033
164.648640 94.025 164.4853
165.841752 93.989 164.4645
167.043510 93.951 164.4445
168.253976 93.913 164.4288
169.473213 93.873 164.4198
170.701286 93.831 164.4183
171.938258 93.788 164.4241
173.184194 93.745 164.4378
174.439158 93.702 164.4593
175.703216 93.660 164.4861
176.976434 93.619 164.5157
178.258878 93.579 164.5465
179.550615 93.539 164.5768
180.851713 93.500 164.6055
182.162239 93.462 164.6320
183.482262 93.423 164.6549
184.811850 93.385 164.6734
186.151073 93.348 164.6876
187.500000 93.311 164.6998
188.858702 93.274 164.7144
190.227250 93.237 164.7378
191.605715 93.199 164.7746
192.994169 93.159 164.8257
194.392685 93.119 164.8870
195.801334 93.079 164.9499
197.220191 93.037 165.0042
198.649330 92.995 165.0442
200.088825 92.951 165.0745
201.538751 92.906 165.1078
202.999184 92.861 165.1529
204.470200 92.817 165.2101
205.951875 92.774 165.2755
207.444287 92.731 165.3458
208.947514 92.689 165.4214
210.461634 92.646 165.5051
211.986726 92.602 165.5989
213.522869 92.556 165.7044
215.070144 92.508 165.8237
216.628631 92.459 165.9598
218.198411 92.410 166.1142
219.779567 92.361 166.2854
221.372180 92.315 166.4686
222.976334 92.270 166.6574
224.592112 92.228 166.8460
226.219600 92.187 167.0309
227.858880 92.147 167.2125
229.510039 92.107 167.3921
231.173164 92.066 167.5710
232.848340 92.026 167.7514
234.535655 91.985 167.9354
236.235197 91.944 168.1246
237.947054 91.903 168.3188
239.671317 91.863 168.5169
241.408074 91.822 168.7186
243.157416 91.781 168.9255
244.919435 91.739 169.1414
246.694223 91.696 169.3710
248.481871 91.653 169.6191
250.282473 91.610 169.8886
252.096123 91.569 170.1804
253.922915 91.531 170.4919
255.762945 91.497 170.8159
257.616309 91.467 171.1412
259.483103 91.440 171.4565
261.363424 91.416 171.7551
263.257372 91.392 172.0377
265.165043 91.368 172.3099
267.086538 91.344 172.5786
269.021957 91.319 172.8495
270.971401 91.295 173.1260
272.934972 91.272 173.4091
274.912771 91.250 173.6976
276.904902 91.230 173.9901
278.911469 91.211 174.2850
280.932577 91.194 174.5806
282.968330 91.179 174.8737
285.018835 91.166 175.1592
287.084199 91.154 175.4301
289.164530 91.142 175.6812
291.259935 91.130 175.9117
293.370525 91.115 176.1276
295.496408 91.098 176.3386
297.637697 91.078 176.5543
299.794503 91.057 176.7809
301.966937 91.035 177.0208
304.155114 91.014 177.2731
306.359147 90.993 177.5351
308.579152 90.973 177.8033
310.815244 90.954 178.0744
313.067539 90.934 178.3468
315.336156 90.915 178.6213
317.621211 90.895 178.9011
319.922826 90.874 179.1897
322.241118 90.855 179.4886
324.576210 90.836 179.7963
326.928223 90.819 -179.8904
329.297280 90.803 -179.5753
331.683504 90.790 -179.2615
334.087019 90.777 -178.9514
336.507952 90.765 -178.6468
338.946427 90.754 -178.3481
341.402572 90.742 -178.0542
343.876516 90.729 -177.7622
346.368387 90.716 -177.4692
348.878315 90.703 -177.1730
351.406431 90.690 -176.8731
353.952867 90.678 -176.5701
356.517756 90.666 -176.2649
359.101230 90.654 -175.9582
361.703426 90.644 -175.6504
364.324478 90.634 -175.3412
366.964523 90.624 -175.0305
369.623699 90.615 -174.7183
372.302145 90.606 -174.4046
375.000000 90.597 -174.0897
377.717405 90.589 -173.7741
380.454501 90.582 -173.4584
383.211431 90.575 -173.1429
385.988339 90.569 -172.8275
388.785369 90.563 -172.5120
391.602668 90.558 -172.1961
394.440383 90.554 -171.8794
397.298660 90.550 -171.5622
400.177650 90.548 -171.2452
403.077502 90.545 -170.9295
405.998368 90.543 -170.6168
408.940400 90.541 -170.3080
411.903750 90.539 -170.0018
414.888575 90.537 -169.6951
417.895028 90.534 -169.3842
420.923268 90.532 -169.0661
423.973452 90.530 -168.7402
427.045738 90.530 -168.4081
430.140287 90.532 -168.0737
433.257261 90.535 -167.7421
436.396822 90.540 -167.4164
439.559133 90.546 -167.0969
442.744360 90.553 -166.7838
445.952668 90.562 -166.4792
449.184225 90.571 -166.1878
452.439199 90.581 -165.9153
455.717760 90.591 -165.6645
459.020079 90.598 -165.4310
462.346327 90.602 -165.2038
465.696680 90.603 -164.9707
469.071310 90.602 -164.7242
472.470394 90.601 -164.4628
475.894109 90.600 -164.1893
479.342634 90.599 -163.9096
482.816148 90.598 -163.6293
486.314833 90.597 -163.3503
489.838871 90.595 -163.0680
493.388445 90.593 -162.7747
496.963741 90.590 -162.4668
500.564945 90.589 -162.1481
504.192245 90.590 -161.8272
507.845830 90.592 -161.5114
511.525890 90.595 -161.2039
515.232618 90.597 -160.9031
518.966206 90.600 -160.6047
522.726849 90.601 -160.3035
526.514743 90.602 -159.9948
530.330086 90.603 -159.6770
534.173076 90.605 -159.3526
538.043915 90.609 -159.0267
541.942803 90.613 -158.7016
545.869944 90.617 -158.3763
549.825542 90.623 -158.0496
553.809805 90.629 -157.7229
557.822939 90.636 -157.3993
561.865154 90.644 -157.0811
565.936660 90.651 -156.7678
570.037671 90.657 -156.4562
574.168399 90.663 -156.1425
578.329060 90.669 -155.8246
582.519870 90.674 -155.5025
586.741049 90.679 -155.1766
590.992817 90.684 -154.8445
595.275394 90.690 -154.5042
599.589005 90.696 -154.1566
603.933874 90.703 -153.8061
608.310228 90.710 -153.4565
612.718295 90.718 -153.1089
617.158304 90.726 -152.7607
621.630488 90.733 -152.4059
626.135079 90.740 -152.0383
630.672311 90.748 -151.6560
635.242423 90.758 -151.2638
639.845651 90.770 -150.8679
644.482237 90.784 -150.4705
649.152421 90.800 -150.0704
653.856447 90.818 -149.6690
658.594560 90.839 -149.2730
663.367008 90.863 -148.8928
668.174039 90.887 -148.5366
673.015903 90.910 -148.2036
677.892854 90.932 -147.8859
682.805145 90.951 -147.5740
687.753032 90.968 -147.2602
692.736774 90.983 -146.9386
697.756631 90.998 -146.6045
702.812863 91.012 -146.2562
707.905735 91.027 -145.8966
713.035511 91.042 -145.5305
718.202461 91.058 -145.1614
723.406852 91.075 -144.7903
728.648956 91.091 -144.4162
733.929047 91.109 -144.0379
739.247399 91.126 -143.6549
744.604290 91.144 -143.2670
750.000000 91.163 -142.8740
755.434809 91.182 -142.4755
760.909001 91.201 -142.0715
766.422861 91.221 -141.6622
771.976677 91.242 -141.2477
777.570739 91.263 -140.8288
783.205337 91.285 -140.4051
788.880766 91.308 -139.9743
794.597321 91.331 -139.5319
800.355301 91.356 -139.0737
806.155005 91.383 -138.5990
811.996736 91.414 -138.1118
817.880799 91.449 -137.6194
823.807501 91.489 -137.1312
829.777150 91.534 -136.6580
835.790057 91.582 -136.2087
841.846536 91.632 -135.7884
847.946903 91.684 -135.3995
854.091476 91.735 -135.0434
860.280575 91.785 -134.7173
866.514523 91.832 -134.4123
872.793644 91.876 -134.1156
879.118267 91.918 -133.8181
885.488720 91.959 -133.5171
891.905336 91.999 -133.2121
898.368450 92.039 -132.9017
904.878398 92.079 -132.5835
911.435520 92.120 -132.2569
918.040157 92.161 -131.9244
924.692655 92.202 -131.5892
931.393359 92.244 -131.2544
938.142619 92.286 -130.9216
944.940787 92.328 -130.5889
951.788218 92.369 -130.2513
958.685268 92.411 -129.9033
965.632296 92.454 -129.5421
972.629666 92.499 -129.1692
979.677741 92.547 -128.7899
986.776890 92.598 -128.4112
993.927482 92.651 -128.0369
1001.129891 92.706 -127.6658
1008.384491 92.764 -127.2955
1015.691660 92.823 -126.9268
1023.051781 92.886 -126.5640
1030.465236 92.953 -126.2133
1037.932411 93.023 -125.8850
1045.453698 93.096 -125.5899
1053.029486 93.169 -125.3325
1060.660172 93.241 -125.1083
1068.346153 93.311 -124.9086
1076.087829 93.379 -124.7237
1083.885605 93.445 -124.5470
1091.739887 93.510 -124.3763
1099.651084 93.573 -124.2114
1107.619609 93.636 -124.0519
1115.645878 93.698 -123.8966
1123.730308 93.758 -123.7441
1131.873321 93.818 -123.5930
1140.075341 93.877 -123.4425
1148.336797 93.936 -123.2918
1156.658119 93.994 -123.1402
1165.039741 94.052 -122.9861
1173.482099 94.110 -122.8274
1181.985634 94.170 -122.6642
1190.550789 94.233 -122.5020
1199.178011 94.298 -122.3516
1207.867749 94.366 -122.2248
1216.620457 94.434 -122.1278
1225.436590 94.500 -122.0581
1234.316609 94.564 -122.0078
1243.260976 94.625 -121.9682
1252.270157 94.682 -121.9318
1261.344623 94.737 -121.8938
1270.484846 94.790 -121.8525
1279.691303 94.841 -121.8060
1288.964474 94.891 -121.7522
1298.304842 94.940 -121.6911
1307.712894 94.989 -121.6249
1317.189120 95.038 -121.5573
1326.734016 95.087 -121.4904
1336.348077 95.136 -121.4235
1346.031806 95.184 -121.3534
1355.785708 95.232 -121.2756
1365.610290 95.281 -121.1859
1375.506065 95.331 -121.0789
1385.473549 95.383 -120.9496
1395.513261 95.437 -120.7968
1405.625726 95.495 -120.6257
1415.811469 95.558 -120.4485
1426.071023 95.625 -120.2805
1436.404921 95.694 -120.1321
1446.813703 95.764 -120.0051
1457.297912 95.833 -119.8952
1467.858093 95.900 -119.7966
1478.494798 95.965 -119.7049
1489.208581 96.027 -119.6160
1500.000000 96.086 -119.5259
1510.869618 96.141 -119.4306
1521.818002 96.191 -119.3270
1532.845723 96.238 -119.2121
1543.953355 96.282 -119.0841
1555.141477 96.323 -118.9423
1566.410674 96.365 -118.7905
1577.761531 96.409 -118.6390
1589.194642 96.456 -118.5016
1600.710601 96.503 -118.3874
1612.310010 96.550 -118.2975
1623.993473 96.595 -118.2272
1635.761599 96.639 -118.1695
1647.615002 96.681 -118.1184
1659.554299 96.721 -118.0691
1671.580114 96.761 -118.0177
1683.693072 96.800 -117.9631
1695.893807 96.839 -117.9068
1708.182952 96.878 -117.8508
1720.561150 96.916 -117.7950
1733.029045 96.951 -117.7362
1745.587288 96.985 -117.6693
1758.236533 97.017 -117.5878
1770.977440 97.050 -117.4863
1783.810673 97.083 -117.3654
1796.736900 97.121 -117.2341
1809.756796 97.162 -117.1064
1822.871040 97.206 -116.9936
1836.080315 97.252 -116.8998
1849.385310 97.299 -116.8242
1862.786718 97.346 -116.7637
1876.285239 97.393 -116.7138
1889.881575 97.442 -116.6688
1903.576436 97.493 -116.6229
1917.370535 97.547 -116.5709
1931.264593 97.606 -116.5093
1945.259332 97.672 -116.4395
1959.355483 97.744 -116.3703
1973.553781 97.822 -116.3153
1987.854965 97.904 -116.2856
2002.259781 97.988 -116.2853
2016.768981 98.073 -116.3129
2031.383320 98.156 -116.3640
2046.103561 98.239 -116.4336
2060.930471 98.319 -116.5173
2075.864823 98.399 -116.6134
2090.907395 98.477 -116.7214
2106.058972 98.553 -116.8393
2121.320344 98.626 -116.9623
2136.692305 98.697 -117.0828
2152.175658 98.766 -117.1932
2167.771210 98.834 -117.2913
2183.479774 98.904 -117.3839
2199.302169 98.975 -117.4827
2215.239219 99.048 -117.5975
2231.291755 99.121 -117.7336
2247.460615 99.194 -117.8917
2263.746641 99.265 -118.0689
2280.150683 99.334 -118.2593
2296.673595 99.402 -118.4557
2313.316238 99.470 -118.6520
2330.079481 99.539 -118.8474
2346.964198 99.610 -119.0493
2363.971268 99.684 -119.2698
2381.101578 99.759 -119.5191
2398.356022 99.834 -119.8025
2415.735498 99.908 -120.1206
2433.240913 99.979 -120.4710
2450.873180 100.049 -120.8509
2468.633217 100.115 -121.2578
2486.521951 100.178 -121.6889
2504.540314 100.238 -122.1385
2522.689246 100.293 -122.5976
2540.969692 100.345 -123.0574
2559.382606 100.396 -123.5149
2577.928947 100.446 -123.9752
2596.609683 100.496 -124.4466
2615.425787 100.545 -124.9361
2634.378241 100.593 -125.4469
2653.468031 100.638 -125.9779
2672.696154 100.679 -126.5230
2692.063613 100.717 -127.0743
2711.571415 100.754 -127.6258
2731.220579 100.790 -128.1794
2751.012130 100.826 -128.7427
2770.947098 100.861 -129.3246
2791.026522 100.895 -129.9310
2811.251451 100.927 -130.5643
2831.622938 100.956 -131.2240
2852.142045 100.981 -131.9085
2872.809842 101.001 -132.6140
2893.627406 101.015 -133.3328
2914.595823 101.024 -134.0540
2935.716186 101.028 -134.7672
2956.989596 101.029 -135.4686
2978.417161 101.027 -136.1606
3000.000000 101.023 -136.8479
3021.739237 101.017 -137.5338
3043.636005 101.007 -138.2174
3065.691446 100.994 -138.8929
3087.906710 100.978 -139.5521
3110.282955 100.961 -140.1905
3132.821347 100.943 -140.8108
3155.523062 100.925 -141.4205
3178.389283 100.908 -142.0281
3201.421202 100.890 -142.6401
3224.620020 100.871 -143.2609
3247.986946 100.850 -143.8925
3271.523198 100.826 -144.5329
3295.230004 100.797 -145.1744
3319.108599 100.765 -145.8067
3343.160228 100.730 -146.4229
3367.386145 100.694 -147.0222
3391.787613 100.656 -147.6075
3416.365904 100.617 -148.1813
3441.122300 100.576 -148.7420
3466.058091 100.533 -149.2827
3491.174576 100.489 -149.7961
3516.473066 100.445 -150.2804
3541.954880 100.403 -150.7402
3567.621345 100.362 -151.1844
3593.473800 100.323 -151.6225
3619.513592 100.285 -152.0632
3645.742080 100.247 -152.5127
3672.160630 100.207 -152.9706
3698.770620 100.165 -153.4303
3725.573436 100.119 -153.8838
3752.570477 100.072 -154.3275
3779.763150 100.022 -154.7620
3807.152872 99.969 -155.1881
3834.741071 99.913 -155.6029
3862.529185 99.853 -155.9976
3890.518664 99.789 -156.3641
3918.710966 99.724 -156.6997
3947.107561 99.659 -157.0087
3975.709929 99.595 -157.2997
4004.519563 99.533 -157.5836
4033.537962 99.472 -157.8706
4062.766641 99.411 -158.1649
4092.207123 99.349 -158.4630
4121.860942 99.285 -158.7597
4151.729646 99.219 -159.0523
4181.814790 99.152 -159.3412
4212.117944 99.082 -159.6253
4242.640687 99.009 -159.8978
4273.384610 98.932 -160.1486
4304.351317 98.853 -160.3705
4335.542421 98.773 -160.5628
4366.959549 98.693 -160.7313
4398.604338 98.615 -160.8859
4430.478438 98.537 -161.0371
4462.583511 98.459 -161.1897
4494.921231 98.379 -161.3417
4527.493283 98.299 -161.4904
4560.301365 98.217 -161.6349
4593.347189 98.133 -161.7744
4626.632476 98.047 -161.9031
4660.158962 97.957 -162.0102
4693.928395 97.866 -162.0855
4727.942535 97.775 -162.1245
4762.203156 97.684 -162.1301
4796.712043 97.597 -162.1117
4831.470996 97.511 -162.0801
4866.481826 97.428 -162.0415
4901.746360 97.346 -161.9971
4937.266434 97.265 -161.9483
4973.043902 97.184 -161.8962
5009.080628 97.102 -161.8383
5045.378492 97.018 -161.7650
5081.939384 96.932 -161.6636
5118.765212 96.845 -161.5244
5155.857894 96.760 -161.3445
5193.219366 96.677 -161.1299
5230.851574 96.598 -160.8903
5268.756481 96.522 -160.6339
5306.936062 96.450 -160.3675
5345.392309 96.381 -160.0988
5384.127225 96.313 -159.8340
5423.142830 96.244 -159.5728
5462.441159 96.175 -159.3076
5502.024259 96.103 -159.0276
5541.894195 96.031 -158.7247
5582.053045 95.960 -158.3977
5622.502902 95.891 -158.0505
5663.245876 95.825 -157.6877
5704.284090 95.762 -157.3140
5745.619684 95.702 -156.9357
5787.254813 95.644 -156.5585
5829.191647 95.588 -156.1815
5871.432373 95.532 -155.7980
5913.979192 95.476 -155.3980
5956.834323 95.422 -154.9746
6000.000000 95.370 -154.5259
6043.478473 95.321 -154.0534
6087.272010 95.277 -153.5599
6131.382892 95.237 -153.0506
6175.813420 95.203 -152.5310
6220.565910 95.172 -152.0028
6265.642695 95.144 -151.4617
6311.046124 95.121 -150.8996
6356.778566 95.102 -150.3100
6402.842404 95.089 -149.6913
6449.240040 95.084 -149.0457
6495.973891 95.088 -148.3798
6543.046396 95.102 -147.7038
6590.460007 95.127 -147.0292
6638.217197 95.163 -146.3633
6686.320456 95.209 -145.7087
6734.772290 95.266 -145.0664
6783.575226 95.335 -144.4392
6832.731809 95.415 -143.8331
6882.244600 95.508 -143.2579
6932.116181 95.614 -142.7280
6982.349153 95.731 -142.2590
7032.946133 95.861 -141.8641
7083.909760 96.002 -141.5526
7135.242690 96.156 -141.3331
7186.947600 96.323 -141.2178
7239.027185 96.504 -141.2231
7291.484160 96.700 -141.3723
7344.321260 96.908 -141.6946
7397.541239 97.127 -142.2201
7451.146872 97.353 -142.9738
7505.140954 97.581 -143.9741
7559.526299 97.808 -145.2351
7614.305743 98.028 -146.7669
7669.482141 98.238 -148.5769
7725.058371 98.430 -150.6704
7781.037328 98.598 -153.0461
7837.421932 98.734 -155.6904
7894.215122 98.831 -158.5733
7951.419859 98.883 -161.6508
8009.039125 98.885 -164.8677
8067.075924 98.835 -168.1634
8125.533282 98.732 -171.4787
8184.414245 98.576 -174.7585
8243.721885 98.368 -177.9499
8303.459292 98.111 178.9997
8363.629581 97.806 176.1402
8424.235888 97.460 173.5168
8485.281374 97.077 171.1649
8546.769221 96.665 169.1044
8608.702634 96.230 167.3406
8671.084842 95.781 165.8698
8733.919097 95.320 164.6847
8797.208675 94.854 163.7771
8860.956876 94.387 163.1385
8925.167022 93.923 162.7548
8989.842461 93.467 162.6041
9054.986566 93.022 162.6595
9120.602731 92.590 162.8953
9186.694378 92.172 163.2913
9253.264952 91.768 163.8349
9320.317925 91.379 164.5165
9387.856790 91.007 165.3230
9455.885071 90.652 166.2375
9524.406312 90.315 167.2431
9593.424086 89.996 168.3275
9662.941992 89.695 169.4859
9732.963653 89.411 170.7163
9803.492719 89.147 172.0124
9874.532869 88.901 173.3630
9946.087805 88.673 174.7562
10018.161257 88.462 176.1854
10090.756983 88.268 177.6523
10163.878768 88.089 179.1594
10237.530423 87.927 -179.2961
10311.715789 87.782 -177.7231
10386.438732 87.655 -176.1314
10461.703149 87.544 -174.5249
10537.512962 87.450 -172.9039
10613.872125 87.373 -171.2721
10690.784618 87.313 -169.6397
10768.254450 87.272 -168.0210
10846.285661 87.247 -166.4265
10924.882318 87.237 -164.8605
11004.048518 87.243 -163.3260
11083.788390 87.262 -161.8293
11164.106090 87.294 -160.3780
11245.005805 87.338 -158.9734
11326.491752 87.393 -157.6077
11408.568180 87.458 -156.2696
11491.239368 87.534 -154.9518
11574.509626 87.621 -153.6527
11658.383294 87.720 -152.3702
11742.864745 87.832 -151.0974
11827.958384 87.958 -149.8258
11913.668646 88.100 -148.5503
12000.000000 88.262 -147.2704
12086.956947 88.445 -145.9859
12174.544019 88.654 -144.6963
12262.765784 88.894 -143.4061
12351.626840 89.173 -142.1325
12441.131819 89.495 -140.9052
12531.285389 89.868 -139.7642
12622.092249 90.298 -138.7616
12713.557132 90.791 -137.9701
12805.684808 91.350 -137.4870
12898.480079 91.971 -137.4274
12991.947783 92.646 -137.9137
13086.092792 93.363 -139.0681
13180.920015 94.099 -141.0051
13276.434395 94.829 -143.8170
13372.640911 95.521 -147.5566
13469.544580 96.142 -152.2235
13567.150452 96.659 -157.7548
13665.463617 97.041 -164.0175
13764.489200 97.264 -170.8037
13864.232362 97.315 -177.8413
13964.698305 97.192 175.1740
14065.892266 96.909 168.5329
14167.819519 96.486 162.4733
14270.485380 95.956 157.1586
14373.895200 95.353 152.6696
14478.054370 94.714 149.0090
14582.968320 94.074 146.1148
14688.642520 93.464 143.8784
14795.082478 92.909 142.1583
14902.293745 92.430 140.7911
15010.281908 92.037 139.6062
15119.052599 91.735 138.4383
15228.611486 91.521 137.1348
15338.964283 91.387 135.5600
15450.116741 91.319 133.6026
15562.074656 91.297 131.1810
15674.843864 91.298 128.2458
15788.430244 91.295 124.7820
15902.839718 91.263 120.8122
16018.078250 91.180 116.3966
16134.151848 91.025 111.6289
16251.066563 90.783 106.6276
16368.828491 90.444 101.5270
16487.443769 90.006 96.4660
16606.918584 89.470 91.5739
16727.259161 88.842 86.9629
16848.471777 88.132 82.7250
16970.562748 87.353 78.9305
17093.538442 86.519 75.6276
17217.405268 85.644 72.8477
17342.169684 84.744 70.6061
17467.838194 83.835 68.8985
17594.417350 82.934 67.6974
17721.913751 82.058 66.9450
17850.334044 81.221 66.5444
17979.684923 80.435 66.3609
18109.973131 79.704 66.2383
18241.205462 79.025 66.0248
18373.388756 78.383 65.5975
18506.529905 77.756 64.8856
18640.635849 77.114 63.8917
18775.713581 76.427 62.7123
18911.770141 75.667 61.5309
19048.812624 74.828 60.5495
19186.848172 73.919 59.8904
19325.883983 72.961 59.5477
19465.927305 71.980 59.4293
19606.985439 71.011 59.4477
19749.065738 70.112 59.5708
19892.175609 69.386 59.7742
20036.322514 68.970 59.9517
