* Measurement data measured by REW V5.31
* Source: EXCL: Microphone (USB Sound Device        ), MICROPHONE (Master Volume), L, volume: 0.560
* Format: 256k Log Swept Sine, 1 sweep at 0.0 dBFS with no timing reference
* Dated: Apr 23, 2024 11:42:35 PM
* REW Settings:
*  C-weighting compensation: Off
*  Target level: 75.0 dB
* Note: CCA Hydro 0000
* Measurement: L CCA Hydro 0000
* Smoothing: 1/12 octave
* Frequency Step: 96 ppo
* Start Frequency: 0.36621094 Hz
*
* Freq(Hz) SPL(dB) Phase(degrees)
0.366211 85.763 158.4312
0.368865 85.756 158.4088
0.371538 85.746 158.3752
0.374230 85.733 158.3330
0.376942 85.718 158.2843
0.379673 85.702 158.2307
0.382424 85.686 158.1733
0.385196 85.669 158.1127
0.387987 85.652 158.0492
0.390798 85.634 157.9831
0.393630 85.617 157.9144
0.396483 85.599 157.8433
0.399356 85.581 157.7696
0.402250 85.563 157.6934
0.405165 85.545 157.6146
0.408101 85.527 157.5333
0.411058 85.508 157.4494
0.414037 85.490 157.3629
0.417037 85.471 157.2737
0.420059 85.452 157.1819
0.423103 85.433 157.0873
0.426169 85.414 156.9901
0.429257 85.395 156.8901
0.432368 85.376 156.7874
0.435501 85.356 156.6818
0.438656 85.336 156.5734
0.441835 85.317 156.4622
0.445037 85.297 156.3481
0.448262 85.277 156.2311
0.451510 85.256 156.1112
0.454782 85.236 155.9884
0.458077 85.216 155.8626
0.461397 85.195 155.7338
0.464740 85.174 155.6020
0.468108 85.153 155.4672
0.471500 85.132 155.3294
0.474917 85.111 155.1884
0.478358 85.089 155.0444
0.481825 85.068 154.8973
0.485316 85.046 154.7471
0.488833 85.024 154.5938
0.492375 85.002 154.4373
0.495943 84.980 154.2777
0.499537 84.957 154.1149
0.503157 84.935 153.9489
0.506803 84.912 153.7797
0.510475 84.889 153.6074
0.514175 84.866 153.4318
0.517900 84.843 153.2531
0.521653 84.820 153.0711
0.525434 84.796 152.8860
0.529241 84.773 152.6976
0.533076 84.749 152.5061
0.536939 84.725 152.3113
0.540830 84.700 152.1134
0.544749 84.676 151.9124
0.548696 84.651 151.7081
0.552673 84.627 151.5008
0.556677 84.602 151.2903
0.560711 84.577 151.0768
0.564774 84.551 150.8601
0.568867 84.526 150.6405
0.572989 84.500 150.4178
0.577141 84.474 150.1922
0.581324 84.448 149.9637
0.585536 84.422 149.7323
0.589779 84.396 149.4981
0.594053 84.369 149.2611
0.598358 84.342 149.0214
0.602694 84.315 148.7791
0.607061 84.288 148.5342
0.611460 84.261 148.2868
0.615891 84.233 148.0370
0.620354 84.205 147.7849
0.624849 84.177 147.5305
0.629377 84.149 147.2740
0.633938 84.121 147.0155
0.638532 84.092 146.7551
0.643159 84.063 146.4930
0.647819 84.034 146.2291
0.652514 84.005 145.9638
0.657242 83.976 145.6971
0.662005 83.946 145.4292
0.666802 83.916 145.1602
0.671634 83.886 144.8904
0.676501 83.856 144.6200
0.681403 83.825 144.3490
0.686341 83.795 144.0778
0.691314 83.764 143.8065
0.696324 83.732 143.5353
0.701370 83.701 143.2644
0.706452 83.668 142.9940
0.711571 83.635 142.7241
0.716728 83.601 142.4547
0.721921 83.566 142.1856
0.727153 83.528 141.9161
0.732422 83.488 141.6455
0.737729 83.445 141.3727
0.743075 83.399 141.0966
0.748460 83.351 140.8160
0.753883 83.301 140.5302
0.759346 83.250 140.2386
0.764849 83.197 139.9408
0.770391 83.144 139.6365
0.775974 83.090 139.3255
0.781597 83.036 139.0076
0.787261 82.981 138.6826
0.792966 82.925 138.3505
0.798712 82.868 138.0111
0.804500 82.811 137.6643
0.810329 82.753 137.3099
0.816201 82.694 136.9479
0.822116 82.634 136.5782
0.828073 82.574 136.2005
0.834074 82.512 135.8149
0.840118 82.450 135.4212
0.846206 82.386 135.0194
0.852338 82.321 134.6092
0.858514 82.255 134.1907
0.864735 82.188 133.7637
0.871001 82.120 133.3282
0.877313 82.050 132.8841
0.883670 81.979 132.4313
0.890074 81.907 131.9698
0.896524 81.833 131.4996
0.903020 81.758 131.0205
0.909564 81.680 130.5327
0.916155 81.602 130.0360
0.922794 81.521 129.5306
0.929481 81.439 129.0163
0.936216 81.354 128.4934
0.943000 81.268 127.9618
0.949834 81.179 127.4217
0.956717 81.089 126.8731
0.963649 80.996 126.3163
0.970632 80.901 125.7514
0.977666 80.803 125.1786
0.984750 80.703 124.5981
0.991886 80.600 124.0103
0.999074 80.494 123.4155
1.006314 80.386 122.8139
1.013606 80.274 122.2062
1.020951 80.160 121.5927
1.028349 80.042 120.9739
1.035801 79.921 120.3504
1.043307 79.797 119.7229
1.050867 79.669 119.0920
1.058482 79.537 118.4582
1.066152 79.401 117.8224
1.073878 79.261 117.1848
1.081660 79.116 116.5460
1.089498 78.966 115.9056
1.097393 78.808 115.2633
1.105345 78.644 114.6177
1.113355 78.471 113.9673
1.121423 78.288 113.3106
1.129549 78.096 112.6456
1.137734 77.893 111.9709
1.145979 77.681 111.2850
1.154283 77.458 110.5861
1.162647 77.226 109.8728
1.171072 76.985 109.1435
1.179558 76.735 108.3963
1.188106 76.477 107.6293
1.196715 76.211 106.8406
1.205387 75.938 106.0278
1.214122 75.658 105.1886
1.222920 75.373 104.3201
1.231782 75.083 103.4194
1.240708 74.789 102.4832
1.249699 74.491 101.5079
1.258754 74.191 100.4896
1.267876 73.889 99.4238
1.277063 73.585 98.3055
1.286318 73.283 97.1295
1.295639 72.981 95.8896
1.305027 72.681 94.5793
1.314484 72.385 93.1912
1.324009 72.093 91.7171
1.333604 71.806 90.1483
1.343268 71.527 88.4748
1.353002 71.256 86.6862
1.362806 70.995 84.7708
1.372681 70.744 82.7165
1.382628 70.507 80.5105
1.392647 70.284 78.1393
1.402739 70.077 75.5898
1.412904 69.887 72.8492
1.423142 69.718 69.9054
1.433455 69.569 66.7482
1.443843 69.443 63.3688
1.454305 69.340 59.7606
1.464844 69.263 55.9187
1.475459 69.210 51.8405
1.486150 69.182 47.5274
1.496920 69.180 42.9875
1.507767 69.201 38.2391
1.518693 69.245 33.3123
1.529698 69.312 28.2491
1.540783 69.401 23.1026
1.551948 69.510 17.9328
1.563194 69.638 12.8031
1.574521 69.785 7.7741
1.585931 69.949 2.8997
1.597423 70.128 -1.7766
1.608999 70.323 -6.2229
1.620658 70.531 -10.4196
1.632402 70.751 -14.3575
1.644232 70.982 -18.0363
1.656146 71.221 -21.4623
1.668147 71.468 -24.6467
1.680235 71.721 -27.6032
1.692411 71.979 -30.3474
1.704675 72.238 -32.8951
1.717028 72.499 -35.2624
1.729470 72.759 -37.4643
1.742003 73.015 -39.5154
1.754626 73.268 -41.4291
1.767341 73.515 -43.2183
1.780147 73.754 -44.8952
1.793047 73.985 -46.4715
1.806040 74.208 -47.9593
1.819128 74.423 -49.3709
1.832310 74.632 -50.7186
1.845587 74.836 -52.0144
1.858961 75.038 -53.2689
1.872432 75.239 -54.4897
1.886001 75.441 -55.6821
1.899667 75.644 -56.8493
1.913433 75.849 -57.9930
1.927299 76.054 -59.1138
1.941265 76.261 -60.2119
1.955332 76.469 -61.2871
1.969501 76.677 -62.3388
1.983773 76.885 -63.3665
1.998148 77.092 -64.3695
2.012627 77.299 -65.3470
2.027212 77.504 -66.2982
2.041902 77.707 -67.2224
2.056698 77.907 -68.1188
2.071602 78.104 -68.9864
2.086614 78.298 -69.8246
2.101734 78.487 -70.6328
2.116964 78.672 -71.4105
2.132304 78.851 -72.1576
2.147756 79.024 -72.8746
2.163320 79.191 -73.5629
2.178996 79.350 -74.2248
2.194786 79.503 -74.8643
2.210690 79.649 -75.4858
2.226710 79.787 -76.0942
2.242845 79.918 -76.6934
2.259098 80.043 -77.2861
2.275468 80.161 -77.8735
2.291957 80.272 -78.4561
2.308566 80.378 -79.0337
2.325295 80.479 -79.6054
2.342145 80.574 -80.1702
2.359117 80.664 -80.7268
2.376212 80.751 -81.2738
2.393431 80.833 -81.8097
2.410775 80.912 -82.3328
2.428244 80.988 -82.8416
2.445840 81.062 -83.3342
2.463564 81.134 -83.8090
2.481416 81.204 -84.2643
2.499397 81.273 -84.6988
2.517509 81.341 -85.1114
2.535752 81.408 -85.5018
2.554127 81.474 -85.8705
2.572635 81.539 -86.2185
2.591277 81.601 -86.5478
2.610055 81.661 -86.8604
2.628968 81.718 -87.1579
2.648019 81.772 -87.4415
2.667208 81.822 -87.7120
2.686535 81.870 -87.9698
2.706003 81.915 -88.2152
2.725612 81.958 -88.4482
2.745363 81.999 -88.6685
2.765257 82.039 -88.8761
2.785295 82.077 -89.0705
2.805478 82.115 -89.2515
2.825808 82.152 -89.4184
2.846285 82.190 -89.5707
2.866910 82.228 -89.7079
2.887685 82.267 -89.8290
2.908611 82.306 -89.9333
2.929688 82.346 -90.0200
2.950917 82.387 -90.0884
2.972301 82.427 -90.1383
2.993839 82.468 -90.1696
3.015534 82.508 -90.1831
3.037386 82.547 -90.1799
3.059396 82.587 -90.1612
3.081565 82.627 -90.1286
3.103896 82.667 -90.0838
3.126388 82.707 -90.0285
3.149043 82.748 -89.9644
3.171862 82.791 -89.8933
3.194847 82.835 -89.8167
3.217998 82.880 -89.7359
3.241317 82.928 -89.6517
3.264805 82.977 -89.5644
3.288463 83.030 -89.4732
3.312293 83.084 -89.3772
3.336295 83.141 -89.2750
3.360471 83.200 -89.1661
3.384822 83.261 -89.0507
3.409350 83.324 -88.9302
3.434056 83.389 -88.8063
3.458940 83.456 -88.6817
3.484005 83.524 -88.5591
3.509252 83.594 -88.4413
3.534681 83.664 -88.3312
3.560295 83.736 -88.2315
3.586094 83.808 -88.1445
3.612081 83.882 -88.0721
3.638255 83.956 -88.0153
3.664620 84.031 -87.9741
3.691175 84.108 -87.9479
3.717923 84.185 -87.9357
3.744864 84.264 -87.9366
3.772001 84.344 -87.9501
3.799335 84.425 -87.9758
3.826866 84.506 -88.0138
3.854597 84.587 -88.0643
3.882529 84.668 -88.1277
3.910664 84.749 -88.2046
3.939002 84.829 -88.2954
3.967546 84.907 -88.4008
3.996296 84.984 -88.5215
4.025255 85.060 -88.6578
4.054423 85.134 -88.8103
4.083804 85.207 -88.9788
4.113396 85.278 -89.1628
4.143204 85.348 -89.3613
4.173227 85.416 -89.5727
4.203468 85.483 -89.7957
4.233928 85.548 -90.0284
4.264609 85.612 -90.2694
4.295512 85.673 -90.5173
4.326639 85.731 -90.7713
4.357992 85.788 -91.0310
4.389572 85.841 -91.2967
4.421380 85.892 -91.5689
4.453419 85.940 -91.8484
4.485691 85.985 -92.1349
4.518196 86.028 -92.4277
4.550936 86.068 -92.7252
4.583914 86.106 -93.0251
4.617131 86.141 -93.3252
4.650589 86.174 -93.6230
4.684289 86.205 -93.9165
4.718233 86.234 -94.2042
4.752424 86.260 -94.4852
4.786862 86.285 -94.7596
4.821549 86.306 -95.0278
4.856488 86.326 -95.2900
4.891680 86.343 -95.5464
4.927127 86.358 -95.7961
4.962831 86.372 -96.0383
4.998794 86.384 -96.2717
5.035017 86.396 -96.4949
5.071503 86.407 -96.7065
5.108253 86.417 -96.9056
5.145270 86.427 -97.0915
5.182555 86.436 -97.2640
5.220110 86.445 -97.4236
5.257937 86.454 -97.5709
5.296038 86.462 -97.7070
5.334415 86.471 -97.8330
5.373071 86.480 -97.9499
5.412006 86.491 -98.0585
5.451224 86.503 -98.1593
5.490725 86.516 -98.2524
5.530514 86.531 -98.3378
5.570590 86.548 -98.4158
5.610957 86.566 -98.4873
5.651616 86.586 -98.5539
5.692570 86.607 -98.6179
5.733821 86.631 -98.6818
5.775370 86.656 -98.7479
5.817221 86.683 -98.8181
5.859375 86.713 -98.8936
5.901834 86.744 -98.9751
5.944602 86.777 -99.0628
5.987679 86.812 -99.1574
6.031068 86.849 -99.2599
6.074771 86.887 -99.3717
6.118792 86.927 -99.4945
6.163131 86.967 -99.6298
6.207792 87.008 -99.7786
6.252776 87.050 -99.9417
6.298086 87.092 -100.1192
6.343725 87.134 -100.3105
6.389694 87.177 -100.5151
6.435996 87.220 -100.7322
6.482634 87.262 -100.9610
6.529610 87.304 -101.2011
6.576926 87.345 -101.4521
6.624585 87.385 -101.7137
6.672590 87.424 -101.9854
6.720942 87.462 -102.2663
6.769645 87.499 -102.5548
6.818700 87.534 -102.8490
6.868111 87.569 -103.1468
6.917881 87.602 -103.4467
6.968010 87.634 -103.7475
7.018504 87.665 -104.0485
7.069362 87.694 -104.3488
7.120590 87.722 -104.6475
7.172189 87.750 -104.9431
7.224161 87.777 -105.2339
7.276511 87.803 -105.5185
7.329239 87.829 -105.7958
7.382350 87.855 -106.0651
7.435845 87.880 -106.3262
7.489729 87.906 -106.5791
7.544002 87.932 -106.8238
7.598669 87.959 -107.0603
7.653732 87.987 -107.2886
7.709194 88.016 -107.5086
7.765058 88.046 -107.7207
7.821327 88.078 -107.9254
7.878004 88.111 -108.1239
7.935091 88.146 -108.3174
7.992592 88.183 -108.5071
8.050510 88.221 -108.6942
8.108847 88.261 -108.8795
8.167607 88.303 -109.0637
8.226793 88.347 -109.2478
8.286408 88.393 -109.4329
8.346454 88.440 -109.6201
8.406936 88.488 -109.8106
8.467856 88.538 -110.0048
8.529218 88.588 -110.2032
8.591024 88.640 -110.4057
8.653278 88.692 -110.6124
8.715983 88.745 -110.8232
8.779143 88.799 -111.0380
8.842760 88.852 -111.2565
8.906839 88.905 -111.4782
8.971381 88.959 -111.7023
9.036392 89.012 -111.9278
9.101873 89.065 -112.1536
9.167829 89.117 -112.3789
9.234263 89.169 -112.6027
9.301178 89.220 -112.8243
9.368578 89.271 -113.0425
9.436467 89.322 -113.2565
9.504847 89.372 -113.4653
9.573723 89.421 -113.6681
9.643099 89.470 -113.8645
9.712976 89.517 -114.0542
9.783361 89.563 -114.2367
9.854255 89.607 -114.4120
9.925663 89.649 -114.5800
9.997588 89.689 -114.7406
10.070035 89.727 -114.8943
10.143007 89.764 -115.0415
10.216507 89.799 -115.1826
10.290540 89.833 -115.3182
10.365109 89.867 -115.4487
10.440219 89.899 -115.5745
10.515873 89.932 -115.6965
10.592076 89.965 -115.8150
10.668830 89.997 -115.9306
10.746141 90.030 -116.0437
10.824012 90.063 -116.1546
10.902447 90.096 -116.2636
10.981451 90.129 -116.3709
11.061027 90.161 -116.4766
11.141180 90.194 -116.5809
11.221913 90.226 -116.6837
11.303232 90.258 -116.7851
11.385140 90.289 -116.8851
11.467641 90.321 -116.9838
11.550741 90.352 -117.0810
11.634442 90.383 -117.1770
11.718750 90.413 -117.2717
11.803669 90.444 -117.3652
11.889203 90.475 -117.4578
11.975357 90.506 -117.5496
12.062136 90.537 -117.6409
12.149543 90.567 -117.7317
12.237583 90.598 -117.8224
12.326262 90.628 -117.9131
12.415583 90.658 -118.0041
12.505552 90.687 -118.0953
12.596172 90.716 -118.1870
12.687449 90.745 -118.2792
12.779387 90.772 -118.3719
12.871992 90.799 -118.4651
12.965268 90.826 -118.5587
13.059220 90.852 -118.6527
13.153852 90.878 -118.7471
13.249170 90.904 -118.8419
13.345179 90.930 -118.9372
13.441884 90.956 -119.0332
13.539289 90.982 -119.1300
13.637401 91.008 -119.2279
13.736223 91.034 -119.3275
13.835761 91.060 -119.4290
13.936021 91.086 -119.5330
14.037007 91.112 -119.6401
14.138725 91.139 -119.7507
14.241180 91.165 -119.8653
14.344377 91.191 -119.9844
14.448323 91.218 -120.1082
14.553021 91.244 -120.2369
14.658478 91.270 -120.3706
14.764700 91.296 -120.5090
14.871691 91.322 -120.6521
14.979457 91.347 -120.7994
15.088005 91.373 -120.9505
15.197339 91.399 -121.1050
15.307465 91.425 -121.2622
15.418389 91.451 -121.4217
15.530117 91.477 -121.5832
15.642655 91.504 -121.7461
15.756008 91.530 -121.9104
15.870182 91.557 -122.0757
15.985184 91.584 -122.2422
16.101019 91.612 -122.4099
16.217694 91.640 -122.5788
16.335214 91.669 -122.7491
16.453586 91.699 -122.9211
16.572815 91.730 -123.0947
16.692909 91.762 -123.2700
16.813872 91.794 -123.4470
16.935713 91.828 -123.6256
17.058436 91.862 -123.8056
17.182048 91.897 -123.9867
17.306556 91.933 -124.1688
17.431967 91.970 -124.3514
17.558286 92.007 -124.5344
17.685521 92.045 -124.7175
17.813677 92.083 -124.9006
17.942762 92.121 -125.0836
18.072783 92.160 -125.2663
18.203746 92.200 -125.4488
18.335658 92.240 -125.6311
18.468526 92.280 -125.8130
18.602356 92.320 -125.9946
18.737156 92.361 -126.1756
18.872934 92.402 -126.3557
19.009695 92.443 -126.5348
19.147447 92.484 -126.7123
19.286197 92.525 -126.8879
19.425953 92.566 -127.0614
19.566721 92.606 -127.2323
19.708510 92.647 -127.4005
19.851326 92.687 -127.5660
19.995177 92.727 -127.7289
20.140070 92.767 -127.8892
20.286013 92.806 -128.0474
20.433014 92.845 -128.2038
20.581080 92.884 -128.3587
20.730219 92.922 -128.5126
20.880439 92.961 -128.6659
21.031747 92.999 -128.8187
21.184152 93.036 -128.9714
21.337661 93.074 -129.1242
21.492282 93.111 -129.2772
21.648024 93.148 -129.4308
21.804895 93.185 -129.5850
21.962902 93.222 -129.7404
22.122054 93.258 -129.8971
22.282360 93.293 -130.0557
22.443827 93.329 -130.2165
22.606464 93.364 -130.3800
22.770280 93.399 -130.5464
22.935283 93.433 -130.7159
23.101481 93.467 -130.8888
23.268884 93.501 -131.0650
23.437500 93.534 -131.2444
23.607338 93.567 -131.4269
23.778406 93.600 -131.6125
23.950714 93.632 -131.8010
24.124271 93.664 -131.9925
24.299086 93.696 -132.1869
24.475167 93.728 -132.3844
24.652524 93.761 -132.5849
24.831166 93.793 -132.7886
25.011103 93.825 -132.9953
25.192344 93.857 -133.2048
25.374898 93.890 -133.4168
25.558775 93.922 -133.6306
25.743984 93.955 -133.8457
25.930536 93.988 -134.0614
26.118439 94.020 -134.2769
26.307704 94.053 -134.4919
26.498341 94.086 -134.7058
26.690359 94.120 -134.9185
26.883768 94.153 -135.1299
27.078579 94.187 -135.3404
27.274801 94.222 -135.5500
27.472446 94.256 -135.7592
27.671522 94.291 -135.9681
27.872042 94.325 -136.1770
28.074014 94.360 -136.3859
28.277450 94.394 -136.5946
28.482360 94.428 -136.8028
28.688755 94.462 -137.0102
28.896645 94.495 -137.2164
29.106042 94.528 -137.4213
29.316957 94.560 -137.6248
29.529400 94.593 -137.8270
29.743382 94.625 -138.0284
29.958915 94.657 -138.2295
30.176009 94.689 -138.4310
30.394677 94.721 -138.6337
30.614929 94.753 -138.8381
30.836778 94.784 -139.0449
31.060234 94.815 -139.2543
31.285309 94.846 -139.4665
31.512015 94.877 -139.6817
31.740364 94.907 -139.8998
31.970368 94.937 -140.1207
32.202039 94.966 -140.3444
32.435388 94.995 -140.5706
32.670428 95.023 -140.7994
32.907171 95.052 -141.0307
33.145630 95.080 -141.2643
33.385817 95.108 -141.5003
33.627745 95.136 -141.7385
33.871425 95.164 -141.9788
34.116871 95.192 -142.2211
34.364096 95.219 -142.4648
34.613113 95.247 -142.7097
34.863934 95.274 -142.9550
35.116572 95.301 -143.2002
35.371041 95.328 -143.4445
35.627354 95.355 -143.6876
35.885525 95.382 -143.9292
36.145566 95.408 -144.1694
36.407492 95.435 -144.4086
36.671316 95.462 -144.6471
36.937051 95.489 -144.8856
37.204712 95.516 -145.1247
37.474313 95.543 -145.3649
37.745867 95.569 -145.6064
38.019389 95.596 -145.8493
38.294893 95.621 -146.0936
38.572394 95.647 -146.3390
38.851905 95.671 -146.5850
39.133442 95.696 -146.8312
39.417019 95.719 -147.0771
39.702651 95.743 -147.3225
39.990353 95.765 -147.5676
40.280140 95.788 -147.8129
40.572026 95.811 -148.0589
40.866028 95.833 -148.3064
41.162160 95.856 -148.5560
41.460438 95.878 -148.8077
41.760877 95.900 -149.0615
42.063494 95.921 -149.3170
42.368303 95.942 -149.5740
42.675322 95.963 -149.8321
42.984565 95.984 -150.0912
43.296048 96.004 -150.3511
43.609789 96.024 -150.6111
43.925804 96.043 -150.8707
44.244108 96.062 -151.1288
44.564719 96.081 -151.3851
44.887654 96.100 -151.6394
45.212928 96.119 -151.8928
45.540560 96.138 -152.1467
45.870565 96.157 -152.4025
46.202962 96.177 -152.6614
46.537768 96.196 -152.9236
46.875000 96.215 -153.1882
47.214676 96.233 -153.4541
47.556813 96.251 -153.7202
47.901429 96.268 -153.9860
48.248542 96.286 -154.2514
48.598171 96.303 -154.5168
48.950334 96.320 -154.7824
49.305048 96.336 -155.0481
49.662333 96.352 -155.3134
50.022206 96.368 -155.5779
50.384688 96.384 -155.8416
50.749796 96.399 -156.1047
51.117550 96.415 -156.3677
51.487969 96.430 -156.6310
51.861072 96.445 -156.8946
52.236879 96.460 -157.1584
52.615409 96.475 -157.4222
52.996681 96.490 -157.6861
53.380717 96.505 -157.9502
53.767536 96.520 -158.2147
54.157158 96.534 -158.4800
54.549603 96.549 -158.7460
54.944892 96.564 -159.0130
55.343045 96.579 -159.2815
55.744084 96.594 -159.5524
56.148028 96.609 -159.8264
56.554900 96.624 -160.1043
56.964720 96.639 -160.3860
57.377510 96.653 -160.6713
57.793291 96.668 -160.9599
58.212085 96.681 -161.2514
58.633914 96.694 -161.5454
59.058799 96.707 -161.8413
59.486764 96.718 -162.1384
59.917829 96.729 -162.4357
60.352019 96.738 -162.7325
60.789354 96.747 -163.0286
61.229859 96.756 -163.3238
61.673556 96.763 -163.6182
62.120468 96.771 -163.9116
62.570618 96.777 -164.2038
63.024031 96.783 -164.4948
63.480729 96.789 -164.7852
63.940736 96.795 -165.0755
64.404077 96.800 -165.3664
64.870776 96.805 -165.6579
65.340856 96.810 -165.9496
65.814343 96.814 -166.2410
66.291261 96.818 -166.5316
66.771635 96.822 -166.8215
67.255489 96.826 -167.1106
67.742850 96.829 -167.3991
68.233743 96.832 -167.6869
68.728193 96.835 -167.9738
69.226226 96.838 -168.2598
69.727867 96.840 -168.5452
70.233144 96.842 -168.8306
70.742083 96.844 -169.1165
71.254709 96.846 -169.4035
71.771050 96.847 -169.6916
72.291132 96.848 -169.9805
72.814984 96.849 -170.2698
73.342631 96.849 -170.5591
73.874102 96.849 -170.8483
74.409424 96.849 -171.1377
74.948626 96.850 -171.4279
75.491734 96.850 -171.7193
76.038779 96.850 -172.0122
76.589787 96.850 -172.3068
77.144788 96.851 -172.6032
77.703811 96.851 -172.9020
78.266885 96.851 -173.2040
78.834039 96.850 -173.5098
79.405303 96.850 -173.8199
79.980706 96.848 -174.1346
80.560280 96.846 -174.4537
81.144053 96.843 -174.7768
81.732056 96.839 -175.1035
82.324320 96.833 -175.4327
82.920876 96.826 -175.7629
83.521755 96.817 -176.0915
84.126988 96.806 -176.4152
84.736607 96.793 -176.7309
85.350643 96.780 -177.0358
85.969129 96.765 -177.3286
86.592097 96.750 -177.6088
87.219579 96.736 -177.8772
87.851608 96.721 -178.1351
88.488217 96.708 -178.3843
89.129439 96.696 -178.6265
89.775308 96.685 -178.8636
90.425856 96.675 -179.0974
91.081119 96.667 -179.3296
91.741131 96.660 -179.5631
92.405925 96.655 -179.8015
93.075536 96.652 179.9515
93.750000 96.649 179.6936
94.429351 96.646 179.4241
95.113625 96.642 179.1445
95.802858 96.637 178.8571
96.497085 96.631 178.5641
97.196342 96.623 178.2681
97.900667 96.613 177.9709
98.610096 96.603 177.6752
99.324665 96.590 177.3835
100.044413 96.577 177.0981
100.769376 96.563 176.8206
101.499592 96.548 176.5512
102.235100 96.534 176.2891
102.975938 96.521 176.0321
103.722144 96.508 175.7769
104.473757 96.496 175.5197
105.230817 96.486 175.2565
105.993363 96.476 174.9844
106.761435 96.467 174.7012
107.535072 96.458 174.4062
108.314315 96.449 174.1000
109.099206 96.439 173.7845
109.889783 96.429 173.4619
110.686090 96.417 173.1335
111.488167 96.404 172.8005
112.296056 96.389 172.4630
113.109800 96.370 172.1222
113.929440 96.348 171.7808
114.755020 96.323 171.4427
115.586582 96.293 171.1122
116.424170 96.261 170.7935
117.267827 96.228 170.4905
118.117598 96.194 170.2058
118.973527 96.161 169.9401
119.835658 96.130 169.6907
120.704037 96.103 169.4507
121.578708 96.079 169.2115
122.459718 96.056 168.9685
123.347111 96.034 168.7210
124.240935 96.012 168.4702
125.141236 95.989 168.2171
126.048061 95.965 167.9622
126.961458 95.940 167.7052
127.881473 95.915 167.4459
128.808154 95.888 167.1842
129.741551 95.861 166.9204
130.681712 95.834 166.6556
131.628686 95.806 166.3911
132.582521 95.778 166.1282
133.543269 95.749 165.8678
134.510979 95.718 165.6103
135.485701 95.687 165.3554
136.467486 95.655 165.1032
137.456386 95.622 164.8537
138.452451 95.588 164.6071
139.455735 95.554 164.3636
140.466288 95.519 164.1230
141.484165 95.484 163.8853
142.509418 95.449 163.6499
143.542100 95.414 163.4164
144.582265 95.377 163.1843
145.629968 95.340 162.9540
146.685262 95.303 162.7261
147.748204 95.264 162.5018
148.818849 95.223 162.2828
149.897251 95.182 162.0712
150.983469 95.139 161.8693
152.077557 95.095 161.6793
153.179574 95.050 161.5027
154.289576 95.006 161.3395
155.407622 94.962 161.1872
156.533770 94.920 161.0414
157.668078 94.879 160.8968
158.810606 94.839 160.7484
159.961413 94.800 160.5938
161.120559 94.761 160.4326
162.288105 94.721 160.2666
163.464112 94.681 160.0991
164.648640 94.639 159.9336
165.841752 94.597 159.7733
167.043510 94.555 159.6199
168.253976 94.512 159.4742
169.473213 94.469 159.3359
170.701286 94.427 159.2034
171.938258 94.386 159.0732
173.184194 94.346 158.9415
174.439158 94.308 158.8055
175.703216 94.270 158.6632
176.976434 94.233 158.5130
178.258878 94.195 158.3527
179.550615 94.156 158.1796
180.851713 94.118 157.9919
182.162239 94.081 157.7901
183.482262 94.045 157.5777
184.811850 94.009 157.3608
186.151073 93.972 157.1483
187.500000 93.931 156.9501
188.858702 93.885 156.7769
190.227250 93.833 156.6352
191.605715 93.777 156.5208
192.994169 93.719 156.4193
194.392685 93.662 156.3171
195.801334 93.605 156.2094
197.220191 93.549 156.0992
198.649330 93.494 155.9927
200.088825 93.439 155.8944
201.538751 93.385 155.8054
202.999184 93.332 155.7237
204.470200 93.280 155.6454
205.951875 93.228 155.5668
207.444287 93.177 155.4857
208.947514 93.125 155.4022
210.461634 93.072 155.3183
211.986726 93.017 155.2377
213.522869 92.959 155.1656
215.070144 92.899 155.1075
216.628631 92.837 155.0678
218.198411 92.775 155.0483
219.779567 92.714 155.0468
221.372180 92.654 155.0579
222.976334 92.595 155.0757
224.592112 92.537 155.0964
226.219600 92.481 155.1187
227.858880 92.424 155.1436
229.510039 92.368 155.1725
231.173164 92.312 155.2072
232.848340 92.257 155.2477
234.535655 92.202 155.2930
236.235197 92.149 155.3409
237.947054 92.096 155.3890
239.671317 92.044 155.4354
241.408074 91.993 155.4791
243.157416 91.942 155.5206
244.919435 91.891 155.5612
246.694223 91.838 155.6031
248.481871 91.786 155.6493
250.282473 91.732 155.7029
252.096123 91.679 155.7664
253.922915 91.627 155.8398
255.762945 91.576 155.9190
257.616309 91.526 155.9958
259.483103 91.478 156.0620
261.363424 91.430 156.1136
263.257372 91.381 156.1537
265.165043 91.328 156.1901
267.086538 91.274 156.2318
269.021957 91.217 156.2860
270.971401 91.160 156.3571
272.934972 91.102 156.4459
274.912771 91.045 156.5508
276.904902 90.989 156.6693
278.911469 90.935 156.7986
280.932577 90.882 156.9364
282.968330 90.831 157.0795
285.018835 90.782 157.2228
287.084199 90.735 157.3593
289.164530 90.688 157.4822
291.259935 90.640 157.5895
293.370525 90.591 157.6859
295.496408 90.539 157.7814
297.637697 90.484 157.8861
299.794503 90.428 158.0063
301.966937 90.370 158.1442
304.155114 90.312 158.2984
306.359147 90.255 158.4662
308.579152 90.198 158.6442
310.815244 90.142 158.8290
313.067539 90.086 159.0187
315.336156 90.030 159.2139
317.621211 89.974 159.4177
319.922826 89.918 159.6341
322.241118 89.862 159.8651
324.576210 89.807 160.1088
326.928223 89.755 160.3613
329.297280 89.703 160.6180
331.683504 89.654 160.8748
334.087019 89.606 161.1288
336.507952 89.559 161.3780
338.946427 89.512 161.6219
341.402572 89.464 161.8620
343.876516 89.416 162.1017
346.368387 89.367 162.3446
348.878315 89.318 162.5931
351.406431 89.268 162.8481
353.952867 89.219 163.1102
356.517756 89.170 163.3789
359.101230 89.121 163.6539
361.703426 89.072 163.9347
364.324478 89.023 164.2212
366.964523 88.975 164.5139
369.623699 88.927 164.8131
372.302145 88.880 165.1195
375.000000 88.833 165.4330
377.717405 88.787 165.7529
380.454501 88.742 166.0785
383.211431 88.697 166.4094
385.988339 88.653 166.7452
388.785369 88.610 167.0856
391.602668 88.568 167.4307
394.440383 88.526 167.7803
397.298660 88.486 168.1342
400.177650 88.446 168.4913
403.077502 88.408 168.8503
405.998368 88.370 169.2096
408.940400 88.333 169.5687
411.903750 88.296 169.9293
414.888575 88.258 170.2946
417.895028 88.221 170.6683
420.923268 88.185 171.0527
423.973452 88.149 171.4484
427.045738 88.115 171.8534
430.140287 88.083 172.2634
433.257261 88.054 172.6732
436.396822 88.027 173.0797
439.559133 88.001 173.4826
442.744360 87.977 173.8822
445.952668 87.954 174.2769
449.184225 87.933 174.6620
452.439199 87.913 175.0317
455.717760 87.892 175.3827
459.020079 87.870 175.7187
462.346327 87.846 176.0502
465.696680 87.819 176.3893
469.071310 87.790 176.7432
472.470394 87.761 177.1132
475.894109 87.733 177.4960
479.342634 87.706 177.8857
482.816148 87.679 178.2767
486.314833 87.653 178.6672
489.838871 87.626 179.0617
493.388445 87.599 179.4681
496.963741 87.572 179.8903
500.564945 87.547 -179.6752
504.192245 87.525 -179.2364
507.845830 87.504 -178.8008
511.525890 87.485 -178.3716
515.232618 87.466 -177.9484
518.966206 87.447 -177.5276
522.726849 87.427 -177.1040
526.514743 87.408 -176.6724
530.330086 87.389 -176.2301
534.173076 87.371 -175.7791
538.043915 87.355 -175.3244
541.942803 87.340 -174.8695
545.869944 87.326 -174.4145
549.825542 87.314 -173.9590
553.809805 87.302 -173.5044
557.822939 87.292 -173.0532
561.865154 87.283 -172.6072
565.936660 87.274 -172.1662
570.037671 87.264 -171.7275
574.168399 87.255 -171.2872
578.329060 87.245 -170.8431
582.519870 87.236 -170.3952
586.741049 87.227 -169.9438
590.992817 87.218 -169.4866
595.275394 87.209 -169.0213
599.589005 87.202 -168.5490
603.933874 87.196 -168.0738
608.310228 87.191 -167.5994
612.718295 87.186 -167.1272
617.158304 87.182 -166.6546
621.630488 87.178 -166.1757
626.135079 87.174 -165.6846
630.672311 87.171 -165.1792
635.242423 87.170 -164.6639
639.845651 87.171 -164.1450
644.482237 87.175 -163.6244
649.152421 87.181 -163.1014
653.856447 87.189 -162.5776
658.594560 87.201 -162.0602
663.367008 87.215 -161.5599
668.174039 87.231 -161.0848
673.015903 87.247 -160.6341
677.892854 87.260 -160.1994
682.805145 87.272 -159.7711
687.753032 87.281 -159.3415
692.736774 87.289 -158.9048
697.756631 87.296 -158.4565
702.812863 87.303 -157.9954
707.905735 87.311 -157.5244
713.035511 87.320 -157.0483
718.202461 87.330 -156.5707
723.406852 87.341 -156.0922
728.648956 87.351 -155.6115
733.929047 87.363 -155.1272
739.247399 87.375 -154.6386
744.604290 87.387 -154.1452
750.000000 87.401 -153.6466
755.434809 87.415 -153.1429
760.909001 87.430 -152.6344
766.422861 87.445 -152.1213
771.976677 87.462 -151.6044
777.570739 87.479 -151.0840
783.205337 87.497 -150.5594
788.880766 87.516 -150.0276
794.597321 87.536 -149.4837
800.355301 87.557 -148.9229
806.155005 87.581 -148.3446
811.996736 87.610 -147.7530
817.880799 87.644 -147.1565
823.807501 87.684 -146.5668
829.777150 87.729 -145.9983
835.790057 87.779 -145.4637
841.846536 87.831 -144.9694
847.946903 87.883 -144.5156
854.091476 87.933 -144.0980
860.280575 87.981 -143.7077
866.514523 88.025 -143.3317
872.793644 88.066 -142.9563
879.118267 88.104 -142.5737
885.488720 88.142 -142.1839
891.905336 88.180 -141.7894
898.368450 88.218 -141.3911
904.878398 88.256 -140.9881
911.435520 88.294 -140.5804
918.040157 88.333 -140.1699
924.692655 88.373 -139.7588
931.393359 88.413 -139.3484
938.142619 88.453 -138.9388
944.940787 88.493 -138.5272
951.788218 88.534 -138.1084
958.685268 88.575 -137.6784
965.632296 88.618 -137.2370
972.629666 88.664 -136.7876
979.677741 88.713 -136.3365
986.776890 88.766 -135.8905
993.927482 88.820 -135.4522
1001.129891 88.876 -135.0190
1008.384491 88.934 -134.5867
1015.691660 88.995 -134.1558
1023.051781 89.059 -133.7302
1030.465236 89.126 -133.3167
1037.932411 89.198 -132.9258
1045.453698 89.271 -132.5686
1053.029486 89.346 -132.2497
1060.660172 89.420 -131.9651
1068.346153 89.491 -131.7060
1076.087829 89.560 -131.4627
1083.885605 89.628 -131.2284
1091.739887 89.694 -131.0007
1099.651084 89.759 -130.7791
1107.619609 89.823 -130.5631
1115.645878 89.886 -130.3515
1123.730308 89.947 -130.1432
1131.873321 90.008 -129.9372
1140.075341 90.069 -129.7325
1148.336797 90.128 -129.5286
1156.658119 90.188 -129.3246
1165.039741 90.247 -129.1190
1173.482099 90.308 -128.9100
1181.985634 90.369 -128.6976
1190.550789 90.434 -128.4869
1199.178011 90.501 -128.2887
1207.867749 90.570 -128.1147
1216.620457 90.640 -127.9712
1225.436590 90.708 -127.8553
1234.316609 90.773 -127.7590
1243.260976 90.835 -127.6737
1252.270157 90.894 -127.5916
1261.344623 90.950 -127.5082
1270.484846 91.005 -127.4215
1279.691303 91.057 -127.3294
1288.964474 91.109 -127.2299
1298.304842 91.160 -127.1232
1307.712894 91.211 -127.0119
1317.189120 91.261 -126.8995
1326.734016 91.312 -126.7880
1336.348077 91.362 -126.6768
1346.031806 91.412 -126.5626
1355.785708 91.462 -126.4412
1365.610290 91.513 -126.3084
1375.506065 91.564 -126.1594
1385.473549 91.617 -125.9892
1395.513261 91.673 -125.7965
1405.625726 91.734 -125.5866
1415.811469 91.798 -125.3715
1426.071023 91.867 -125.1663
1436.404921 91.938 -124.9812
1446.813703 92.009 -124.8174
1457.297912 92.080 -124.6701
1467.858093 92.149 -124.5330
1478.494798 92.215 -124.4016
1489.208581 92.279 -124.2718
1500.000000 92.340 -124.1399
1510.869618 92.398 -124.0022
1521.818002 92.451 -123.8553
1532.845723 92.499 -123.6970
1543.953355 92.545 -123.5254
1555.141477 92.589 -123.3402
1566.410674 92.634 -123.1454
1577.761531 92.681 -122.9516
1589.194642 92.730 -122.7731
1600.710601 92.781 -122.6194
1612.310010 92.831 -122.4913
1623.993473 92.880 -122.3834
1635.761599 92.927 -122.2883
1647.615002 92.972 -122.1995
1659.554299 93.016 -122.1119
1671.580114 93.059 -122.0218
1683.693072 93.102 -121.9282
1695.893807 93.145 -121.8328
1708.182952 93.188 -121.7379
1720.561150 93.230 -121.6437
1733.029045 93.269 -121.5472
1745.587288 93.307 -121.4431
1758.236533 93.343 -121.3244
1770.977440 93.380 -121.1854
1783.810673 93.418 -121.0266
1796.736900 93.460 -120.8572
1809.756796 93.506 -120.6922
1822.871040 93.555 -120.5429
1836.080315 93.606 -120.4134
1849.385310 93.659 -120.3025
1862.786718 93.712 -120.2066
1876.285239 93.765 -120.1209
1889.881575 93.820 -120.0401
1903.576436 93.877 -119.9584
1917.370535 93.937 -119.8707
1931.264593 94.003 -119.7735
1945.259332 94.075 -119.6683
1959.355483 94.155 -119.5642
1973.553781 94.240 -119.4753
1987.854965 94.330 -119.4126
2002.259781 94.422 -119.3799
2016.768981 94.515 -119.3754
2031.383320 94.607 -119.3945
2046.103561 94.698 -119.4319
2060.930471 94.788 -119.4834
2075.864823 94.877 -119.5474
2090.907395 94.964 -119.6237
2106.058972 95.049 -119.7103
2121.320344 95.131 -119.8022
2136.692305 95.212 -119.8916
2152.175658 95.290 -119.9707
2167.771210 95.369 -120.0374
2183.479774 95.449 -120.0990
2199.302169 95.531 -120.1677
2215.239219 95.616 -120.2537
2231.291755 95.700 -120.3621
2247.460615 95.785 -120.4931
2263.746641 95.868 -120.6438
2280.150683 95.950 -120.8079
2296.673595 96.031 -120.9780
2313.316238 96.112 -121.1482
2330.079481 96.195 -121.3177
2346.964198 96.280 -121.4944
2363.971268 96.368 -121.6912
2381.101578 96.458 -121.9185
2398.356022 96.548 -122.1815
2415.735498 96.638 -122.4804
2433.240913 96.725 -122.8125
2450.873180 96.810 -123.1747
2468.633217 96.893 -123.5649
2486.521951 96.972 -123.9803
2504.540314 97.048 -124.4151
2522.689246 97.119 -124.8602
2540.969692 97.188 -125.3065
2559.382606 97.255 -125.7512
2577.928947 97.322 -126.2000
2596.609683 97.389 -126.6617
2615.425787 97.455 -127.1432
2634.378241 97.519 -127.6476
2653.468031 97.581 -128.1730
2672.696154 97.640 -128.7131
2692.063613 97.695 -129.2599
2711.571415 97.749 -129.8079
2731.220579 97.802 -130.3594
2751.012130 97.855 -130.9230
2770.947098 97.907 -131.5082
2791.026522 97.959 -132.1210
2811.251451 98.008 -132.7633
2831.622938 98.053 -133.4344
2852.142045 98.095 -134.1324
2872.809842 98.131 -134.8531
2893.627406 98.160 -135.5888
2914.595823 98.184 -136.3280
2935.716186 98.202 -137.0602
2956.989596 98.216 -137.7815
2978.417161 98.226 -138.4948
3000.000000 98.234 -139.2046
3021.739237 98.239 -139.9139
3043.636005 98.240 -140.6213
3065.691446 98.237 -141.3205
3087.906710 98.230 -142.0028
3110.282955 98.221 -142.6638
3132.821347 98.212 -143.3064
3155.523062 98.202 -143.9385
3178.389283 98.192 -144.5683
3201.421202 98.181 -145.2024
3224.620020 98.168 -145.8447
3247.986946 98.153 -146.4974
3271.523198 98.134 -147.1583
3295.230004 98.110 -147.8195
3319.108599 98.082 -148.4704
3343.160228 98.051 -149.1042
3367.386145 98.017 -149.7204
3391.787613 97.982 -150.3221
3416.365904 97.944 -150.9117
3441.122300 97.905 -151.4872
3466.058091 97.863 -152.0412
3491.174576 97.819 -152.5660
3516.473066 97.775 -153.0601
3541.954880 97.733 -153.5284
3567.621345 97.692 -153.9799
3593.473800 97.652 -154.4241
3619.513592 97.614 -154.8697
3645.742080 97.575 -155.3227
3672.160630 97.534 -155.7830
3698.770620 97.490 -156.2434
3725.573436 97.444 -156.6961
3752.570477 97.394 -157.1377
3779.763150 97.342 -157.5688
3807.152872 97.288 -157.9907
3834.741071 97.229 -158.4002
3862.529185 97.165 -158.7885
3890.518664 97.099 -159.1472
3918.710966 97.030 -159.4742
3947.107561 96.962 -159.7740
3975.709929 96.896 -160.0554
4004.519563 96.831 -160.3296
4033.537962 96.767 -160.6066
4062.766641 96.702 -160.8902
4092.207123 96.637 -161.1769
4121.860942 96.569 -161.4613
4151.729646 96.500 -161.7408
4181.814790 96.429 -162.0163
4212.117944 96.355 -162.2866
4242.640687 96.278 -162.5447
4273.384610 96.196 -162.7800
4304.351317 96.113 -162.9852
4335.542421 96.028 -163.1598
4366.959549 95.944 -163.3094
4398.604338 95.861 -163.4445
4430.478438 95.778 -163.5759
4462.583511 95.695 -163.7083
4494.921231 95.611 -163.8397
4527.493283 95.526 -163.9671
4560.301365 95.439 -164.0894
4593.347189 95.350 -164.2056
4626.632476 95.258 -164.3094
4660.158962 95.163 -164.3895
4693.928395 95.066 -164.4353
4727.942535 94.968 -164.4419
4762.203156 94.872 -164.4122
4796.712043 94.778 -164.3557
4831.470996 94.687 -164.2836
4866.481826 94.599 -164.2023
4901.746360 94.512 -164.1137
4937.266434 94.427 -164.0197
4973.043902 94.342 -163.9226
5009.080628 94.256 -163.8204
5045.378492 94.168 -163.7040
5081.939384 94.079 -163.5614
5118.765212 93.989 -163.3832
5155.857894 93.900 -163.1669
5193.219366 93.814 -162.9183
5230.851574 93.731 -162.6466
5268.756481 93.651 -162.3593
5306.936062 93.574 -162.0619
5345.392309 93.499 -161.7608
5384.127225 93.426 -161.4613
5423.142830 93.352 -161.1621
5462.441159 93.276 -160.8551
5502.024259 93.198 -160.5294
5541.894195 93.120 -160.1776
5582.053045 93.043 -159.7989
5622.502902 92.968 -159.3979
5663.245876 92.896 -158.9798
5704.284090 92.827 -158.5499
5745.619684 92.761 -158.1151
5787.254813 92.698 -157.6807
5829.191647 92.635 -157.2460
5871.432373 92.572 -156.8030
5913.979192 92.510 -156.3408
5956.834323 92.448 -155.8513
6000.000000 92.388 -155.3320
6043.478473 92.331 -154.7836
6087.272010 92.278 -154.2085
6131.382892 92.230 -153.6110
6175.813420 92.186 -152.9964
6220.565910 92.146 -152.3655
6265.642695 92.110 -151.7125
6311.046124 92.076 -151.0270
6356.778566 92.048 -150.2995
6402.842404 92.026 -149.5244
6449.240040 92.012 -148.7003
6495.973891 92.009 -147.8303
6543.046396 92.019 -146.9235
6590.460007 92.044 -145.9919
6638.217197 92.085 -145.0471
6686.320456 92.143 -144.0993
6734.772290 92.219 -143.1610
6783.575226 92.316 -142.2492
6832.731809 92.431 -141.3856
6882.244600 92.566 -140.5948
6932.116181 92.718 -139.9027
6982.349153 92.885 -139.3320
7032.946133 93.064 -138.8964
7083.909760 93.252 -138.6001
7135.242690 93.448 -138.4421
7186.947600 93.653 -138.4215
7239.027185 93.865 -138.5412
7291.484160 94.085 -138.8110
7344.321260 94.314 -139.2484
7397.541239 94.549 -139.8737
7451.146872 94.787 -140.7050
7505.140954 95.026 -141.7565
7559.526299 95.263 -143.0409
7614.305743 95.493 -144.5693
7669.482141 95.714 -146.3524
7725.058371 95.920 -148.4003
7781.037328 96.104 -150.7190
7837.421932 96.259 -153.3023
7894.215122 96.377 -156.1286
7951.419859 96.450 -159.1612
8009.039125 96.474 -162.3510
8067.075924 96.444 -165.6412
8125.533282 96.359 -168.9733
8184.414245 96.217 -172.2902
8243.721885 96.020 -175.5342
8303.459292 95.770 -178.6476
8363.629581 95.468 178.4246
8424.235888 95.121 175.7316
8485.281374 94.736 173.3110
8546.769221 94.320 171.1838
8608.702634 93.881 169.3554
8671.084842 93.426 167.8218
8733.919097 92.961 166.5750
8797.208675 92.490 165.6063
8860.956876 92.019 164.9069
8925.167022 91.552 164.4629
8989.842461 91.093 164.2526
9054.986566 90.646 164.2501
9120.602731 90.212 164.4302
9186.694378 89.792 164.7736
9253.264952 89.388 165.2677
9320.317925 88.999 165.9021
9387.856790 88.628 166.6625
9455.885071 88.275 167.5308
9524.406312 87.941 168.4886
9593.424086 87.626 169.5228
9662.941992 87.328 170.6282
9732.963653 87.049 171.8027
9803.492719 86.788 173.0406
9874.532869 86.546 174.3319
9946.087805 86.322 175.6658
10018.161257 86.115 177.0374
10090.756983 85.924 178.4496
10163.878768 85.749 179.9058
10237.530423 85.591 -178.5972
10311.715789 85.451 -177.0694
10386.438732 85.330 -175.5227
10461.703149 85.227 -173.9639
10537.512962 85.142 -172.3965
10613.872125 85.077 -170.8282
10690.784618 85.030 -169.2735
10768.254450 85.003 -167.7509
10846.285661 84.992 -166.2734
10924.882318 84.996 -164.8459
11004.048518 85.014 -163.4705
11083.788390 85.045 -162.1512
11164.106090 85.087 -160.8936
11245.005805 85.139 -159.6980
11326.491752 85.199 -158.5572
11408.568180 85.267 -157.4612
11491.239368 85.342 -156.4031
11574.509626 85.426 -155.3801
11658.383294 85.517 -154.3866
11742.864745 85.615 -153.4114
11827.958384 85.722 -152.4403
11913.668646 85.840 -151.4625
12000.000000 85.970 -150.4721
12086.956947 86.118 -149.4633
12174.544019 86.285 -148.4305
12262.765784 86.479 -147.3732
12351.626840 86.705 -146.3032
12441.131819 86.971 -145.2440
12531.285389 87.285 -144.2284
12622.092249 87.653 -143.3015
12713.557132 88.083 -142.5297
12805.684808 88.579 -142.0051
12898.480079 89.143 -141.8395
12991.947783 89.769 -142.1551
13086.092792 90.445 -143.0769
13180.920015 91.153 -144.7256
13276.434395 91.869 -147.2040
13372.640911 92.561 -150.5781
13469.544580 93.196 -154.8637
13567.150452 93.739 -160.0173
13665.463617 94.157 -165.9287
13764.489200 94.422 -172.4146
13864.232362 94.516 -179.2262
13964.698305 94.433 173.9243
14065.892266 94.181 167.3234
14167.819519 93.780 161.2188
14270.485380 93.259 155.7941
14373.895200 92.652 151.1564
14478.054370 91.999 147.3346
14582.968320 91.335 144.2890
14688.642520 90.694 141.9269
14795.082478 90.107 140.1157
14902.293745 89.595 138.6938
15010.281908 89.172 137.4869
15119.052599 88.844 136.3226
15228.611486 88.612 135.0397
15338.964283 88.465 133.4944
15450.116741 88.391 131.5673
15562.074656 88.368 129.1690
15674.843864 88.373 126.2432
15788.430244 88.380 122.7677
15902.839718 88.361 118.7581
16018.078250 88.292 114.2678
16134.151848 88.153 109.3828
16251.066563 87.928 104.2147
16368.828491 87.604 98.8922
16487.443769 87.177 93.5509
16606.918584 86.647 88.3203
16727.259161 86.019 83.3161
16848.471777 85.300 78.6381
16970.562748 84.501 74.3669
17093.538442 83.634 70.5653
17217.405268 82.711 67.2835
17342.169684 81.748 64.5602
17467.838194 80.759 62.4174
17594.417350 79.764 60.8517
17721.913751 78.782 59.8189
17850.334044 77.834 59.2137
17979.684923 76.940 58.8627
18109.973131 76.111 58.5431
18241.205462 75.346 58.0245
18373.388756 74.628 57.1144
18506.529905 73.925 55.6996
18640.635849 73.190 53.7852
18775.713581 72.371 51.5350
18911.770141 71.421 49.2724
19048.812624 70.314 47.4003
19186.848172 69.050 46.2561
19325.883983 67.652 45.9897
19465.927305 66.155 46.5483
19606.985439 64.603 47.7856
19749.065738 63.078 49.5770
19892.175609 61.752 51.6846
20036.322514 60.936 53.3158
