* Measurement data measured by REW V5.30.5
* Source: EXCL: Microphone (Realtek(R) Audio), MICROPHONE (Master Volume), L, volume: 1.000
* Format: 256k Log Swept Sine, 1 sweep at -10.0 dBFS with no timing reference
* Dated: Feb 1, 2024 1:35:12 PM
* REW Settings:
*  C-weighting compensation: Off
*  Target level: 75.0 dB
* Note: CCA Trio 0000 L
* Measurement: L CCA Trio 0000
* Smoothing: 1/12 octave
* Frequency Step: 96 ppo
* Start Frequency: 0.36621094 Hz
*
* Freq(Hz) SPL(dB) Phase(degrees)
0.366211 68.801 34.0601
0.368865 68.823 34.0373
0.371538 68.855 34.0037
0.374230 68.894 33.9626
0.376942 68.939 33.9170
0.379673 68.987 33.8688
0.382424 69.037 33.8195
0.385196 69.088 33.7697
0.387987 69.140 33.7201
0.390798 69.193 33.6708
0.393630 69.246 33.6219
0.396483 69.299 33.5736
0.399356 69.353 33.5258
0.402250 69.408 33.4785
0.405165 69.463 33.4317
0.408101 69.518 33.3853
0.411058 69.574 33.3394
0.414037 69.630 33.2940
0.417037 69.686 33.2489
0.420059 69.743 33.2041
0.423103 69.800 33.1597
0.426169 69.858 33.1155
0.429257 69.916 33.0715
0.432367 69.974 33.0278
0.435501 70.033 32.9841
0.438656 70.093 32.9406
0.441835 70.153 32.8972
0.445037 70.213 32.8538
0.448262 70.273 32.8103
0.451510 70.335 32.7668
0.454782 70.396 32.7231
0.458077 70.458 32.6793
0.461397 70.521 32.6353
0.464740 70.583 32.5909
0.468108 70.647 32.5463
0.471500 70.711 32.5013
0.474917 70.775 32.4558
0.478358 70.840 32.4098
0.481825 70.905 32.3633
0.485316 70.971 32.3162
0.488833 71.037 32.2684
0.492375 71.103 32.2198
0.495943 71.171 32.1705
0.499537 71.238 32.1204
0.503157 71.306 32.0693
0.506803 71.375 32.0173
0.510475 71.444 31.9642
0.514174 71.514 31.9100
0.517900 71.584 31.8546
0.521653 71.654 31.7980
0.525433 71.725 31.7401
0.529241 71.797 31.6808
0.533076 71.869 31.6201
0.536939 71.942 31.5578
0.540830 72.015 31.4940
0.544749 72.089 31.4285
0.548696 72.163 31.3613
0.552673 72.238 31.2924
0.556677 72.313 31.2215
0.560711 72.389 31.1487
0.564774 72.466 31.0738
0.568867 72.543 30.9969
0.572989 72.620 30.9178
0.577141 72.699 30.8365
0.581324 72.777 30.7528
0.585536 72.856 30.6668
0.589779 72.936 30.5782
0.594053 73.017 30.4871
0.598358 73.098 30.3934
0.602694 73.179 30.2969
0.607061 73.262 30.1977
0.611460 73.344 30.0955
0.615891 73.428 29.9904
0.620354 73.512 29.8823
0.624849 73.596 29.7710
0.629377 73.682 29.6566
0.633938 73.767 29.5388
0.638532 73.854 29.4176
0.643159 73.941 29.2930
0.647819 74.029 29.1648
0.652514 74.117 29.0330
0.657242 74.206 28.8974
0.662005 74.296 28.7581
0.666802 74.386 28.6148
0.671634 74.477 28.4675
0.676501 74.569 28.3161
0.681403 74.661 28.1606
0.686341 74.754 28.0008
0.691314 74.847 27.8366
0.696324 74.941 27.6680
0.701369 75.036 27.4950
0.706452 75.131 27.3174
0.711571 75.227 27.1355
0.716727 75.322 26.9492
0.721921 75.418 26.7588
0.727153 75.513 26.5649
0.732422 75.607 26.3681
0.737729 75.699 26.1690
0.743075 75.791 25.9686
0.748460 75.882 25.7675
0.753883 75.973 25.5660
0.759346 76.063 25.3646
0.764849 76.153 25.1633
0.770391 76.244 24.9622
0.775974 76.334 24.7614
0.781597 76.425 24.5606
0.787261 76.516 24.3600
0.792965 76.607 24.1594
0.798712 76.699 23.9588
0.804499 76.791 23.7581
0.810329 76.883 23.5571
0.816201 76.975 23.3558
0.822116 77.067 23.1542
0.828073 77.160 22.9520
0.834073 77.253 22.7492
0.840118 77.346 22.5457
0.846205 77.440 22.3415
0.852337 77.534 22.1363
0.858514 77.628 21.9301
0.864735 77.722 21.7228
0.871001 77.816 21.5143
0.877313 77.911 21.3044
0.883670 78.006 21.0931
0.890074 78.102 20.8802
0.896523 78.197 20.6655
0.903020 78.293 20.4491
0.909564 78.389 20.2307
0.916155 78.486 20.0103
0.922793 78.582 19.7877
0.929480 78.679 19.5627
0.936216 78.777 19.3353
0.943000 78.874 19.1053
0.949833 78.972 18.8725
0.956716 79.070 18.6369
0.963649 79.169 18.3983
0.970632 79.268 18.1566
0.977666 79.367 17.9116
0.984750 79.467 17.6631
0.991886 79.566 17.4110
0.999074 79.667 17.1553
1.006313 79.767 16.8956
1.013605 79.868 16.6319
1.020950 79.969 16.3640
1.028349 80.071 16.0917
1.035801 80.173 15.8150
1.043306 80.275 15.5335
1.050867 80.378 15.2473
1.058482 80.481 14.9562
1.066152 80.585 14.6601
1.073878 80.689 14.3590
1.081659 80.793 14.0530
1.089498 80.898 13.7424
1.097393 81.003 13.4275
1.105345 81.108 13.1090
1.113355 81.214 12.7873
1.121422 81.320 12.4632
1.129549 81.426 12.1368
1.137734 81.532 11.8087
1.145978 81.639 11.4789
1.154283 81.746 11.1475
1.162647 81.852 10.8147
1.171072 81.960 10.4805
1.179558 82.067 10.1448
1.188106 82.174 9.8078
1.196715 82.282 9.4694
1.205387 82.389 9.1296
1.214122 82.497 8.7884
1.222920 82.605 8.4458
1.231781 82.713 8.1017
1.240708 82.822 7.7561
1.249698 82.930 7.4091
1.258754 83.039 7.0605
1.267875 83.148 6.7103
1.277063 83.257 6.3584
1.286317 83.366 6.0049
1.295638 83.476 5.6496
1.305027 83.586 5.2925
1.314484 83.695 4.9335
1.324009 83.805 4.5726
1.333603 83.916 4.2096
1.343267 84.026 3.8444
1.353001 84.137 3.4771
1.362805 84.247 3.1074
1.372681 84.359 2.7354
1.382628 84.470 2.3608
1.392647 84.581 1.9837
1.402739 84.693 1.6039
1.412904 84.805 1.2213
1.423142 84.917 0.8359
1.433455 85.029 0.4477
1.443842 85.142 0.0568
1.454305 85.255 -0.3366
1.464843 85.367 -0.7322
1.475458 85.480 -1.1297
1.486150 85.593 -1.5285
1.496919 85.706 -1.9284
1.507766 85.820 -2.3291
1.518692 85.933 -2.7306
1.529697 86.046 -3.1328
1.540782 86.159 -3.5358
1.551947 86.272 -3.9396
1.563193 86.385 -4.3444
1.574521 86.498 -4.7503
1.585931 86.611 -5.1574
1.597423 86.724 -5.5658
1.608998 86.837 -5.9759
1.620658 86.950 -6.3877
1.632402 87.063 -6.8014
1.644231 87.176 -7.2173
1.656146 87.289 -7.6355
1.668147 87.402 -8.0562
1.680235 87.515 -8.4797
1.692410 87.628 -8.9062
1.704674 87.740 -9.3359
1.717027 87.853 -9.7691
1.729469 87.966 -10.2061
1.742002 88.079 -10.6470
1.754625 88.192 -11.0922
1.767340 88.305 -11.5418
1.780147 88.418 -11.9962
1.793046 88.531 -12.4555
1.806040 88.644 -12.9200
1.819127 88.757 -13.3895
1.832309 88.869 -13.8642
1.845587 88.982 -14.3438
1.858961 89.095 -14.8281
1.872431 89.207 -15.3168
1.886000 89.319 -15.8095
1.899666 89.431 -16.3058
1.913432 89.542 -16.8056
1.927298 89.654 -17.3085
1.941264 89.765 -17.8142
1.955331 89.876 -18.3226
1.969500 89.986 -18.8334
1.983772 90.096 -19.3465
1.998147 90.206 -19.8617
2.012626 90.316 -20.3788
2.027211 90.426 -20.8979
2.041901 90.535 -21.4187
2.056697 90.644 -21.9413
2.071601 90.753 -22.4656
2.086613 90.861 -22.9916
2.101733 90.970 -23.5194
2.116963 91.078 -24.0490
2.132303 91.186 -24.5806
2.147755 91.294 -25.1144
2.163318 91.401 -25.6506
2.178995 91.508 -26.1897
2.194785 91.615 -26.7319
2.210689 91.722 -27.2778
2.226709 91.828 -27.8277
2.242844 91.934 -28.3816
2.259097 92.039 -28.9396
2.275467 92.143 -29.5015
2.291956 92.248 -30.0668
2.308565 92.351 -30.6353
2.325294 92.455 -31.2065
2.342144 92.557 -31.7802
2.359116 92.659 -32.3558
2.376211 92.761 -32.9330
2.393430 92.862 -33.5115
2.410774 92.963 -34.0910
2.428243 93.063 -34.6712
2.445839 93.163 -35.2520
2.463562 93.263 -35.8331
2.481415 93.361 -36.4144
2.499396 93.460 -36.9961
2.517508 93.558 -37.5782
2.535750 93.656 -38.1613
2.554126 93.753 -38.7457
2.572634 93.849 -39.3323
2.591276 93.945 -39.9217
2.610054 94.041 -40.5146
2.628967 94.135 -41.1110
2.648018 94.229 -41.7110
2.667206 94.322 -42.3141
2.686534 94.414 -42.9201
2.706002 94.506 -43.5282
2.725610 94.597 -44.1380
2.745361 94.687 -44.7488
2.765255 94.777 -45.3602
2.785294 94.866 -45.9715
2.805477 94.954 -46.5822
2.825807 95.042 -47.1919
2.846284 95.129 -47.8004
2.866909 95.215 -48.4075
2.887684 95.301 -49.0133
2.908609 95.386 -49.6183
2.929686 95.471 -50.2230
2.950916 95.555 -50.8285
2.972299 95.638 -51.4356
2.993838 95.720 -52.0447
3.015532 95.801 -52.6561
3.037384 95.881 -53.2695
3.059394 95.961 -53.8844
3.081564 96.039 -54.5003
3.103894 96.117 -55.1164
3.126386 96.194 -55.7320
3.149041 96.271 -56.3463
3.171861 96.346 -56.9586
3.194845 96.421 -57.5684
3.217996 96.495 -58.1750
3.241315 96.569 -58.7783
3.264803 96.641 -59.3783
3.288461 96.714 -59.9755
3.312291 96.785 -60.5706
3.336293 96.855 -61.1644
3.360469 96.925 -61.7575
3.384820 96.994 -62.3503
3.409348 97.061 -62.9428
3.434054 97.128 -63.5347
3.458938 97.194 -64.1253
3.484003 97.260 -64.7142
3.509250 97.324 -65.3005
3.534679 97.388 -65.8836
3.560293 97.451 -66.4629
3.586092 97.514 -67.0379
3.612079 97.576 -67.6082
3.638253 97.637 -68.1738
3.664618 97.698 -68.7350
3.691173 97.758 -69.2923
3.717921 97.817 -69.8464
3.744862 97.876 -70.3977
3.771999 97.933 -70.9462
3.799332 97.990 -71.4920
3.826864 98.047 -72.0347
3.854595 98.102 -72.5738
3.882527 98.158 -73.1089
3.910661 98.212 -73.6395
3.938999 98.266 -74.1650
3.967543 98.320 -74.6851
3.996294 98.374 -75.1995
4.025252 98.427 -75.7083
4.054421 98.479 -76.2116
4.083801 98.531 -76.7098
4.113394 98.583 -77.2032
4.143201 98.634 -77.6919
4.173225 98.685 -78.1762
4.203466 98.735 -78.6558
4.233926 98.785 -79.1309
4.264606 98.835 -79.6012
4.295509 98.885 -80.0665
4.326636 98.934 -80.5267
4.357989 98.984 -80.9817
4.389569 99.033 -81.4313
4.421378 99.082 -81.8755
4.453417 99.132 -82.3145
4.485688 99.181 -82.7485
4.518193 99.229 -83.1775
4.550934 99.278 -83.6019
4.583912 99.327 -84.0219
4.617129 99.376 -84.4376
4.650587 99.424 -84.8492
4.684287 99.473 -85.2568
4.718231 99.522 -85.6605
4.752421 99.571 -86.0602
4.786859 99.621 -86.4559
4.821547 99.670 -86.8477
4.856485 99.720 -87.2356
4.891677 99.769 -87.6198
4.927125 99.819 -88.0006
4.962829 99.869 -88.3783
4.998791 99.919 -88.7534
5.035015 99.970 -89.1260
5.071500 100.020 -89.4964
5.108251 100.071 -89.8649
5.145267 100.122 -90.2314
5.182552 100.173 -90.5961
5.220107 100.224 -90.9587
5.257934 100.275 -91.3196
5.296035 100.326 -91.6788
5.334412 100.378 -92.0367
5.373067 100.429 -92.3933
5.412003 100.481 -92.7490
5.451221 100.533 -93.1041
5.490722 100.584 -93.4586
5.530510 100.636 -93.8127
5.570587 100.687 -94.1663
5.610953 100.739 -94.5193
5.651613 100.790 -94.8718
5.692567 100.842 -95.2237
5.733818 100.893 -95.5750
5.775367 100.944 -95.9255
5.817218 100.995 -96.2755
5.859372 101.045 -96.6248
5.901831 101.095 -96.9737
5.944598 101.145 -97.3219
5.987675 101.195 -97.6694
6.031065 101.244 -98.0159
6.074768 101.293 -98.3610
6.118788 101.341 -98.7045
6.163127 101.389 -99.0460
6.207788 101.437 -99.3854
6.252772 101.484 -99.7226
6.298082 101.531 -100.0575
6.343721 101.577 -100.3900
6.389690 101.623 -100.7198
6.435992 101.669 -101.0466
6.482630 101.714 -101.3698
6.529606 101.759 -101.6891
6.576922 101.803 -102.0042
6.624581 101.848 -102.3148
6.672585 101.892 -102.6211
6.720938 101.936 -102.9229
6.769640 101.980 -103.2202
6.818696 102.023 -103.5129
6.868107 102.067 -103.8010
6.917876 102.111 -104.0843
6.968006 102.156 -104.3628
7.018499 102.200 -104.6364
7.069358 102.245 -104.9056
7.120586 102.291 -105.1707
7.172184 102.337 -105.4323
7.224157 102.383 -105.6911
7.276506 102.431 -105.9476
7.329235 102.479 -106.2022
7.382345 102.528 -106.4554
7.435841 102.578 -106.7077
7.489724 102.629 -106.9602
7.543997 102.680 -107.2139
7.598664 102.733 -107.4702
7.653728 102.786 -107.7302
7.709189 102.841 -107.9947
7.765053 102.896 -108.2645
7.821322 102.952 -108.5402
7.877998 103.008 -108.8229
7.935086 103.066 -109.1137
7.992587 103.123 -109.4137
8.050504 103.180 -109.7238
8.108841 103.238 -110.0446
8.167601 103.295 -110.3764
8.226787 103.352 -110.7194
8.286402 103.409 -111.0735
8.346449 103.464 -111.4389
8.406931 103.518 -111.8157
8.467851 103.571 -112.2036
8.529212 103.622 -112.6022
8.591018 103.671 -113.0105
8.653272 103.718 -113.4271
8.715977 103.763 -113.8507
8.779137 103.806 -114.2799
8.842754 103.845 -114.7136
8.906833 103.882 -115.1501
8.971375 103.915 -115.5877
9.036386 103.946 -116.0237
9.101867 103.974 -116.4558
9.167823 103.999 -116.8817
9.234257 104.020 -117.2996
9.301172 104.039 -117.7075
9.368572 104.055 -118.1032
9.436460 104.069 -118.4843
9.504841 104.081 -118.8486
9.573717 104.091 -119.1943
9.643092 104.099 -119.5202
9.712970 104.106 -119.8254
9.783354 104.112 -120.1092
9.854248 104.119 -120.3711
9.925656 104.126 -120.6109
9.997581 104.133 -120.8291
10.070028 104.142 -121.0269
10.143000 104.152 -121.2063
10.216500 104.165 -121.3695
10.290533 104.180 -121.5187
10.365103 104.198 -121.6565
10.440212 104.219 -121.7861
10.515866 104.243 -121.9110
10.592069 104.270 -122.0351
10.668823 104.300 -122.1617
10.746134 104.333 -122.2937
10.824005 104.368 -122.4339
10.902440 104.405 -122.5851
10.981443 104.444 -122.7496
11.061020 104.484 -122.9289
11.141172 104.525 -123.1239
11.221906 104.566 -123.3345
11.303225 104.607 -123.5603
11.385133 104.647 -123.8005
11.467634 104.685 -124.0537
11.550734 104.722 -124.3177
11.634435 104.757 -124.5897
11.718742 104.790 -124.8668
11.803661 104.820 -125.1462
11.889195 104.849 -125.4251
11.975349 104.875 -125.7004
12.062128 104.900 -125.9692
12.149535 104.923 -126.2291
12.237576 104.945 -126.4785
12.326254 104.967 -126.7162
12.415575 104.989 -126.9415
12.505544 105.011 -127.1546
12.596164 105.034 -127.3564
12.687441 105.058 -127.5486
12.779379 105.084 -127.7338
12.871984 105.112 -127.9146
12.965260 105.143 -128.0943
13.059211 105.175 -128.2763
13.153843 105.210 -128.4643
13.249161 105.247 -128.6617
13.345170 105.285 -128.8712
13.441875 105.325 -129.0951
13.539280 105.365 -129.3351
13.637391 105.405 -129.5921
13.736214 105.444 -129.8659
13.835752 105.482 -130.1554
13.936011 105.518 -130.4588
14.036998 105.551 -130.7738
14.138716 105.583 -131.0970
14.241171 105.611 -131.4247
14.344368 105.636 -131.7531
14.448313 105.659 -132.0785
14.553011 105.678 -132.3970
14.658468 105.696 -132.7051
14.764689 105.711 -133.0002
14.871680 105.725 -133.2801
14.979446 105.738 -133.5436
15.087994 105.751 -133.7901
15.197328 105.764 -134.0200
15.307454 105.778 -134.2348
15.418378 105.793 -134.4362
15.530106 105.810 -134.6267
15.642643 105.828 -134.8090
15.755996 105.848 -134.9861
15.870171 105.870 -135.1605
15.985172 105.894 -135.3347
16.101007 105.919 -135.5106
16.217682 105.945 -135.6894
16.335201 105.972 -135.8718
16.453573 105.999 -136.0578
16.572803 106.026 -136.2468
16.692898 106.054 -136.4379
16.813862 106.082 -136.6301
16.935701 106.109 -136.8220
17.058424 106.137 -137.0128
17.182035 106.165 -137.2020
17.306543 106.194 -137.3893
17.431953 106.223 -137.5754
17.558273 106.254 -137.7614
17.685509 106.286 -137.9490
17.813665 106.319 -138.1404
17.942751 106.353 -138.3382
18.072771 106.388 -138.5447
18.203733 106.424 -138.7623
18.335646 106.461 -138.9928
18.468513 106.497 -139.2373
18.602345 106.533 -139.4962
18.737144 106.567 -139.7687
18.872921 106.600 -140.0534
19.009682 106.631 -140.3476
19.147434 106.659 -140.6483
19.286184 106.684 -140.9517
19.425940 106.707 -141.2540
19.566708 106.728 -141.5517
19.708496 106.746 -141.8415
19.851313 106.763 -142.1211
19.995163 106.779 -142.3893
20.140057 106.795 -142.6461
20.285999 106.811 -142.8927
20.433001 106.827 -143.1316
20.581066 106.845 -143.3657
20.730206 106.864 -143.5988
20.880424 106.883 -143.8342
21.031733 106.904 -144.0750
21.184137 106.924 -144.3231
21.337646 106.944 -144.5790
21.492268 106.963 -144.8418
21.648010 106.981 -145.1089
21.804880 106.997 -145.3769
21.962887 107.011 -145.6414
22.122040 107.023 -145.8978
22.282345 107.034 -146.1422
22.443811 107.045 -146.3719
22.606449 107.056 -146.5855
22.770266 107.069 -146.7836
22.935268 107.083 -146.9686
23.101467 107.100 -147.1445
23.268869 107.121 -147.3160
23.437485 107.144 -147.4881
23.607323 107.171 -147.6654
23.778391 107.200 -147.8516
23.950699 107.231 -148.0489
24.124256 107.263 -148.2583
24.299070 107.296 -148.4799
24.475151 107.330 -148.7131
24.652508 107.365 -148.9574
24.831150 107.400 -149.2124
25.011087 107.435 -149.4783
25.192327 107.470 -149.7554
25.374882 107.504 -150.0439
25.558758 107.537 -150.3432
25.743967 107.569 -150.6513
25.930519 107.598 -150.9646
26.118422 107.624 -151.2780
26.307686 107.647 -151.5853
26.498322 107.667 -151.8802
26.690340 107.685 -152.1572
26.883749 107.701 -152.4128
27.078560 107.716 -152.6456
27.274782 107.731 -152.8563
27.472427 107.747 -153.0470
27.671503 107.764 -153.2199
27.872023 107.780 -153.3755
28.073996 107.797 -153.5122
28.277431 107.814 -153.6262
28.482342 107.832 -153.7125
28.688736 107.851 -153.7677
28.896626 107.875 -153.7923
29.106022 107.905 -153.7938
29.316936 107.944 -153.7877
29.529379 107.992 -153.7962
29.743361 108.049 -153.8453
29.958893 108.112 -153.9589
30.175987 108.177 -154.1536
30.394655 108.239 -154.4336
30.614908 108.292 -154.7894
30.836756 108.334 -155.1988
31.060211 108.361 -155.6308
31.285286 108.375 -156.0520
31.511992 108.377 -156.4333
31.740341 108.372 -156.7560
31.970345 108.366 -157.0156
32.202015 108.362 -157.2225
32.435364 108.365 -157.3984
32.670403 108.374 -157.5699
32.907146 108.389 -157.7615
33.145607 108.407 -157.9892
33.385796 108.425 -158.2583
33.627724 108.440 -158.5635
33.871403 108.451 -158.8931
34.116848 108.457 -159.2334
34.364071 108.458 -159.5732
34.613087 108.457 -159.9056
34.863907 108.454 -160.2283
35.116547 108.449 -160.5412
35.371017 108.445 -160.8436
35.627331 108.439 -161.1328
35.885502 108.433 -161.4031
36.145542 108.427 -161.6480
36.407467 108.424 -161.8631
36.671291 108.426 -162.0497
36.937027 108.435 -162.2166
37.204689 108.453 -162.3800
37.474289 108.480 -162.5600
37.745842 108.514 -162.7765
38.019363 108.553 -163.0433
38.294868 108.594 -163.3646
38.572369 108.632 -163.7334
38.851879 108.664 -164.1331
39.133415 108.691 -164.5424
39.416992 108.712 -164.9414
39.702625 108.731 -165.3174
39.990326 108.748 -165.6685
40.280113 108.767 -166.0032
40.571999 108.786 -166.3355
40.866001 108.805 -166.6769
41.162132 108.821 -167.0294
41.460411 108.829 -167.3816
41.760849 108.830 -167.7111
42.063465 108.823 -167.9918
42.368275 108.813 -168.2045
42.675293 108.804 -168.3456
42.984535 108.802 -168.4303
43.296021 108.809 -168.4884
43.609760 108.825 -168.5556
43.925774 108.848 -168.6628
44.244080 108.875 -168.8282
44.564690 108.900 -169.0561
44.887623 108.922 -169.3398
45.212898 108.938 -169.6660
45.540531 108.948 -170.0188
45.870537 108.951 -170.3819
46.202934 108.948 -170.7405
46.537739 108.943 -171.0840
46.874969 108.937 -171.4084
47.214645 108.934 -171.7172
47.556782 108.934 -172.0190
47.901398 108.937 -172.3218
48.248512 108.943 -172.6274
48.598141 108.951 -172.9304
48.950302 108.961 -173.2230
49.305016 108.974 -173.5028
49.662300 108.993 -173.7773
50.022175 109.015 -174.0596
50.384655 109.037 -174.3576
50.749763 109.057 -174.6633
51.117516 109.071 -174.9519
51.487934 109.080 -175.1946
51.861038 109.089 -175.3778
52.236843 109.104 -175.5182
52.615372 109.127 -175.6597
52.996643 109.156 -175.8533
53.380680 109.184 -176.1298
53.767498 109.202 -176.4846
54.157120 109.206 -176.8831
54.549564 109.195 -177.2812
54.944855 109.175 -177.6482
55.343006 109.153 -177.9784
55.744045 109.131 -178.2880
56.147991 109.114 -178.6009
56.554863 109.099 -178.9336
56.964684 109.086 -179.2878
57.377472 109.073 -179.6520
57.793251 109.060 179.9912
58.212044 109.050 179.6565
58.633873 109.043 179.3499
59.058758 109.041 179.0674
59.486721 109.045 178.7985
59.917786 109.052 178.5320
60.351974 109.061 178.2604
60.789310 109.068 177.9811
61.229816 109.071 177.6931
61.673512 109.068 177.3957
62.120422 109.058 177.0889
62.570572 109.040 176.7742
63.023983 109.014 176.4549
63.480682 108.984 176.1311
63.940689 108.951 175.7964
64.404030 108.920 175.4381
64.870728 108.892 175.0457
65.340805 108.869 174.6177
65.814293 108.854 174.1634
66.291214 108.850 173.6944
66.771591 108.862 173.2183
67.255447 108.892 172.7408
67.742805 108.941 172.2687
68.233696 109.010 171.8027
68.728142 109.099 171.3170
69.226173 109.202 170.7549
69.727814 109.302 170.0638
70.233093 109.376 169.2510
70.742035 109.401 168.4138
71.254662 109.370 167.7064
71.771004 109.291 167.2677
72.291084 109.184 167.1586
72.814934 109.067 167.3517
73.342583 108.953 167.7687
73.874054 108.853 168.3210
74.409378 108.773 168.9183
74.948578 108.719 169.4615
75.491684 108.692 169.8495
76.038727 108.686 170.0084
76.589737 108.693 169.9141
77.144737 108.706 169.5910
77.703758 108.720 169.0938
78.266830 108.731 168.4886
78.833984 108.738 167.8430
79.405251 108.743 167.2184
79.980652 108.745 166.6586
80.560226 108.748 166.1772
81.143997 108.752 165.7578
81.732002 108.752 165.3717
82.324265 108.743 164.9968
82.920822 108.722 164.6222
83.521698 108.688 164.2405
84.126930 108.642 163.8433
84.736549 108.586 163.4219
85.350586 108.524 162.9705
85.969070 108.459 162.4866
86.592041 108.395 161.9781
87.219521 108.334 161.4710
87.851547 108.278 161.0026
88.488159 108.232 160.6013
89.129379 108.198 160.2737
89.775246 108.173 160.0103
90.425797 108.154 159.7996
91.081062 108.137 159.6322
91.741074 108.116 159.4951
92.405869 108.090 159.3690
93.075478 108.058 159.2311
93.749939 108.020 159.0610
94.429291 107.978 158.8473
95.113564 107.932 158.5906
95.802795 107.888 158.3026
96.497025 107.849 158.0002
97.196281 107.815 157.7007
97.900604 107.787 157.4182
98.610031 107.763 157.1646
99.324600 107.738 156.9479
100.044350 107.709 156.7692
100.769310 107.673 156.6182
101.499527 107.628 156.4762
102.235031 107.577 156.3260
102.975868 107.522 156.1576
103.722076 107.470 155.9684
104.473686 107.428 155.7657
105.230743 107.402 155.5660
105.993286 107.395 155.3887
106.761360 107.406 155.2468
107.534996 107.426 155.1456
108.314240 107.446 155.0800
109.099129 107.455 155.0305
109.889709 107.447 154.9639
110.686012 107.422 154.8378
111.488091 107.389 154.5972
112.295982 107.363 154.1844
113.109726 107.364 153.5856
113.929367 107.413 152.8721
114.754944 107.533 152.1893
115.586502 107.744 151.6927
116.424088 108.049 151.4494
117.267746 108.420 151.3663
118.117516 108.799 151.2381
118.973442 109.102 150.9089
119.835571 109.253 150.4600
120.703949 109.216 150.2184
121.578621 109.012 150.4597
122.459633 108.701 151.1142
123.347023 108.339 151.8492
124.240845 107.968 152.3479
125.141144 107.617 152.4438
126.047966 107.311 152.1187
126.961365 107.068 151.4545
127.881378 106.888 150.6000
128.808060 106.761 149.7422
129.741455 106.670 149.0292
130.681610 106.598 148.5078
131.628586 106.532 148.1286
132.582428 106.461 147.7978
133.543182 106.382 147.4331
134.510895 106.301 146.9868
135.485611 106.226 146.4486
136.467392 106.162 145.8542
137.456284 106.112 145.2751
138.452347 106.071 144.7819
139.455627 106.034 144.4190
140.466187 105.992 144.1987
141.484070 105.939 144.1004
142.509323 105.873 144.0911
143.542007 105.795 144.1584
144.582169 105.709 144.3145
145.629868 105.628 144.5494
146.685165 105.557 144.8097
147.748108 105.494 145.0343
148.818756 105.433 145.1852
149.897156 105.363 145.2531
150.983368 105.281 145.2526
152.077454 105.190 145.2126
153.179474 105.096 145.1645
154.289474 105.009 145.1357
155.407516 104.936 145.1395
156.533661 104.878 145.1661
157.667969 104.831 145.1948
158.810501 104.787 145.2090
159.961304 104.740 145.2007
161.120453 104.685 145.1680
162.287994 104.624 145.1145
163.464005 104.560 145.0480
164.648529 104.496 144.9786
165.841644 104.436 144.9158
167.043396 104.378 144.8674
168.253860 104.321 144.8379
169.473099 104.264 144.8245
170.701172 104.206 144.8174
171.938141 104.147 144.8023
173.184082 104.088 144.7690
174.439041 104.028 144.7223
175.703094 103.968 144.6782
176.976318 103.909 144.6510
178.258759 103.849 144.6440
179.550491 103.789 144.6494
180.851593 103.729 144.6581
182.162125 103.668 144.6637
183.482147 103.609 144.6612
184.811737 103.552 144.6475
186.150955 103.496 144.6293
187.499878 103.441 144.6228
188.858582 103.383 144.6449
190.227127 103.321 144.7039
191.605591 103.254 144.7978
192.994049 103.184 144.9107
194.392563 103.114 145.0099
195.801208 103.048 145.0692
197.220062 102.985 145.0916
198.649200 102.925 145.1028
200.088699 102.866 145.1293
201.538620 102.805 145.1845
202.999054 102.738 145.2660
204.470062 102.665 145.3604
205.951736 102.587 145.4561
207.444153 102.508 145.5542
208.947372 102.435 145.6659
210.461487 102.374 145.7930
211.986572 102.326 145.9252
213.522720 102.287 146.0594
215.069992 102.248 146.2014
216.628479 102.208 146.3564
218.198257 102.163 146.5228
219.779419 102.114 146.6930
221.372025 102.064 146.8576
222.976181 102.014 147.0096
224.591965 101.962 147.1472
226.219452 101.911 147.2770
227.858734 101.860 147.4143
229.509888 101.809 147.5751
231.173004 101.759 147.7643
232.848175 101.711 147.9743
234.535492 101.662 148.1919
236.235031 101.613 148.4044
237.946884 101.564 148.6049
239.671143 101.514 148.7942
241.407898 101.465 148.9783
243.157242 101.415 149.1647
244.919266 101.366 149.3597
246.694046 101.316 149.5671
248.481689 101.266 149.7890
250.282288 101.217 150.0259
252.095932 101.170 150.2772
253.922729 101.124 150.5402
255.762756 101.080 150.8095
257.616119 101.038 151.0767
259.482910 100.998 151.3340
261.363220 100.960 151.5782
263.257172 100.922 151.8124
265.164856 100.883 152.0434
267.086365 100.843 152.2784
269.021790 100.803 152.5221
270.971222 100.762 152.7763
272.934784 100.721 153.0389
274.912567 100.682 153.3052
276.904694 100.645 153.5716
278.911255 100.610 153.8381
280.932373 100.579 154.1060
282.968140 100.550 154.3747
285.018646 100.524 154.6407
287.084015 100.499 154.8974
289.164337 100.474 155.1370
291.259735 100.448 155.3553
293.370331 100.419 155.5562
295.496216 100.388 155.7510
297.637512 100.355 155.9521
299.794312 100.321 156.1674
301.966736 100.286 156.3969
304.154907 100.252 156.6359
306.358948 100.219 156.8796
308.578949 100.187 157.1256
310.815033 100.156 157.3728
313.067322 100.125 157.6194
315.335938 100.093 157.8641
317.621002 100.060 158.1076
319.922607 100.027 158.3543
322.240906 99.994 158.6088
324.575989 99.963 158.8738
326.928009 99.935 159.1492
329.297058 99.908 159.4333
331.683289 99.883 159.7230
334.086792 99.859 160.0127
336.507721 99.836 160.2979
338.946198 99.814 160.5774
341.402344 99.792 160.8539
343.876282 99.769 161.1296
346.368164 99.746 161.4030
348.878082 99.723 161.6699
351.406189 99.699 161.9282
353.952637 99.676 162.1794
356.517517 99.653 162.4273
359.100983 99.630 162.6761
361.703186 99.609 162.9288
364.324249 99.587 163.1868
366.964294 99.567 163.4503
369.623474 99.546 163.7175
372.301910 99.526 163.9866
374.999756 99.506 164.2572
377.717163 99.487 164.5302
380.454254 99.468 164.8056
383.211182 99.449 165.0826
385.988098 99.431 165.3592
388.785126 99.412 165.6342
391.602417 99.394 165.9079
394.440125 99.377 166.1818
397.298401 99.360 166.4576
400.177399 99.344 166.7352
403.077240 99.330 167.0123
405.998108 99.316 167.2859
408.940125 99.303 167.5552
411.903473 99.290 167.8216
414.888306 99.276 168.0889
417.894745 99.262 168.3615
420.922974 99.248 168.6427
423.973145 99.234 168.9341
427.045441 99.221 169.2344
430.139984 99.209 169.5392
433.256958 99.198 169.8421
436.396515 99.189 170.1375
439.558838 99.181 170.4229
442.744049 99.175 170.6984
445.952362 99.170 170.9637
449.183929 99.167 171.2170
452.438904 99.164 171.4546
455.717468 99.160 171.6744
459.019775 99.154 171.8799
462.346008 99.145 172.0807
465.696350 99.133 172.2872
469.070984 99.119 172.5059
472.470062 99.104 172.7378
475.893768 99.089 172.9802
479.342285 99.075 173.2285
482.815796 99.060 173.4780
486.314484 99.046 173.7268
489.838531 99.031 173.9789
493.388092 99.015 174.2418
496.963379 99.000 174.5197
500.564575 98.986 174.8098
504.191864 98.974 175.1050
507.845459 98.963 175.3976
511.525513 98.952 175.6834
515.232239 98.941 175.9631
518.965820 98.930 176.2406
522.726440 98.918 176.5209
526.514343 98.906 176.8083
530.329712 98.895 177.1046
534.172729 98.885 177.4078
538.043579 98.876 177.7140
541.942444 98.868 178.0215
545.869568 98.860 178.3318
549.825134 98.852 178.6455
553.809387 98.845 178.9594
557.822510 98.838 179.2686
561.864746 98.832 179.5703
565.936279 98.826 179.8663
570.037292 98.820 -179.8387
574.168030 98.813 -179.5397
578.328674 98.806 -179.2343
582.519470 98.800 -178.9234
586.740662 98.794 -178.6087
590.992432 98.787 -178.2898
595.275024 98.781 -177.9650
599.588623 98.776 -177.6340
603.933472 98.771 -177.2993
608.309814 98.767 -176.9636
612.717896 98.764 -176.6284
617.157898 98.761 -176.2923
621.630066 98.756 -175.9501
626.134644 98.752 -175.5956
630.671875 98.748 -175.2260
635.242004 98.746 -174.8450
639.845215 98.746 -174.4591
644.481812 98.748 -174.0709
649.151978 98.753 -173.6795
653.856018 98.760 -173.2860
658.594116 98.770 -172.8971
663.366577 98.784 -172.5231
668.173584 98.798 -172.1714
673.015442 98.812 -171.8413
677.892395 98.825 -171.5248
682.804688 98.835 -171.2132
687.752563 98.843 -170.9002
692.736328 98.849 -170.5816
697.756165 98.855 -170.2535
702.812378 98.860 -169.9137
707.905273 98.866 -169.5636
713.035034 98.873 -169.2066
718.201965 98.882 -168.8463
723.406372 98.891 -168.4839
728.648499 98.902 -168.1185
733.928589 98.913 -167.7493
739.246948 98.926 -167.3761
744.603821 98.939 -166.9987
749.999512 98.954 -166.6168
755.434326 98.969 -166.2301
760.908508 98.985 -165.8389
766.422363 99.002 -165.4437
771.976196 99.021 -165.0456
777.570251 99.042 -164.6461
783.204834 99.063 -164.2462
788.880249 99.087 -163.8455
794.596802 99.111 -163.4419
800.354797 99.138 -163.0337
806.154480 99.167 -162.6228
811.996216 99.201 -162.2162
817.880249 99.239 -161.8242
823.806946 99.281 -161.4570
829.776611 99.326 -161.1238
835.789490 99.370 -160.8274
841.845947 99.414 -160.5620
847.946289 99.455 -160.3181
854.090881 99.494 -160.0885
860.279968 99.531 -159.8700
866.513916 99.566 -159.6600
872.793030 99.598 -159.4543
879.117676 99.627 -159.2497
885.488098 99.654 -159.0446
891.904724 99.678 -158.8343
898.367859 99.700 -158.6110
904.877808 99.721 -158.3675
911.434937 99.742 -158.1040
918.039551 99.767 -157.8318
924.692017 99.796 -157.5696
931.392700 99.828 -157.3396
938.141968 99.859 -157.1596
944.940125 99.885 -157.0347
951.787537 99.901 -156.9513
958.684570 99.902 -156.8773
965.631592 99.888 -156.7659
972.628967 99.861 -156.5641
979.677063 99.825 -156.2273
986.776184 99.790 -155.7331
993.926758 99.763 -155.0874
1001.129150 99.752 -154.3210
1008.383728 99.762 -153.4812
1015.690918 99.793 -152.6214
1023.051025 99.846 -151.7887
1030.464478 99.916 -151.0176
1037.931641 99.998 -150.3310
1045.452881 100.088 -149.7413
1053.028687 100.182 -149.2469
1060.659424 100.274 -148.8340
1068.345459 100.364 -148.4834
1076.087158 100.451 -148.1758
1083.884888 100.536 -147.8972
1091.739136 100.617 -147.6400
1099.650269 100.697 -147.4007
1107.618774 100.774 -147.1772
1115.645020 100.850 -146.9675
1123.729492 100.924 -146.7701
1131.872559 100.997 -146.5839
1140.074585 101.068 -146.4085
1148.336060 101.139 -146.2431
1156.657349 101.208 -146.0860
1165.038940 101.276 -145.9341
1173.481323 101.344 -145.7836
1181.984863 101.412 -145.6331
1190.550049 101.481 -145.4874
1199.177246 101.552 -145.3562
1207.866943 101.624 -145.2503
1216.619629 101.694 -145.1746
1225.435791 101.762 -145.1249
1234.315796 101.826 -145.0923
1243.260132 101.886 -145.0679
1252.269287 101.942 -145.0440
1261.343750 101.996 -145.0165
1270.484009 102.047 -144.9835
1279.690430 102.096 -144.9428
1288.963623 102.144 -144.8927
1298.303955 102.191 -144.8336
1307.712036 102.239 -144.7686
1317.188232 102.286 -144.7013
1326.733154 102.332 -144.6343
1336.347168 102.378 -144.5671
1346.030884 102.421 -144.4968
1355.784790 102.463 -144.4194
1365.609375 102.503 -144.3308
1375.505127 102.543 -144.2262
1385.472656 102.582 -144.1003
1395.512329 102.623 -143.9521
1405.624756 102.668 -143.7871
1415.810547 102.716 -143.6174
1426.070068 102.768 -143.4578
1436.403931 102.823 -143.3176
1446.812744 102.877 -143.1978
1457.296997 102.931 -143.0933
1467.857178 102.983 -142.9978
1478.493896 103.033 -142.9061
1489.207642 103.082 -142.8139
1499.999023 103.130 -142.7172
1510.868652 103.177 -142.6131
1521.817017 103.224 -142.4992
1532.844727 103.271 -142.3737
1543.952393 103.319 -142.2348
1555.140503 103.368 -142.0821
1566.409668 103.421 -141.9200
1577.760498 103.477 -141.7591
1589.193604 103.537 -141.6129
1600.709595 103.599 -141.4908
1612.308960 103.661 -141.3934
1623.992432 103.722 -141.3154
1635.760498 103.780 -141.2491
1647.613892 103.837 -141.1889
1659.553223 103.893 -141.1303
1671.578979 103.947 -141.0698
1683.691895 104.001 -141.0063
1695.892578 104.055 -140.9408
1708.181763 104.108 -140.8754
1720.559937 104.160 -140.8103
1733.027832 104.211 -140.7427
1745.586060 104.261 -140.6666
1758.235352 104.310 -140.5744
1770.976196 104.359 -140.4600
1783.809448 104.411 -140.3241
1796.735718 104.466 -140.1767
1809.755615 104.525 -140.0331
1822.869873 104.587 -139.9052
1836.079102 104.651 -139.7970
1849.384033 104.715 -139.7061
1862.785400 104.778 -139.6277
1876.283936 104.840 -139.5561
1889.880249 104.901 -139.4856
1903.575073 104.961 -139.4106
1917.369141 105.020 -139.3262
1931.263184 105.080 -139.2289
1945.257935 105.142 -139.1194
1959.354126 105.207 -139.0056
1973.552368 105.275 -138.8997
1987.853516 105.346 -138.8111
2002.258301 105.417 -138.7420
2016.767456 105.488 -138.6880
2031.381836 105.557 -138.6430
2046.102051 105.624 -138.5999
2060.928955 105.690 -138.5525
2075.863281 105.754 -138.4966
2090.905762 105.818 -138.4292
2106.057373 105.881 -138.3463
2121.318848 105.945 -138.2419
2136.690918 106.009 -138.1080
2152.174316 106.078 -137.9384
2167.769775 106.152 -137.7349
2183.478271 106.236 -137.5118
2199.300537 106.329 -137.2914
2215.237549 106.431 -137.0958
2231.290039 106.542 -136.9425
2247.458984 106.657 -136.8429
2263.745117 106.776 -136.8013
2280.149170 106.894 -136.8143
2296.672119 107.012 -136.8725
2313.314697 107.127 -136.9628
2330.077881 107.240 -137.0745
2346.962646 107.352 -137.2039
2363.969727 107.463 -137.3518
2381.100098 107.573 -137.5173
2398.354492 107.683 -137.6958
2415.733887 107.792 -137.8814
2433.239258 107.902 -138.0702
2450.871582 108.015 -138.2638
2468.631592 108.130 -138.4696
2486.520264 108.249 -138.6978
2504.538574 108.372 -138.9574
2522.687500 108.497 -139.2540
2540.968018 108.624 -139.5908
2559.380859 108.752 -139.9736
2577.927246 108.881 -140.4117
2596.607910 109.009 -140.9117
2615.424072 109.133 -141.4747
2634.376465 109.253 -142.0951
2653.466309 109.365 -142.7621
2672.694336 109.470 -143.4618
2692.061768 109.568 -144.1806
2711.569580 109.660 -144.9097
2731.218750 109.749 -145.6500
2751.010254 109.836 -146.4100
2770.945312 109.919 -147.1990
2791.024658 109.997 -148.0220
2811.249512 110.069 -148.8783
2831.621094 110.133 -149.7632
2852.140137 110.189 -150.6703
2872.807861 110.235 -151.5914
2893.625488 110.271 -152.5150
2914.593994 110.296 -153.4261
2935.714355 110.314 -154.3118
2956.987793 110.325 -155.1668
2978.415283 110.332 -155.9937
2999.998047 110.336 -156.7983
3021.737305 110.336 -157.5862
3043.634033 110.332 -158.3599
3065.689453 110.324 -159.1177
3087.904785 110.312 -159.8557
3110.281006 110.298 -160.5735
3132.819336 110.282 -161.2766
3155.520996 110.264 -161.9726
3178.387207 110.242 -162.6664
3201.419189 110.215 -163.3571
3224.617920 110.183 -164.0390
3247.984863 110.143 -164.7028
3271.520996 110.095 -165.3352
3295.227783 110.041 -165.9188
3319.106445 109.981 -166.4369
3343.157959 109.919 -166.8815
3367.383789 109.858 -167.2567
3391.785156 109.801 -167.5748
3416.363525 109.748 -167.8507
3441.119873 109.700 -168.0953
3466.055664 109.656 -168.3128
3491.172119 109.617 -168.5046
3516.470703 109.583 -168.6759
3541.952393 109.555 -168.8362
3567.618896 109.533 -168.9967
3593.471436 109.516 -169.1672
3619.511230 109.503 -169.3559
3645.739746 109.491 -169.5681
3672.158203 109.481 -169.8030
3698.768066 109.469 -170.0535
3725.570801 109.456 -170.3116
3752.567871 109.443 -170.5736
3779.760498 109.428 -170.8401
3807.150146 109.413 -171.1112
3834.738281 109.395 -171.3820
3862.526367 109.375 -171.6419
3890.515869 109.354 -171.8812
3918.708252 109.334 -172.0972
3947.104736 109.316 -172.2949
3975.707031 109.302 -172.4838
4004.516602 109.292 -172.6762
4033.534912 109.285 -172.8839
4062.763672 109.281 -173.1129
4092.204102 109.276 -173.3620
4121.857910 109.273 -173.6284
4151.726562 109.269 -173.9124
4181.811523 109.264 -174.2170
4212.114746 109.258 -174.5425
4242.637695 109.249 -174.8823
4273.381836 109.237 -175.2265
4304.348633 109.224 -175.5682
4335.539551 109.210 -175.9075
4366.956543 109.197 -176.2508
4398.601074 109.184 -176.6084
4430.475098 109.172 -176.9911
4462.580078 109.159 -177.4035
4494.917969 109.143 -177.8439
4527.490234 109.123 -178.3093
4560.298340 109.099 -178.7988
4593.344238 109.070 -179.3108
4626.629395 109.033 -179.8379
4660.155762 108.988 179.6328
4693.925293 108.937 179.1144
4727.939453 108.879 178.6147
4762.200195 108.817 178.1350
4796.708984 108.751 177.6700
4831.467773 108.682 177.2132
4866.478516 108.608 176.7625
4901.743164 108.530 176.3195
4937.263184 108.447 175.8857
4973.040527 108.358 175.4620
5009.077148 108.262 175.0529
5045.375000 108.159 174.6698
5081.936035 108.048 174.3270
5118.761719 107.931 174.0360
5155.854492 107.809 173.8020
5193.215820 107.685 173.6224
5230.848145 107.560 173.4918
5268.752930 107.433 173.4061
5306.932617 107.305 173.3632
5345.388672 107.176 173.3599
5384.123535 107.046 173.3940
5423.139160 106.914 173.4691
5462.437500 106.779 173.5953
5502.020508 106.643 173.7847
5541.890625 106.506 174.0455
5582.049316 106.371 174.3780
5622.499023 106.239 174.7768
5663.242188 106.112 175.2349
5704.280273 105.991 175.7449
5745.615723 105.876 176.2973
5787.250977 105.766 176.8834
5829.187988 105.661 177.5004
5871.428711 105.561 178.1530
5913.975586 105.464 178.8488
5956.830566 105.373 179.5933
5999.996094 105.288 -179.6132
6043.474609 105.211 -178.7741
6087.268066 105.142 -177.8945
6131.378906 105.083 -176.9836
6175.809570 105.033 -176.0517
6220.562012 104.991 -175.1051
6265.638672 104.958 -174.1437
6311.041992 104.933 -173.1632
6356.774414 104.917 -172.1597
6402.838379 104.911 -171.1332
6449.235840 104.916 -170.0867
6495.969727 104.933 -169.0266
6543.041992 104.962 -167.9626
6590.455566 105.005 -166.9048
6638.212891 105.060 -165.8593
6686.315918 105.128 -164.8266
6734.767578 105.208 -163.8060
6783.570312 105.303 -162.7992
6832.727051 105.412 -161.8112
6882.239746 105.539 -160.8517
6932.111328 105.683 -159.9360
6982.344238 105.845 -159.0823
7032.941406 106.026 -158.3067
7083.904785 106.224 -157.6215
7135.237793 106.439 -157.0386
7186.942871 106.672 -156.5725
7239.022461 106.922 -156.2414
7291.479492 107.191 -156.0700
7344.316406 107.476 -156.0891
7397.536133 107.774 -156.3311
7451.141602 108.081 -156.8233
7505.135742 108.393 -157.5867
7559.520996 108.703 -158.6375
7614.300293 109.006 -159.9879
7669.476562 109.295 -161.6455
7725.052734 109.562 -163.6147
7781.031738 109.799 -165.8915
7837.416504 109.995 -168.4569
7894.209473 110.141 -171.2729
7951.414062 110.229 -174.2849
8009.033203 110.253 -177.4254
8067.069824 110.210 179.3807
8125.527344 110.099 176.2080
8184.408203 109.923 173.1262
8243.715820 109.685 170.2013
8303.453125 109.389 167.4950
8363.623047 109.042 165.0624
8424.229492 108.652 162.9494
8485.275391 108.228 161.1880
8546.763672 107.781 159.7916
8608.697266 107.320 158.7565
8671.079102 106.855 158.0690
8733.913086 106.391 157.7117
8797.202148 105.933 157.6678
8860.950195 105.488 157.9217
8925.160156 105.059 158.4533
8989.835938 104.652 159.2352
9054.980469 104.270 160.2357
9120.596680 103.915 161.4249
9186.688477 103.588 162.7789
9253.258789 103.290 164.2814
9320.311523 103.022 165.9179
9387.850586 102.786 167.6691
9455.878906 102.585 169.5106
9524.400391 102.419 171.4171
9593.417969 102.289 173.3680
9662.935547 102.195 175.3497
9732.957031 102.139 177.3491
9803.486328 102.124 179.3459
9874.526367 102.152 -178.6895
9946.081055 102.225 -176.7930
10018.154297 102.344 -175.0011
10090.750000 102.513 -173.3512
10163.872070 102.733 -171.8902
10237.523438 103.005 -170.6812
10311.708984 103.331 -169.8035
10386.431641 103.706 -169.3465
10461.696289 104.123 -169.4011
10537.505859 104.570 -170.0565
10613.865234 105.031 -171.3961
10690.777344 105.483 -173.4865
10768.247070 105.898 -176.3616
10846.278320 106.246 179.9961
10924.875000 106.494 175.6644
11004.041016 106.616 170.7820
11083.781250 106.588 165.5421
11164.098633 106.396 160.1774
11244.998047 106.037 154.9413
11326.484375 105.516 150.0829
11408.560547 104.849 145.8217
11491.231445 104.061 142.3295
11574.501953 103.180 139.7233
11658.375977 102.235 138.0688
11742.857422 101.258 137.3864
11827.951172 100.279 137.6508
11913.661133 99.328 138.7843
11999.992188 98.432 140.6536
12086.949219 97.610 143.0835
12174.536133 96.875 145.8871
12262.757812 96.228 148.8991
12351.619141 95.663 151.9958
12441.124023 95.171 155.1028
12531.277344 94.739 158.1937
12622.083984 94.357 161.2755
12713.548828 94.020 164.3648
12805.676758 93.724 167.4681
12898.471680 93.469 170.5768
12991.939453 93.255 173.6714
13086.083984 93.081 176.7253
13180.911133 92.946 179.7052
13276.425781 92.848 -177.4242
13372.631836 92.783 -174.6900
13469.535156 92.746 -172.1071
13567.140625 92.735 -169.6828
13665.454102 92.745 -167.4208
13764.479492 92.773 -165.3185
13864.222656 92.816 -163.3644
13964.688477 92.874 -161.5435
14065.882812 92.945 -159.8452
14167.809570 93.032 -158.2620
14270.475586 93.135 -156.7863
14373.885742 93.257 -155.4149
14478.044922 93.404 -154.1562
14582.958984 93.579 -153.0322
14688.632812 93.788 -152.0797
14795.072266 94.038 -151.3592
14902.283203 94.330 -150.9589
15010.271484 94.660 -150.9855
15119.041992 95.021 -151.5460
15228.600586 95.397 -152.7329
15338.953125 95.767 -154.6102
15450.105469 96.107 -157.2012
15562.063477 96.393 -160.4836
15674.833008 96.600 -164.3913
15788.418945 96.709 -168.8201
15902.828125 96.704 -173.6356
16018.066406 96.575 -178.6836
16134.139648 96.319 176.1931
16251.054688 95.940 171.1387
16368.816406 95.446 166.2749
16487.431641 94.848 161.6938
16606.906250 94.162 157.4559
16727.246094 93.399 153.5937
16848.458984 92.573 150.1190
16970.550781 91.693 147.0285
17093.527344 90.765 144.3104
17217.394531 89.796 141.9534
17342.158203 88.789 139.9525
17467.826172 87.746 138.3116
17594.404297 86.668 137.0446
17721.900391 85.559 136.1736
17850.320312 84.420 135.7219
17979.671875 83.256 135.7059
18109.960938 82.067 136.1335
18241.193359 80.856 137.0076
18373.376953 79.624 138.3422
18506.517578 78.377 140.1650
18640.623047 77.123 142.5022
18775.701172 75.867 145.3669
18911.757812 74.618 148.7582
19048.800781 73.384 152.6634
19186.835938 72.171 157.0625
19325.871094 70.990 161.9208
19465.914062 69.859 167.1459
19606.972656 68.810 172.5164
19749.052734 67.898 177.6034
19892.162109 67.203 -178.2632
20036.308594 66.821 -175.8913
