* Measurement data measured by REW V5.31.3
* Source: EXCL: Microphone (USB Sound Device        ), no input selected, R, volume: 0.390
* Format: 256k Log Swept Sine, 1 sweep at -12.0 dBFS with no timing reference
* Dated: Jul 15, 2025 6:59:10 PM
* REW Settings:
*  C-weighting compensation: Off
*  Target level: 75.0 dB
* Note: Wyvern Abyss
* Measurement: L Wyvern Abyss
* Smoothing: 1/12 octave
* Frequency Step: 96 ppo
* Start Frequency: 0.36621094 Hz
*
* Freq(Hz) SPL(dB) Phase(degrees)
0.366211 92.630 163.4579
0.368865 92.625 163.4401
0.371538 92.617 163.4134
0.374230 92.608 163.3800
0.376942 92.598 163.3415
0.379673 92.587 163.2992
0.382424 92.576 163.2540
0.385196 92.564 163.2064
0.387987 92.552 163.1566
0.390798 92.540 163.1049
0.393630 92.528 163.0513
0.396483 92.515 162.9959
0.399356 92.503 162.9386
0.402250 92.490 162.8795
0.405165 92.478 162.8185
0.408101 92.465 162.7556
0.411058 92.452 162.6908
0.414037 92.439 162.6241
0.417037 92.426 162.5555
0.420059 92.413 162.4850
0.423103 92.400 162.4124
0.426169 92.387 162.3380
0.429257 92.373 162.2615
0.432368 92.360 162.1830
0.435501 92.346 162.1025
0.438656 92.332 162.0199
0.441835 92.319 161.9353
0.445037 92.305 161.8486
0.448262 92.291 161.7598
0.451510 92.277 161.6690
0.454782 92.263 161.5760
0.458077 92.248 161.4809
0.461397 92.234 161.3836
0.464740 92.219 161.2842
0.468108 92.205 161.1827
0.471500 92.190 161.0790
0.474917 92.175 160.9731
0.478358 92.160 160.8649
0.481825 92.145 160.7547
0.485316 92.130 160.6422
0.488833 92.115 160.5274
0.492375 92.100 160.4105
0.495943 92.084 160.2913
0.499537 92.069 160.1699
0.503157 92.053 160.0463
0.506803 92.037 159.9205
0.510475 92.021 159.7924
0.514175 92.005 159.6620
0.517900 91.989 159.5295
0.521653 91.973 159.3947
0.525434 91.956 159.2577
0.529241 91.940 159.1185
0.533076 91.923 158.9770
0.536939 91.906 158.8334
0.540830 91.890 158.6875
0.544749 91.873 158.5395
0.548696 91.856 158.3894
0.552673 91.838 158.2370
0.556677 91.821 158.0826
0.560711 91.803 157.9260
0.564774 91.786 157.7674
0.568867 91.768 157.6067
0.572989 91.750 157.4439
0.577141 91.732 157.2792
0.581324 91.714 157.1125
0.585536 91.696 156.9438
0.589779 91.677 156.7733
0.594053 91.659 156.6009
0.598358 91.640 156.4267
0.602694 91.622 156.2507
0.607061 91.603 156.0731
0.611460 91.584 155.8938
0.615891 91.564 155.7128
0.620354 91.545 155.5304
0.624849 91.525 155.3465
0.629377 91.506 155.1612
0.633938 91.486 154.9746
0.638532 91.466 154.7867
0.643159 91.446 154.5977
0.647819 91.426 154.4077
0.652514 91.406 154.2167
0.657242 91.385 154.0248
0.662005 91.364 153.8322
0.666802 91.344 153.6389
0.671634 91.323 153.4451
0.676501 91.302 153.2509
0.681403 91.280 153.0565
0.686341 91.259 152.8619
0.691314 91.237 152.6673
0.696324 91.216 152.4728
0.701370 91.193 152.2786
0.706452 91.171 152.0848
0.711571 91.148 151.8914
0.716728 91.125 151.6983
0.721921 91.101 151.5054
0.727153 91.075 151.3125
0.732422 91.048 151.1189
0.737729 91.019 150.9239
0.743075 90.988 150.7269
0.748460 90.956 150.5272
0.753883 90.923 150.3244
0.759346 90.889 150.1180
0.764849 90.855 149.9079
0.770391 90.819 149.6938
0.775974 90.784 149.4759
0.781597 90.747 149.2538
0.787261 90.711 149.0277
0.792966 90.674 148.7974
0.798712 90.636 148.5630
0.804500 90.598 148.3243
0.810329 90.559 148.0815
0.816201 90.520 147.8345
0.822116 90.480 147.5832
0.828073 90.439 147.3277
0.834074 90.398 147.0679
0.840118 90.357 146.8040
0.846206 90.314 146.5357
0.852338 90.271 146.2633
0.858514 90.228 145.9866
0.864735 90.183 145.7057
0.871001 90.138 145.4207
0.877313 90.092 145.1315
0.883670 90.046 144.8383
0.890074 89.998 144.5410
0.896524 89.950 144.2397
0.903020 89.900 143.9345
0.909564 89.850 143.6255
0.916155 89.799 143.3127
0.922794 89.747 142.9963
0.929481 89.693 142.6763
0.936216 89.639 142.3529
0.943000 89.584 142.0262
0.949834 89.527 141.6963
0.956717 89.470 141.3635
0.963649 89.411 141.0279
0.970632 89.351 140.6897
0.977666 89.290 140.3492
0.984750 89.227 140.0065
0.991886 89.163 139.6619
0.999074 89.098 139.3157
1.006314 89.031 138.9683
1.013606 88.962 138.6199
1.020951 88.892 138.2709
1.028349 88.821 137.9217
1.035801 88.748 137.5726
1.043307 88.673 137.2243
1.050867 88.596 136.8770
1.058482 88.518 136.5312
1.066152 88.438 136.1874
1.073878 88.356 135.8461
1.081660 88.273 135.5074
1.089498 88.188 135.1716
1.097393 88.102 134.8387
1.105345 88.015 134.5084
1.113355 87.927 134.1803
1.121423 87.839 133.8540
1.129549 87.751 133.5291
1.137734 87.663 133.2053
1.145979 87.574 132.8823
1.154283 87.486 132.5598
1.162647 87.396 132.2378
1.171072 87.307 131.9159
1.179558 87.216 131.5941
1.188106 87.125 131.2720
1.196715 87.032 130.9495
1.205387 86.939 130.6264
1.214122 86.843 130.3024
1.222920 86.746 129.9774
1.231782 86.646 129.6511
1.240708 86.544 129.3233
1.249699 86.440 128.9937
1.258754 86.332 128.6619
1.267876 86.222 128.3278
1.277063 86.108 127.9909
1.286318 85.989 127.6511
1.295639 85.867 127.3078
1.305027 85.741 126.9608
1.314484 85.609 126.6097
1.324009 85.472 126.2540
1.333604 85.330 125.8933
1.343268 85.182 125.5272
1.353002 85.027 125.1552
1.362806 84.865 124.7767
1.372681 84.697 124.3913
1.382628 84.520 123.9983
1.392647 84.335 123.5973
1.402739 84.142 123.1876
1.412904 83.940 122.7688
1.423142 83.727 122.3402
1.433455 83.503 121.9015
1.443843 83.268 121.4524
1.454305 83.018 120.9929
1.464844 82.753 120.5230
1.475459 82.470 120.0431
1.486150 82.168 119.5535
1.496920 81.844 119.0541
1.507767 81.497 118.5447
1.518693 81.129 118.0248
1.529698 80.739 117.4934
1.540783 80.328 116.9494
1.551948 79.897 116.3917
1.563194 79.448 115.8186
1.574521 78.983 115.2283
1.585931 78.503 114.6190
1.597423 78.010 113.9882
1.608999 77.506 113.3333
1.620658 76.995 112.6512
1.632402 76.477 111.9385
1.644232 75.955 111.1911
1.656146 75.433 110.4041
1.668147 74.912 109.5719
1.680235 74.397 108.6879
1.692411 73.889 107.7441
1.704675 73.393 106.7310
1.717028 72.912 105.6373
1.729470 72.451 104.4489
1.742003 72.012 103.1488
1.754626 71.601 101.7159
1.767341 71.221 100.1240
1.780147 70.878 98.3401
1.793047 70.576 96.3223
1.806040 70.320 94.0166
1.819128 70.112 91.3521
1.832310 69.955 88.2339
1.845587 69.851 84.5309
1.858961 69.798 80.0595
1.872432 69.795 74.5626
1.886001 69.841 67.6925
1.899667 69.933 59.0228
1.913433 70.068 48.1576
1.927299 70.243 35.0422
1.941265 70.455 20.4122
1.955332 70.699 5.8189
1.969501 70.974 -7.1987
1.983773 71.276 -17.9271
1.998148 71.600 -26.4347
2.012627 71.943 -33.1223
2.027212 72.301 -38.4180
2.041902 72.670 -42.6713
2.056698 73.047 -46.1424
2.071602 73.427 -49.0195
2.086614 73.807 -51.4380
2.101734 74.182 -53.4964
2.116964 74.550 -55.2675
2.132304 74.907 -56.8060
2.147756 75.251 -58.1549
2.163320 75.581 -59.3487
2.178996 75.898 -60.4167
2.194786 76.202 -61.3843
2.210690 76.497 -62.2742
2.226710 76.787 -63.1047
2.242845 77.074 -63.8899
2.259098 77.361 -64.6392
2.275468 77.649 -65.3589
2.291957 77.938 -66.0523
2.308566 78.227 -66.7216
2.325295 78.517 -67.3676
2.342145 78.806 -67.9907
2.359117 79.094 -68.5907
2.376212 79.380 -69.1672
2.393431 79.664 -69.7197
2.410775 79.944 -70.2475
2.428244 80.219 -70.7498
2.445840 80.488 -71.2258
2.463564 80.750 -71.6749
2.481416 81.005 -72.0964
2.499397 81.251 -72.4902
2.517509 81.488 -72.8566
2.535752 81.714 -73.1967
2.554127 81.930 -73.5128
2.572635 82.134 -73.8079
2.591277 82.327 -74.0855
2.610055 82.509 -74.3490
2.628968 82.680 -74.6008
2.648019 82.842 -74.8424
2.667208 82.993 -75.0747
2.686535 83.136 -75.2980
2.706003 83.272 -75.5121
2.725612 83.400 -75.7167
2.745363 83.522 -75.9115
2.765257 83.639 -76.0956
2.785295 83.752 -76.2685
2.805478 83.862 -76.4295
2.825808 83.970 -76.5778
2.846285 84.077 -76.7128
2.866910 84.183 -76.8337
2.887685 84.289 -76.9403
2.908611 84.395 -77.0322
2.929688 84.501 -77.1097
2.950917 84.606 -77.1730
2.972301 84.710 -77.2229
2.993839 84.812 -77.2602
3.015534 84.911 -77.2856
3.037386 85.008 -77.3001
3.059396 85.102 -77.3044
3.081565 85.194 -77.2992
3.103896 85.284 -77.2853
3.126388 85.373 -77.2633
3.149043 85.461 -77.2339
3.171862 85.548 -77.1976
3.194847 85.635 -77.1549
3.217998 85.722 -77.1062
3.241317 85.810 -77.0513
3.264805 85.899 -76.9903
3.288463 85.988 -76.9224
3.312293 86.079 -76.8470
3.336295 86.169 -76.7636
3.360471 86.260 -76.6719
3.384822 86.351 -76.5727
3.409350 86.442 -76.4671
3.434056 86.533 -76.3567
3.458940 86.625 -76.2436
3.484005 86.716 -76.1297
3.509252 86.807 -76.0173
3.534681 86.898 -75.9085
3.560295 86.990 -75.8051
3.586094 87.082 -75.7090
3.612081 87.174 -75.6211
3.638255 87.267 -75.5420
3.664620 87.361 -75.4716
3.691175 87.455 -75.4093
3.717923 87.549 -75.3541
3.744864 87.644 -75.3056
3.772001 87.739 -75.2636
3.799335 87.835 -75.2284
3.826866 87.930 -75.2007
3.854597 88.026 -75.1812
3.882529 88.121 -75.1708
3.910664 88.215 -75.1703
3.939002 88.309 -75.1807
3.967546 88.403 -75.2026
3.996296 88.495 -75.2364
4.025255 88.587 -75.2825
4.054423 88.677 -75.3407
4.083804 88.767 -75.4106
4.113396 88.856 -75.4918
4.143204 88.944 -75.5839
4.173227 89.032 -75.6863
4.203468 89.118 -75.7986
4.233928 89.203 -75.9206
4.264609 89.286 -76.0519
4.295512 89.368 -76.1924
4.326639 89.449 -76.3420
4.357992 89.527 -76.5009
4.389572 89.604 -76.6694
4.421380 89.679 -76.8478
4.453419 89.752 -77.0361
4.485691 89.823 -77.2341
4.518196 89.892 -77.4412
4.550936 89.960 -77.6562
4.583914 90.025 -77.8780
4.617131 90.089 -78.1052
4.650589 90.151 -78.3368
4.684289 90.211 -78.5717
4.718233 90.269 -78.8092
4.752424 90.325 -79.0492
4.786862 90.379 -79.2918
4.821549 90.432 -79.5373
4.856488 90.482 -79.7858
4.891680 90.530 -80.0372
4.927127 90.577 -80.2908
4.962831 90.622 -80.5457
4.998794 90.665 -80.8011
5.035017 90.707 -81.0559
5.071503 90.748 -81.3093
5.108253 90.787 -81.5608
5.145270 90.826 -81.8103
5.182555 90.863 -82.0578
5.220110 90.899 -82.3037
5.257937 90.934 -82.5482
5.296038 90.968 -82.7915
5.334415 91.001 -83.0338
5.373071 91.033 -83.2750
5.412006 91.065 -83.5152
5.451224 91.097 -83.7542
5.490725 91.129 -83.9918
5.530514 91.161 -84.2281
5.570590 91.193 -84.4632
5.610957 91.224 -84.6976
5.651616 91.256 -84.9321
5.692570 91.288 -85.1675
5.733821 91.320 -85.4048
5.775370 91.353 -85.6448
5.817221 91.386 -85.8882
5.859375 91.419 -86.1353
5.901834 91.454 -86.3864
5.944602 91.489 -86.6417
5.987679 91.524 -86.9017
6.031068 91.560 -87.1672
6.074771 91.597 -87.4391
6.118792 91.634 -87.7187
6.163131 91.672 -88.0068
6.207792 91.710 -88.3041
6.252776 91.749 -88.6113
6.298086 91.788 -88.9282
6.343725 91.828 -89.2552
6.389694 91.868 -89.5921
6.435996 91.908 -89.9391
6.482634 91.948 -90.2964
6.529610 91.989 -90.6643
6.576926 92.029 -91.0428
6.624585 92.070 -91.4323
6.672590 92.110 -91.8326
6.720942 92.150 -92.2433
6.769645 92.190 -92.6639
6.818700 92.229 -93.0936
6.868111 92.268 -93.5318
6.917881 92.307 -93.9780
6.968010 92.345 -94.4317
7.018504 92.383 -94.8927
7.069362 92.420 -95.3605
7.120590 92.457 -95.8344
7.172189 92.493 -96.3134
7.224161 92.529 -96.7963
7.276511 92.565 -97.2822
7.329239 92.600 -97.7702
7.382350 92.635 -98.2600
7.435845 92.670 -98.7511
7.489729 92.705 -99.2430
7.544002 92.739 -99.7351
7.598669 92.774 -100.2265
7.653732 92.809 -100.7166
7.709194 92.844 -101.2048
7.765058 92.880 -101.6910
7.821327 92.916 -102.1749
7.878004 92.953 -102.6564
7.935091 92.990 -103.1357
7.992592 93.029 -103.6124
8.050510 93.068 -104.0867
8.108847 93.108 -104.5583
8.167607 93.149 -105.0276
8.226793 93.191 -105.4946
8.286408 93.234 -105.9597
8.346454 93.279 -106.4234
8.406936 93.324 -106.8859
8.467856 93.371 -107.3475
8.529218 93.418 -107.8082
8.591024 93.467 -108.2684
8.653278 93.516 -108.7282
8.715983 93.567 -109.1878
8.779143 93.618 -109.6475
8.842760 93.670 -110.1074
8.906839 93.722 -110.5673
8.971381 93.775 -111.0271
9.036392 93.828 -111.4865
9.101873 93.882 -111.9454
9.167829 93.936 -112.4033
9.234263 93.989 -112.8601
9.301178 94.043 -113.3154
9.368578 94.096 -113.7684
9.436467 94.150 -114.2187
9.504847 94.202 -114.6657
9.573723 94.255 -115.1087
9.643099 94.307 -115.5475
9.712976 94.359 -115.9814
9.783361 94.410 -116.4098
9.854255 94.461 -116.8323
9.925663 94.511 -117.2483
9.997588 94.561 -117.6577
10.070035 94.610 -118.0601
10.143007 94.659 -118.4554
10.216507 94.707 -118.8435
10.290540 94.755 -119.2242
10.365109 94.803 -119.5977
10.440219 94.850 -119.9641
10.515873 94.897 -120.3237
10.592076 94.944 -120.6767
10.668830 94.990 -121.0236
10.746141 95.035 -121.3646
10.824012 95.080 -121.7001
10.902447 95.125 -122.0307
10.981451 95.169 -122.3568
11.061027 95.213 -122.6789
11.141180 95.256 -122.9972
11.221913 95.299 -123.3123
11.303232 95.340 -123.6245
11.385140 95.381 -123.9341
11.467641 95.421 -124.2414
11.550741 95.460 -124.5467
11.634442 95.498 -124.8502
11.718750 95.535 -125.1520
11.803669 95.571 -125.4524
11.889203 95.606 -125.7515
11.975357 95.640 -126.0493
12.062136 95.672 -126.3461
12.149543 95.703 -126.6420
12.237583 95.733 -126.9371
12.326262 95.762 -127.2316
12.415583 95.790 -127.5257
12.505552 95.816 -127.8195
12.596172 95.842 -128.1134
12.687449 95.866 -128.4075
12.779387 95.889 -128.7023
12.871992 95.911 -128.9978
12.965268 95.932 -129.2946
13.059220 95.952 -129.5928
13.153852 95.971 -129.8929
13.249170 95.989 -130.1950
13.345179 96.005 -130.4995
13.441884 96.021 -130.8067
13.539289 96.037 -131.1169
13.637401 96.051 -131.4302
13.736223 96.064 -131.7470
13.835761 96.077 -132.0674
13.936021 96.089 -132.3916
14.037007 96.101 -132.7200
14.138725 96.112 -133.0526
14.241180 96.122 -133.3897
14.344377 96.132 -133.7314
14.448323 96.141 -134.0780
14.553021 96.151 -134.4295
14.658478 96.160 -134.7861
14.764700 96.168 -135.1479
14.871691 96.177 -135.5150
14.979457 96.185 -135.8875
15.088005 96.194 -136.2651
15.197339 96.202 -136.6480
15.307465 96.211 -137.0358
15.418389 96.219 -137.4284
15.530117 96.228 -137.8254
15.642655 96.236 -138.2265
15.756008 96.245 -138.6311
15.870182 96.254 -139.0388
15.985184 96.263 -139.4492
16.101019 96.273 -139.8614
16.217694 96.282 -140.2751
16.335214 96.293 -140.6896
16.453586 96.303 -141.1044
16.572815 96.314 -141.5189
16.692909 96.326 -141.9326
16.813872 96.338 -142.3451
16.935713 96.350 -142.7558
17.058436 96.363 -143.1646
17.182048 96.377 -143.5709
17.306556 96.391 -143.9745
17.431967 96.406 -144.3751
17.558286 96.421 -144.7723
17.685521 96.436 -145.1660
17.813677 96.452 -145.5558
17.942762 96.469 -145.9416
18.072783 96.485 -146.3229
18.203746 96.502 -146.6997
18.335658 96.518 -147.0716
18.468526 96.535 -147.4384
18.602356 96.551 -147.8000
18.737156 96.568 -148.1561
18.872934 96.584 -148.5067
19.009695 96.599 -148.8516
19.147447 96.614 -149.1909
19.286197 96.629 -149.5244
19.425953 96.643 -149.8525
19.566721 96.656 -150.1751
19.708510 96.668 -150.4925
19.851326 96.680 -150.8051
19.995177 96.691 -151.1132
20.140070 96.701 -151.4172
20.286013 96.711 -151.7176
20.433014 96.719 -152.0150
20.581080 96.726 -152.3099
20.730219 96.733 -152.6029
20.880439 96.738 -152.8946
21.031747 96.743 -153.1855
21.184152 96.746 -153.4762
21.337661 96.748 -153.7672
21.492282 96.750 -154.0589
21.648024 96.750 -154.3517
21.804895 96.749 -154.6461
21.962902 96.747 -154.9423
22.122054 96.745 -155.2409
22.282360 96.742 -155.5421
22.443827 96.738 -155.8464
22.606464 96.733 -156.1541
22.770280 96.728 -156.4655
22.935283 96.723 -156.7811
23.101481 96.717 -157.1010
23.268884 96.711 -157.4256
23.437500 96.705 -157.7547
23.607338 96.699 -158.0885
23.778406 96.692 -158.4267
23.950714 96.686 -158.7689
24.124271 96.680 -159.1147
24.299086 96.674 -159.4635
24.475167 96.668 -159.8148
24.652524 96.663 -160.1678
24.831166 96.658 -160.5219
25.011103 96.653 -160.8765
25.192344 96.649 -161.2310
25.374898 96.646 -161.5848
25.558775 96.643 -161.9373
25.743984 96.640 -162.2881
25.930536 96.638 -162.6367
26.118439 96.637 -162.9825
26.307704 96.636 -163.3250
26.498341 96.635 -163.6638
26.690359 96.635 -163.9984
26.883768 96.635 -164.3283
27.078579 96.634 -164.6533
27.274801 96.634 -164.9731
27.472446 96.634 -165.2877
27.671522 96.633 -165.5969
27.872042 96.633 -165.9009
28.074014 96.632 -166.1999
28.277450 96.630 -166.4941
28.482360 96.628 -166.7838
28.688755 96.625 -167.0694
28.896645 96.622 -167.3513
29.106042 96.617 -167.6301
29.316957 96.612 -167.9064
29.529400 96.607 -168.1808
29.743382 96.600 -168.4539
29.958915 96.593 -168.7265
30.176009 96.585 -168.9994
30.394677 96.576 -169.2731
30.614929 96.567 -169.5482
30.836778 96.556 -169.8252
31.060234 96.545 -170.1044
31.285309 96.534 -170.3860
31.512015 96.522 -170.6700
31.740364 96.510 -170.9566
31.970368 96.498 -171.2460
32.202039 96.485 -171.5382
32.435388 96.473 -171.8335
32.670428 96.460 -172.1319
32.907171 96.448 -172.4334
33.145630 96.436 -172.7380
33.385817 96.424 -173.0451
33.627745 96.412 -173.3541
33.871425 96.401 -173.6638
34.116871 96.389 -173.9733
34.364096 96.377 -174.2814
34.613113 96.366 -174.5871
34.863934 96.355 -174.8896
35.116572 96.343 -175.1886
35.371041 96.332 -175.4839
35.627354 96.322 -175.7756
35.885525 96.311 -176.0637
36.145566 96.300 -176.3483
36.407492 96.289 -176.6296
36.671316 96.277 -176.9072
36.937051 96.265 -177.1809
37.204712 96.253 -177.4506
37.474313 96.240 -177.7162
37.745867 96.226 -177.9778
38.019389 96.212 -178.2360
38.294893 96.198 -178.4914
38.572394 96.183 -178.7448
38.851905 96.168 -178.9971
39.133442 96.152 -179.2489
39.417019 96.136 -179.5009
39.702651 96.120 -179.7534
39.990353 96.103 179.9935
40.280140 96.086 179.7397
40.572026 96.069 179.4852
40.866028 96.051 179.2304
41.162160 96.033 178.9754
41.460438 96.016 178.7203
41.760877 95.998 178.4653
42.063494 95.980 178.2106
42.368303 95.962 177.9565
42.675322 95.945 177.7032
42.984565 95.927 177.4510
43.296048 95.910 177.2002
43.609789 95.892 176.9514
43.925804 95.874 176.7046
44.244108 95.856 176.4603
44.564719 95.838 176.2185
44.887654 95.820 175.9791
45.212928 95.802 175.7419
45.540560 95.784 175.5066
45.870565 95.766 175.2729
46.202962 95.747 175.0406
46.537768 95.728 174.8097
46.875000 95.709 174.5801
47.214676 95.689 174.3518
47.556813 95.669 174.1249
47.901429 95.649 173.8995
48.248542 95.629 173.6754
48.598171 95.609 173.4526
48.950334 95.588 173.2311
49.305048 95.567 173.0112
49.662333 95.547 172.7932
50.022206 95.526 172.5774
50.384688 95.504 172.3643
50.749796 95.483 172.1541
51.117550 95.462 171.9468
51.487969 95.440 171.7422
51.861072 95.418 171.5403
52.236879 95.397 171.3406
52.615409 95.375 171.1430
52.996681 95.353 170.9474
53.380717 95.332 170.7538
53.767536 95.310 170.5621
54.157158 95.288 170.3716
54.549603 95.266 170.1821
54.944892 95.245 169.9926
55.343045 95.224 169.8024
55.744084 95.204 169.6108
56.148028 95.183 169.4173
56.554900 95.163 169.2214
56.964720 95.143 169.0229
57.377510 95.123 168.8222
57.793291 95.102 168.6198
58.212085 95.081 168.4166
58.633914 95.060 168.2139
59.058799 95.038 168.0128
59.486764 95.015 167.8143
59.917829 94.991 167.6190
60.352019 94.967 167.4274
60.789354 94.942 167.2398
61.229859 94.917 167.0560
61.673556 94.891 166.8754
62.120468 94.865 166.6973
62.570618 94.839 166.5211
63.024031 94.812 166.3461
63.480729 94.786 166.1722
63.940736 94.759 165.9992
64.404077 94.732 165.8273
64.870776 94.705 165.6567
65.340856 94.678 165.4876
65.814343 94.652 165.3207
66.291261 94.625 165.1563
66.771635 94.598 164.9947
67.255489 94.572 164.8361
67.742850 94.546 164.6802
68.233743 94.519 164.5270
68.728193 94.493 164.3762
69.226226 94.466 164.2277
69.727867 94.440 164.0814
70.233144 94.413 163.9371
70.742083 94.386 163.7947
71.254709 94.358 163.6540
71.771050 94.331 163.5147
72.291132 94.304 163.3766
72.814984 94.277 163.2395
73.342631 94.250 163.1033
73.874102 94.223 162.9678
74.409424 94.196 162.8333
74.948626 94.170 162.7002
75.491734 94.143 162.5688
76.038779 94.117 162.4390
76.589787 94.091 162.3106
77.144788 94.065 162.1827
77.703811 94.040 162.0546
78.266885 94.014 161.9254
78.834039 93.989 161.7940
79.405303 93.964 161.6596
79.980706 93.939 161.5214
80.560280 93.913 161.3785
81.144053 93.887 161.2305
81.732056 93.860 161.0775
82.324320 93.832 160.9205
82.920876 93.802 160.7616
83.521755 93.771 160.6032
84.126988 93.738 160.4482
84.736607 93.704 160.2996
85.350643 93.668 160.1595
85.969129 93.632 160.0292
86.592097 93.595 159.9091
87.219579 93.558 159.7987
87.851608 93.521 159.6972
88.488217 93.484 159.6035
89.129439 93.448 159.5159
89.775308 93.413 159.4334
90.425856 93.378 159.3551
91.081119 93.344 159.2804
91.741131 93.310 159.2088
92.405925 93.277 159.1396
93.075536 93.244 159.0724
93.750000 93.210 159.0063
94.429351 93.177 158.9410
95.113625 93.144 158.8763
95.802858 93.111 158.8121
96.497085 93.078 158.7485
97.196342 93.044 158.6859
97.900667 93.011 158.6255
98.610096 92.977 158.5684
99.324665 92.943 158.5160
100.044413 92.909 158.4691
100.769376 92.875 158.4280
101.499592 92.842 158.3921
102.235100 92.809 158.3600
102.975938 92.776 158.3298
103.722144 92.745 158.2997
104.473757 92.714 158.2682
105.230817 92.683 158.2344
105.993363 92.652 158.1974
106.761435 92.622 158.1569
107.535072 92.592 158.1132
108.314315 92.562 158.0665
109.099206 92.532 158.0170
109.889783 92.501 157.9645
110.686090 92.470 157.9092
111.488167 92.437 157.8511
112.296056 92.404 157.7913
113.109800 92.369 157.7314
113.929440 92.333 157.6741
114.755020 92.295 157.6237
115.586582 92.255 157.5851
116.424170 92.215 157.5621
117.267827 92.174 157.5565
118.117598 92.135 157.5669
118.973527 92.096 157.5896
119.835658 92.059 157.6207
120.704037 92.024 157.6569
121.578708 91.990 157.6953
122.459718 91.957 157.7334
123.347111 91.925 157.7690
124.240935 91.894 157.8011
125.141236 91.863 157.8297
126.048061 91.832 157.8551
126.961458 91.802 157.8781
127.881473 91.771 157.8991
128.808154 91.740 157.9188
129.741551 91.710 157.9373
130.681712 91.679 157.9548
131.628686 91.648 157.9713
132.582521 91.617 157.9865
133.543269 91.586 158.0005
134.510979 91.554 158.0136
135.485701 91.522 158.0267
136.467486 91.490 158.0416
137.456386 91.456 158.0598
138.452451 91.423 158.0822
139.455735 91.389 158.1093
140.466288 91.355 158.1406
141.484165 91.321 158.1752
142.509418 91.288 158.2122
143.542100 91.254 158.2508
144.582265 91.220 158.2906
145.629968 91.187 158.3313
146.685262 91.153 158.3732
147.748204 91.119 158.4164
148.818849 91.084 158.4622
149.897251 91.049 158.5120
150.983469 91.013 158.5684
152.077557 90.977 158.6339
153.179574 90.941 158.7104
154.289576 90.906 158.7981
155.407622 90.872 158.8948
156.533770 90.841 158.9964
157.668078 90.811 159.0972
158.810606 90.782 159.1927
159.961413 90.753 159.2799
161.120559 90.725 159.3582
162.288105 90.696 159.4286
163.464112 90.667 159.4933
164.648640 90.637 159.5555
165.841752 90.605 159.6183
167.043510 90.573 159.6851
168.253976 90.540 159.7591
169.473213 90.506 159.8426
170.701286 90.472 159.9365
171.938258 90.439 160.0396
173.184194 90.407 160.1492
174.439158 90.375 160.2622
175.703216 90.345 160.3759
176.976434 90.315 160.4885
178.258878 90.286 160.5988
179.550615 90.257 160.7070
180.851713 90.229 160.8128
182.162239 90.200 160.9166
183.482262 90.172 161.0183
184.811850 90.143 161.1181
186.151073 90.114 161.2166
187.500000 90.085 161.3147
188.858702 90.055 161.4135
190.227250 90.024 161.5142
191.605715 89.993 161.6173
192.994169 89.962 161.7238
194.392685 89.930 161.8346
195.801334 89.897 161.9512
197.220191 89.865 162.0748
198.649330 89.832 162.2063
200.088825 89.799 162.3456
201.538751 89.768 162.4920
202.999184 89.737 162.6429
204.470200 89.708 162.7947
205.951875 89.679 162.9431
207.444287 89.651 163.0853
208.947514 89.623 163.2207
210.461634 89.594 163.3513
211.986726 89.564 163.4812
213.522869 89.532 163.6158
215.070144 89.500 163.7602
216.628631 89.466 163.9183
218.198411 89.434 164.0909
219.779567 89.402 164.2755
221.372180 89.372 164.4671
222.976334 89.344 164.6603
224.592112 89.316 164.8513
226.219600 89.290 165.0385
227.858880 89.263 165.2216
229.510039 89.236 165.4009
231.173164 89.209 165.5767
232.848340 89.183 165.7487
234.535655 89.156 165.9171
236.235197 89.130 166.0831
237.947054 89.104 166.2480
239.671317 89.078 166.4134
241.408074 89.050 166.5809
243.157416 89.021 166.7527
244.919435 88.991 166.9313
246.694223 88.959 167.1196
248.481871 88.926 167.3206
250.282473 88.893 167.5370
252.096123 88.860 167.7705
253.922915 88.828 168.0201
255.762945 88.799 168.2814
257.616309 88.772 168.5467
259.483103 88.747 168.8085
261.363424 88.722 169.0644
263.257372 88.697 169.3184
265.165043 88.670 169.5784
267.086538 88.642 169.8537
269.021957 88.614 170.1522
270.971401 88.586 170.4790
272.934972 88.560 170.8347
274.912771 88.539 171.2162
276.904902 88.523 171.6173
278.911469 88.513 172.0298
280.932577 88.510 172.4425
282.968330 88.515 172.8411
285.018835 88.527 173.2084
287.084199 88.545 173.5268
289.164530 88.566 173.7835
291.259935 88.588 173.9753
293.370525 88.606 174.1102
295.496408 88.620 174.2039
297.637697 88.628 174.2738
299.794503 88.630 174.3339
301.966937 88.627 174.3936
304.155114 88.620 174.4585
306.359147 88.610 174.5312
308.579152 88.596 174.6123
310.815244 88.581 174.7017
313.067539 88.564 174.7993
315.336156 88.544 174.9065
317.621211 88.523 175.0268
319.922826 88.500 175.1638
322.241118 88.477 175.3187
324.576210 88.455 175.4896
326.928223 88.433 175.6727
329.297280 88.412 175.8635
331.683504 88.393 176.0580
334.087019 88.374 176.2527
336.507952 88.356 176.4452
338.946427 88.338 176.6348
341.402572 88.319 176.8230
343.876516 88.300 177.0130
346.368387 88.280 177.2080
348.878315 88.260 177.4096
351.406431 88.240 177.6179
353.952867 88.220 177.8325
356.517756 88.200 178.0524
359.101230 88.181 178.2768
361.703426 88.162 178.5050
364.324478 88.143 178.7366
366.964523 88.124 178.9712
369.623699 88.106 179.2087
372.302145 88.088 179.4493
375.000000 88.069 179.6929
377.717405 88.052 179.9401
380.454501 88.034 -179.8092
383.211431 88.017 -179.5547
385.988339 88.000 -179.2968
388.785369 87.984 -179.0358
391.602668 87.968 -178.7720
394.440383 87.953 -178.5056
397.298660 87.938 -178.2370
400.177650 87.923 -177.9669
403.077502 87.909 -177.6969
405.998368 87.896 -177.4286
408.940400 87.883 -177.1626
411.903750 87.869 -176.8977
414.888575 87.855 -176.6304
417.895028 87.841 -176.3569
420.923268 87.826 -176.0739
423.973452 87.813 -175.7801
427.045738 87.800 -175.4769
430.140287 87.790 -175.1683
433.257261 87.781 -174.8597
436.396822 87.773 -174.5547
439.559133 87.767 -174.2540
442.744360 87.761 -173.9572
445.952668 87.757 -173.6663
449.184225 87.754 -173.3858
452.439199 87.752 -173.1217
455.717760 87.749 -172.8771
459.020079 87.744 -172.6484
462.346327 87.736 -172.4254
465.696680 87.725 -172.1964
469.071310 87.712 -171.9540
472.470394 87.698 -171.6967
475.894109 87.685 -171.4273
479.342634 87.671 -171.1510
482.816148 87.659 -170.8730
486.314833 87.645 -170.5947
489.838871 87.631 -170.3116
493.388445 87.617 -170.0157
496.963741 87.602 -169.7034
500.564945 87.589 -169.3783
504.192245 87.578 -169.0483
507.845830 87.568 -168.7205
511.525890 87.559 -168.3981
515.232618 87.550 -168.0798
518.966206 87.541 -167.7623
522.726849 87.531 -167.4411
526.514743 87.520 -167.1119
530.330086 87.510 -166.7727
534.173076 87.501 -166.4259
538.043915 87.493 -166.0759
541.942803 87.485 -165.7253
545.869944 87.478 -165.3727
549.825542 87.472 -165.0170
553.809805 87.466 -164.6598
557.822939 87.461 -164.3040
561.865154 87.457 -163.9519
565.936660 87.452 -163.6027
570.037671 87.447 -163.2533
574.168399 87.441 -162.8996
578.329060 87.434 -162.5396
582.519870 87.428 -162.1735
586.741049 87.421 -161.8013
590.992817 87.414 -161.4202
595.275394 87.407 -161.0266
599.589005 87.401 -160.6202
603.933874 87.396 -160.2046
608.310228 87.392 -159.7834
612.718295 87.389 -159.3582
617.158304 87.385 -158.9266
621.630488 87.383 -158.4824
626.135079 87.382 -158.0191
630.672311 87.383 -157.5353
635.242423 87.388 -157.0378
639.845651 87.398 -156.5370
644.482237 87.411 -156.0405
649.152421 87.428 -155.5523
653.856447 87.448 -155.0774
658.594560 87.472 -154.6239
663.367008 87.499 -154.2016
668.174039 87.525 -153.8163
673.015903 87.550 -153.4639
677.892854 87.571 -153.1330
682.805145 87.589 -152.8108
687.753032 87.603 -152.4873
692.736774 87.615 -152.1549
697.756631 87.624 -151.8078
702.812863 87.632 -151.4435
707.905735 87.641 -151.0636
713.035511 87.650 -150.6729
718.202461 87.660 -150.2754
723.406852 87.671 -149.8725
728.648956 87.681 -149.4639
733.929047 87.692 -149.0488
739.247399 87.704 -148.6269
744.604290 87.715 -148.1980
750.000000 87.728 -147.7616
755.434809 87.741 -147.3181
760.909001 87.756 -146.8677
766.422861 87.771 -146.4112
771.976677 87.788 -145.9495
777.570739 87.806 -145.4835
783.205337 87.825 -145.0138
788.880766 87.846 -144.5390
794.597321 87.867 -144.0563
800.355301 87.891 -143.5628
806.155005 87.917 -143.0597
811.996736 87.946 -142.5526
817.880799 87.979 -142.0504
823.807501 88.015 -141.5627
829.777150 88.053 -141.0980
835.790057 88.091 -140.6586
841.846536 88.128 -140.2377
847.946903 88.163 -139.8245
854.091476 88.197 -139.4107
860.280575 88.229 -138.9921
866.514523 88.261 -138.5657
872.793644 88.293 -138.1285
879.118267 88.325 -137.6804
885.488720 88.359 -137.2250
891.905336 88.394 -136.7657
898.368450 88.431 -136.3024
904.878398 88.468 -135.8327
911.435520 88.506 -135.3551
918.040157 88.546 -134.8716
924.692655 88.589 -134.3854
931.393359 88.633 -133.9003
938.142619 88.679 -133.4199
944.940787 88.726 -132.9453
951.788218 88.775 -132.4749
958.685268 88.824 -132.0054
965.632296 88.874 -131.5339
972.629666 88.925 -131.0576
979.677741 88.978 -130.5757
986.776890 89.032 -130.0892
993.927482 89.088 -129.5979
1001.129891 89.145 -129.0985
1008.384491 89.206 -128.5880
1015.691660 89.270 -128.0678
1023.051781 89.339 -127.5434
1030.465236 89.415 -127.0236
1037.932411 89.496 -126.5217
1045.453698 89.583 -126.0517
1053.029486 89.673 -125.6212
1060.660172 89.764 -125.2291
1068.346153 89.855 -124.8694
1076.087829 89.947 -124.5353
1083.885605 90.038 -124.2232
1091.739887 90.130 -123.9333
1099.651084 90.223 -123.6679
1107.619609 90.315 -123.4283
1115.645878 90.406 -123.2142
1123.730308 90.497 -123.0243
1131.873321 90.586 -122.8571
1140.075341 90.673 -122.7111
1148.336797 90.758 -122.5843
1156.658119 90.841 -122.4741
1165.039741 90.922 -122.3768
1173.482099 91.000 -122.2877
1181.985634 91.076 -122.2043
1190.550789 91.150 -122.1287
1199.178011 91.224 -122.0669
1207.867749 91.294 -122.0238
1216.620457 91.360 -121.9961
1225.436590 91.421 -121.9696
1234.316609 91.477 -121.9260
1243.260976 91.529 -121.8505
1252.270157 91.581 -121.7370
1261.344623 91.635 -121.5906
1270.484846 91.693 -121.4248
1279.691303 91.755 -121.2547
1288.964474 91.821 -121.0935
1298.304842 91.889 -120.9522
1307.712894 91.959 -120.8383
1317.189120 92.027 -120.7536
1326.734016 92.093 -120.6936
1336.348077 92.155 -120.6483
1346.031806 92.213 -120.6062
1355.785708 92.268 -120.5567
1365.610290 92.319 -120.4918
1375.506065 92.369 -120.4048
1385.473549 92.418 -120.2903
1395.513261 92.469 -120.1476
1405.625726 92.522 -119.9828
1415.811469 92.580 -119.8086
1426.071023 92.641 -119.6408
1436.404921 92.705 -119.4896
1446.813703 92.770 -119.3568
1457.297912 92.834 -119.2379
1467.858093 92.898 -119.1275
1478.494798 92.961 -119.0214
1489.208581 93.023 -118.9165
1500.000000 93.085 -118.8097
1510.869618 93.146 -118.6978
1521.818002 93.207 -118.5781
1532.845723 93.269 -118.4482
1543.953355 93.332 -118.3068
1555.141477 93.398 -118.1541
1566.410674 93.467 -117.9946
1577.761531 93.540 -117.8393
1589.194642 93.617 -117.7020
1600.710601 93.696 -117.5917
1612.310010 93.775 -117.5095
1623.993473 93.854 -117.4508
1635.761599 93.931 -117.4087
1647.615002 94.007 -117.3774
1659.554299 94.082 -117.3522
1671.580114 94.156 -117.3295
1683.693072 94.230 -117.3087
1695.893807 94.304 -117.2915
1708.182952 94.378 -117.2802
1720.561150 94.451 -117.2744
1733.029045 94.524 -117.2714
1745.587288 94.596 -117.2660
1758.236533 94.668 -117.2523
1770.977440 94.741 -117.2254
1783.810673 94.816 -117.1863
1796.736900 94.896 -117.1444
1809.756796 94.979 -117.1139
1822.871040 95.066 -117.1062
1836.080315 95.154 -117.1255
1849.385310 95.242 -117.1712
1862.786718 95.330 -117.2402
1876.285239 95.418 -117.3284
1889.881575 95.504 -117.4305
1903.576436 95.590 -117.5411
1917.370535 95.675 -117.6553
1931.264593 95.762 -117.7705
1945.259332 95.850 -117.8883
1959.355483 95.942 -118.0179
1973.553781 96.037 -118.1727
1987.854965 96.134 -118.3637
2002.259781 96.231 -118.5949
2016.768981 96.326 -118.8650
2031.383320 96.420 -119.1699
2046.103561 96.512 -119.5049
2060.930471 96.602 -119.8658
2075.864823 96.689 -120.2509
2090.907395 96.774 -120.6598
2106.058972 96.856 -121.0906
2121.320344 96.934 -121.5388
2136.692305 97.009 -121.9970
2152.175658 97.082 -122.4578
2167.771210 97.154 -122.9191
2183.479774 97.226 -123.3870
2199.302169 97.298 -123.8728
2215.239219 97.371 -124.3855
2231.291755 97.442 -124.9299
2247.460615 97.510 -125.5064
2263.746641 97.575 -126.1117
2280.150683 97.636 -126.7394
2296.673595 97.693 -127.3816
2313.316238 97.747 -128.0315
2330.079481 97.799 -128.6868
2346.964198 97.851 -129.3535
2363.971268 97.902 -130.0416
2381.101578 97.951 -130.7598
2398.356022 97.998 -131.5116
2415.735498 98.040 -132.2964
2433.240913 98.077 -133.1105
2450.873180 98.110 -133.9494
2468.633217 98.136 -134.8092
2486.521951 98.156 -135.6852
2504.540314 98.170 -136.5698
2522.689246 98.176 -137.4526
2540.969692 98.177 -138.3230
2559.382606 98.174 -139.1758
2577.928947 98.168 -140.0140
2596.609683 98.159 -140.8436
2615.425787 98.147 -141.6696
2634.378241 98.132 -142.4938
2653.468031 98.112 -143.3133
2672.696154 98.087 -144.1210
2692.063613 98.058 -144.9077
2711.571415 98.025 -145.6663
2731.220579 97.992 -146.3974
2751.012130 97.958 -147.1083
2770.947098 97.923 -147.8076
2791.026522 97.888 -148.5016
2811.251451 97.851 -149.1931
2831.622938 97.812 -149.8821
2852.142045 97.770 -150.5677
2872.809842 97.725 -151.2472
2893.627406 97.675 -151.9140
2914.595823 97.622 -152.5582
2935.716186 97.565 -153.1700
2956.989596 97.507 -153.7466
2978.417161 97.448 -154.2913
3000.000000 97.389 -154.8102
3021.739237 97.330 -155.3076
3043.636005 97.270 -155.7841
3065.691446 97.209 -156.2349
3087.906710 97.147 -156.6528
3110.282955 97.086 -157.0342
3132.821347 97.028 -157.3833
3155.523062 96.973 -157.7092
3178.389283 96.921 -158.0221
3201.421202 96.873 -158.3305
3224.620020 96.826 -158.6406
3247.986946 96.781 -158.9563
3271.523198 96.737 -159.2772
3295.230004 96.691 -159.5971
3319.108599 96.645 -159.9067
3343.160228 96.598 -160.2006
3367.386145 96.553 -160.4797
3391.787613 96.510 -160.7486
3416.365904 96.468 -161.0115
3441.122300 96.426 -161.2682
3466.058091 96.385 -161.5132
3491.174576 96.345 -161.7402
3516.473066 96.308 -161.9488
3541.954880 96.276 -162.1455
3567.621345 96.247 -162.3407
3593.473800 96.224 -162.5454
3619.513592 96.205 -162.7699
3645.742080 96.188 -163.0217
3672.160630 96.172 -163.3018
3698.770620 96.156 -163.6048
3725.573436 96.140 -163.9240
3752.570477 96.125 -164.2575
3779.763150 96.109 -164.6075
3807.152872 96.094 -164.9763
3834.741071 96.078 -165.3625
3862.529185 96.061 -165.7588
3890.518664 96.043 -166.1586
3918.710966 96.026 -166.5609
3947.107561 96.011 -166.9714
3975.709929 95.998 -167.3997
4004.519563 95.987 -167.8574
4033.537962 95.977 -168.3549
4062.766641 95.966 -168.8964
4092.207123 95.953 -169.4785
4121.860942 95.937 -170.0959
4151.729646 95.917 -170.7458
4181.814790 95.893 -171.4277
4212.117944 95.864 -172.1395
4242.640687 95.829 -172.8730
4273.384610 95.787 -173.6167
4304.351317 95.740 -174.3620
4335.542421 95.689 -175.1063
4366.959549 95.634 -175.8529
4398.604338 95.576 -176.6093
4430.478438 95.515 -177.3830
4462.583511 95.447 -178.1755
4494.921231 95.374 -178.9824
4527.493283 95.293 -179.7978
4560.301365 95.204 179.3824
4593.347189 95.107 178.5627
4626.632476 95.000 177.7529
4660.158962 94.883 176.9673
4693.928395 94.757 176.2202
4727.942535 94.624 175.5204
4762.203156 94.485 174.8701
4796.712043 94.343 174.2645
4831.470996 94.196 173.6972
4866.481826 94.045 173.1654
4901.746360 93.890 172.6701
4937.266434 93.731 172.2118
4973.043902 93.567 171.7902
5009.080628 93.398 171.4084
5045.378492 93.224 171.0757
5081.939384 93.044 170.8049
5118.765212 92.859 170.6062
5155.857894 92.673 170.4832
5193.219366 92.487 170.4319
5230.851574 92.301 170.4443
5268.756481 92.117 170.5149
5306.936062 91.935 170.6395
5345.392309 91.755 170.8135
5384.127225 91.577 171.0330
5423.142830 91.400 171.2991
5462.441159 91.224 171.6186
5502.024259 91.050 171.9980
5541.894195 90.880 172.4380
5582.053045 90.716 172.9309
5622.502902 90.556 173.4663
5663.245876 90.402 174.0381
5704.284090 90.253 174.6451
5745.619684 90.109 175.2850
5787.254813 89.970 175.9555
5829.191647 89.834 176.6572
5871.432373 89.703 177.3959
5913.979192 89.576 178.1791
5956.834323 89.455 179.0114
6000.000000 89.341 179.8913
6043.478473 89.235 -179.1861
6087.272010 89.139 -178.2279
6131.382892 89.053 -177.2434
6175.813420 88.976 -176.2433
6220.565910 88.909 -175.2332
6265.642695 88.850 -174.2123
6311.046124 88.800 -173.1755
6356.778566 88.758 -172.1184
6402.842404 88.727 -171.0405
6449.240040 88.707 -169.9446
6495.973891 88.699 -168.8366
6543.046396 88.704 -167.7260
6590.460007 88.722 -166.6225
6638.217197 88.753 -165.5316
6686.320456 88.797 -164.4537
6734.772290 88.854 -163.3876
6783.575226 88.925 -162.3340
6832.731809 89.012 -161.2966
6882.244600 89.117 -160.2833
6932.116181 89.239 -159.3069
6982.349153 89.381 -158.3821
7032.946133 89.542 -157.5209
7083.909760 89.722 -156.7308
7135.242690 89.924 -156.0186
7186.947600 90.149 -155.3944
7239.027185 90.399 -154.8754
7291.484160 90.679 -154.4889
7344.321260 90.988 -154.2745
7397.541239 91.329 -154.2801
7451.146872 91.700 -154.5578
7505.140954 92.099 -155.1631
7559.526299 92.521 -156.1565
7614.305743 92.962 -157.6016
7669.482141 93.409 -159.5624
7725.058371 93.851 -162.0975
7781.037328 94.268 -165.2491
7837.421932 94.641 -169.0300
7894.215122 94.948 -173.4131
7951.419859 95.167 -178.3284
8009.039125 95.281 176.3377
8067.075924 95.277 170.7353
8125.533282 95.147 165.0377
8184.414245 94.892 159.4252
8243.721885 94.516 154.0702
8303.459292 94.028 149.1232
8363.629581 93.444 144.7023
8424.235888 92.781 140.8885
8485.281374 92.059 137.7237
8546.769221 91.297 135.2114
8608.702634 90.514 133.3228
8671.084842 89.726 132.0089
8733.919097 88.944 131.2108
8797.208675 88.179 130.8698
8860.956876 87.437 130.9312
8925.167022 86.723 131.3427
8989.842461 86.041 132.0510
9054.986566 85.392 133.0052
9120.602731 84.776 134.1608
9186.694378 84.192 135.4838
9253.264952 83.638 136.9518
9320.317925 83.113 138.5489
9387.856790 82.615 140.2585
9455.885071 82.144 142.0625
9524.406312 81.697 143.9442
9593.424086 81.274 145.8924
9662.941992 80.871 147.9052
9732.963653 80.487 149.9846
9803.492719 80.123 152.1293
9874.532869 79.778 154.3329
9946.087805 79.450 156.5878
10018.161257 79.138 158.8934
10090.756983 78.842 161.2581
10163.878768 78.560 163.6937
10237.530423 78.293 166.2078
10311.715789 78.042 168.8037
10386.438732 77.805 171.4869
10461.703149 77.585 174.2720
10537.512962 77.381 177.1824
10613.872125 77.197 -179.7571
10690.784618 77.038 -176.5257
10768.254450 76.909 -173.1060
10846.285661 76.819 -169.4797
10924.882318 76.776 -165.6335
11004.048518 76.795 -161.5759
11083.788390 76.888 -157.3546
11164.106090 77.067 -153.0660
11245.005805 77.341 -148.8489
11326.491752 77.710 -144.8713
11408.568180 78.167 -141.3163
11491.239368 78.695 -138.3605
11574.509626 79.267 -136.1401
11658.383294 79.854 -134.7133
11742.864745 80.426 -134.0453
11827.958384 80.962 -134.0287
11913.668646 81.448 -134.5229
12000.000000 81.879 -135.3869
12086.956947 82.256 -136.4953
12174.544019 82.584 -137.7475
12262.765784 82.870 -139.0731
12351.626840 83.124 -140.4333
12441.131819 83.352 -141.8147
12531.285389 83.559 -143.2188
12622.092249 83.750 -144.6548
12713.557132 83.926 -146.1383
12805.684808 84.089 -147.6886
12898.480079 84.237 -149.3224
12991.947783 84.367 -151.0471
13086.092792 84.477 -152.8607
13180.920015 84.563 -154.7555
13276.434395 84.624 -156.7176
13372.640911 84.657 -158.7252
13469.544580 84.660 -160.7485
13567.150452 84.634 -162.7567
13665.463617 84.582 -164.7231
13764.489200 84.503 -166.6240
13864.232362 84.402 -168.4329
13964.698305 84.280 -170.1210
14065.892266 84.144 -171.6623
14167.819519 83.999 -173.0381
14270.485380 83.854 -174.2391
14373.895200 83.717 -175.2692
14478.054370 83.599 -176.1488
14582.968320 83.508 -176.9129
14688.642520 83.453 -177.6068
14795.082478 83.441 -178.2879
14902.293745 83.481 -179.0307
15010.281908 83.575 -179.9247
15119.052599 83.728 178.9283
15228.611486 83.935 177.4160
15338.964283 84.190 175.4199
15450.116741 84.479 172.8270
15562.074656 84.778 169.5449
15674.843864 85.059 165.5140
15788.430244 85.290 160.7235
15902.839718 85.434 155.2249
16018.078250 85.459 149.1404
16134.151848 85.335 142.6594
16251.066563 85.044 136.0232
16368.828491 84.579 129.4988
16487.443769 83.944 123.3443
16606.918584 83.157 117.7757
16727.259161 82.242 112.9489
16848.471777 81.227 108.9575
16970.562748 80.140 105.8376
17093.538442 79.011 103.5780
17217.405268 77.864 102.1308
17342.169684 76.722 101.4207
17467.838194 75.603 101.3522
17594.417350 74.518 101.8241
17721.913751 73.474 102.7450
17850.334044 72.472 104.0448
17979.684923 71.511 105.6870
18109.973131 70.587 107.6741
18241.205462 69.697 110.0373
18373.388756 68.847 112.8080
18506.529905 68.043 115.9873
18640.635849 67.298 119.5230
18775.713581 66.621 123.3137
18911.770141 66.018 127.2361
19048.812624 65.488 131.1707
19186.848172 65.027 135.0132
19325.883983 64.629 138.6744
19465.927305 64.290 142.0648
19606.985439 64.007 145.0792
19749.065738 63.783 147.5838
19892.175609 63.625 149.4124
20036.322514 63.543 150.3891
