* Measurement data measured by REW V5.31.3
* Source: EXCL: Microphone (USB Sound Device        ), no input selected, R, volume: 0.390
* Format: 256k Log Swept Sine, 1 sweep at -12.0 dBFS with no timing reference
* Dated: Jul 15, 2025 6:57:24 PM
* REW Settings:
*  C-weighting compensation: Off
*  Target level: 75.0 dB
* Note: Celest Wyvern Black Remaster L
* Measurement: L Wyvern Remaster
* Smoothing: 1/12 octave
* Frequency Step: 96 ppo
* Start Frequency: 0.36621094 Hz
*
* Freq(Hz) SPL(dB) Phase(degrees)
0.366211 93.233 161.3115
0.368865 93.228 161.2918
0.371538 93.220 161.2623
0.374230 93.210 161.2253
0.376942 93.198 161.1826
0.379673 93.186 161.1358
0.382424 93.174 161.0856
0.385196 93.161 161.0328
0.387987 93.148 160.9775
0.390798 93.134 160.9201
0.393630 93.121 160.8605
0.396483 93.107 160.7988
0.399356 93.094 160.7350
0.402250 93.080 160.6691
0.405165 93.066 160.6011
0.408101 93.052 160.5310
0.411058 93.038 160.4587
0.414037 93.024 160.3842
0.417037 93.009 160.3076
0.420059 92.995 160.2288
0.423103 92.980 160.1477
0.426169 92.966 160.0644
0.429257 92.951 159.9789
0.432368 92.936 159.8910
0.435501 92.921 159.8009
0.438656 92.906 159.7084
0.441835 92.891 159.6136
0.445037 92.876 159.5164
0.448262 92.860 159.4169
0.451510 92.845 159.3150
0.454782 92.829 159.2106
0.458077 92.814 159.1039
0.461397 92.798 158.9947
0.464740 92.782 158.8831
0.468108 92.766 158.7690
0.471500 92.750 158.6525
0.474917 92.733 158.5334
0.478358 92.717 158.4118
0.481825 92.700 158.2878
0.485316 92.684 158.1612
0.488833 92.667 158.0321
0.492375 92.650 157.9005
0.495943 92.633 157.7663
0.499537 92.616 157.6296
0.503157 92.599 157.4904
0.506803 92.581 157.3486
0.510475 92.564 157.2042
0.514175 92.546 157.0573
0.517900 92.529 156.9078
0.521653 92.511 156.7558
0.525434 92.493 156.6013
0.529241 92.474 156.4442
0.533076 92.456 156.2846
0.536939 92.438 156.1224
0.540830 92.419 155.9578
0.544749 92.401 155.7907
0.548696 92.382 155.6211
0.552673 92.363 155.4490
0.556677 92.344 155.2745
0.560711 92.324 155.0976
0.564774 92.305 154.9184
0.568867 92.286 154.7367
0.572989 92.266 154.5528
0.577141 92.246 154.3665
0.581324 92.226 154.1781
0.585536 92.206 153.9874
0.589779 92.186 153.7945
0.594053 92.166 153.5996
0.598358 92.145 153.4026
0.602694 92.124 153.2036
0.607061 92.104 153.0027
0.611460 92.083 152.7999
0.615891 92.061 152.5953
0.620354 92.040 152.3889
0.624849 92.019 152.1809
0.629377 91.997 151.9714
0.633938 91.975 151.7604
0.638532 91.954 151.5480
0.643159 91.931 151.3344
0.647819 91.909 151.1195
0.652514 91.887 150.9037
0.657242 91.864 150.6869
0.662005 91.842 150.4693
0.666802 91.819 150.2510
0.671634 91.796 150.0322
0.676501 91.773 149.8130
0.681403 91.749 149.5936
0.686341 91.726 149.3742
0.691314 91.702 149.1548
0.696324 91.678 148.9357
0.701370 91.654 148.7170
0.706452 91.629 148.4989
0.711571 91.604 148.2813
0.716728 91.578 148.0643
0.721921 91.551 147.8477
0.727153 91.523 147.6311
0.732422 91.493 147.4139
0.737729 91.461 147.1953
0.743075 91.427 146.9744
0.748460 91.392 146.7505
0.753883 91.356 146.5231
0.759346 91.318 146.2917
0.764849 91.280 146.0561
0.770391 91.241 145.8161
0.775974 91.202 145.5716
0.781597 91.162 145.3224
0.787261 91.122 145.0686
0.792966 91.081 144.8100
0.798712 91.039 144.5467
0.804500 90.997 144.2786
0.810329 90.955 144.0057
0.816201 90.912 143.7279
0.822116 90.868 143.4453
0.828073 90.823 143.1577
0.834074 90.778 142.8653
0.840118 90.732 142.5679
0.846206 90.686 142.2656
0.852338 90.639 141.9584
0.858514 90.591 141.6463
0.864735 90.542 141.3293
0.871001 90.492 141.0074
0.877313 90.441 140.6806
0.883670 90.390 140.3491
0.890074 90.338 140.0128
0.896524 90.284 139.6718
0.903020 90.230 139.3262
0.909564 90.174 138.9761
0.916155 90.118 138.6215
0.922794 90.060 138.2625
0.929481 90.002 137.8994
0.936216 89.942 137.5321
0.943000 89.880 137.1610
0.949834 89.818 136.7861
0.956717 89.754 136.4076
0.963649 89.689 136.0258
0.970632 89.622 135.6409
0.977666 89.554 135.2531
0.984750 89.485 134.8628
0.991886 89.413 134.4702
0.999074 89.341 134.0757
1.006314 89.266 133.6797
1.013606 89.190 133.2825
1.020951 89.112 132.8846
1.028349 89.032 132.4865
1.035801 88.950 132.0886
1.043307 88.866 131.6915
1.050867 88.780 131.2958
1.058482 88.693 130.9020
1.066152 88.603 130.5107
1.073878 88.511 130.1225
1.081660 88.417 129.7377
1.089498 88.322 129.3566
1.097393 88.225 128.9791
1.105345 88.128 128.6052
1.113355 88.031 128.2343
1.121423 87.934 127.8660
1.129549 87.837 127.4998
1.137734 87.740 127.1354
1.145979 87.644 126.7725
1.154283 87.548 126.4107
1.162647 87.453 126.0497
1.171072 87.357 125.6894
1.179558 87.261 125.3295
1.188106 87.164 124.9698
1.196715 87.066 124.6099
1.205387 86.967 124.2496
1.214122 86.866 123.8886
1.222920 86.763 123.5267
1.231782 86.657 123.1634
1.240708 86.549 122.7986
1.249699 86.437 122.4318
1.258754 86.322 122.0626
1.267876 86.203 121.6907
1.277063 86.080 121.3157
1.286318 85.951 120.9371
1.295639 85.817 120.5544
1.305027 85.677 120.1672
1.314484 85.531 119.7749
1.324009 85.378 119.3770
1.333604 85.217 118.9728
1.343268 85.048 118.5619
1.353002 84.871 118.1434
1.362806 84.684 117.7167
1.372681 84.488 117.2811
1.382628 84.281 116.8359
1.392647 84.062 116.3803
1.402739 83.832 115.9134
1.412904 83.589 115.4346
1.423142 83.331 114.9433
1.433455 83.059 114.4389
1.443843 82.770 113.9211
1.454305 82.462 113.3901
1.464844 82.132 112.8464
1.475459 81.778 112.2905
1.486150 81.395 111.7231
1.496920 80.983 111.1445
1.507767 80.539 110.5545
1.518693 80.064 109.9522
1.529698 79.557 109.3366
1.540783 79.021 108.7061
1.551948 78.457 108.0586
1.563194 77.867 107.3917
1.574521 77.253 106.7027
1.585931 76.618 105.9883
1.597423 75.964 105.2445
1.608999 75.295 104.4667
1.620658 74.613 103.6496
1.632402 73.922 102.7865
1.644232 73.225 101.8697
1.656146 72.527 100.8897
1.668147 71.831 99.8346
1.680235 71.142 98.6903
1.692411 70.464 97.4386
1.704675 69.803 96.0569
1.717028 69.165 94.5163
1.729470 68.554 92.7793
1.742003 67.979 90.7970
1.754626 67.445 88.5044
1.767341 66.960 85.8142
1.780147 66.532 82.6074
1.793047 66.169 78.7202
1.806040 65.878 73.9255
1.819128 65.668 67.9105
1.832310 65.542 60.2612
1.845587 65.504 50.4918
1.858961 65.555 38.2272
1.872432 65.693 23.6540
1.886001 65.913 7.9924
1.899667 66.211 -6.8629
1.913433 66.579 -19.5252
1.927299 67.012 -29.6653
1.941265 67.502 -37.6130
1.955332 68.041 -43.8626
1.969501 68.623 -48.8486
1.983773 69.239 -52.8989
1.998148 69.882 -56.2485
2.012627 70.546 -59.0645
2.027212 71.221 -61.4655
2.041902 71.902 -63.5376
2.056698 72.580 -65.3435
2.071602 73.249 -66.9301
2.086614 73.902 -68.3330
2.101734 74.532 -69.5795
2.116964 75.134 -70.6914
2.132304 75.701 -71.6865
2.147756 76.231 -72.5805
2.163320 76.720 -73.3876
2.178996 77.169 -74.1221
2.194786 77.578 -74.7988
2.210690 77.951 -75.4321
2.226710 78.294 -76.0349
2.242845 78.611 -76.6170
2.259098 78.905 -77.1845
2.275468 79.179 -77.7410
2.291957 79.435 -78.2874
2.308566 79.674 -78.8236
2.325295 79.899 -79.3487
2.342145 80.109 -79.8611
2.359117 80.307 -80.3591
2.376212 80.494 -80.8405
2.393431 80.671 -81.3033
2.410775 80.839 -81.7454
2.428244 81.000 -82.1645
2.445840 81.155 -82.5585
2.463564 81.306 -82.9254
2.481416 81.454 -83.2632
2.499397 81.600 -83.5706
2.517509 81.744 -83.8468
2.535752 81.887 -84.0920
2.554127 82.029 -84.3076
2.572635 82.167 -84.4964
2.591277 82.301 -84.6618
2.610055 82.429 -84.8071
2.628968 82.550 -84.9348
2.648019 82.664 -85.0469
2.667208 82.771 -85.1444
2.686535 82.871 -85.2278
2.706003 82.965 -85.2972
2.725612 83.054 -85.3526
2.745363 83.138 -85.3936
2.765257 83.219 -85.4199
2.785295 83.296 -85.4310
2.805478 83.372 -85.4263
2.825808 83.448 -85.4052
2.846285 83.523 -85.3672
2.866910 83.599 -85.3116
2.887685 83.676 -85.2375
2.908611 83.755 -85.1443
2.929688 83.835 -85.0313
2.950917 83.916 -84.8980
2.972301 83.997 -84.7444
2.993839 84.078 -84.5708
3.015534 84.158 -84.3784
3.037386 84.237 -84.1687
3.059396 84.315 -83.9436
3.081565 84.393 -83.7052
3.103896 84.470 -83.4557
3.126388 84.548 -83.1974
3.149043 84.627 -82.9328
3.171862 84.706 -82.6640
3.194847 84.788 -82.3931
3.217998 84.871 -82.1219
3.241317 84.956 -81.8514
3.264805 85.044 -81.5820
3.288463 85.135 -81.3131
3.312293 85.228 -81.0433
3.336295 85.324 -80.7712
3.360471 85.423 -80.4963
3.384822 85.524 -80.2191
3.409350 85.627 -79.9412
3.434056 85.732 -79.6652
3.458940 85.838 -79.3941
3.484005 85.946 -79.1312
3.509252 86.055 -78.8800
3.534681 86.165 -78.6437
3.560295 86.275 -78.4254
3.586094 86.385 -78.2278
3.612081 86.496 -78.0526
3.638255 86.607 -77.9009
3.664620 86.719 -77.7725
3.691175 86.831 -77.6664
3.717923 86.943 -77.5811
3.744864 87.056 -77.5154
3.772001 87.170 -77.4681
3.799335 87.284 -77.4388
3.826866 87.397 -77.4270
3.854597 87.510 -77.4326
3.882529 87.622 -77.4558
3.910664 87.733 -77.4967
3.939002 87.842 -77.5555
3.967546 87.949 -77.6326
3.996296 88.054 -77.7284
4.025255 88.157 -77.8433
4.054423 88.257 -77.9775
4.083804 88.355 -78.1308
4.113396 88.451 -78.3024
4.143204 88.544 -78.4912
4.173227 88.635 -78.6957
4.203468 88.724 -78.9140
4.233928 88.811 -79.1443
4.264609 88.894 -79.3850
4.295512 88.975 -79.6346
4.326639 89.053 -79.8922
4.357992 89.129 -80.1574
4.389572 89.201 -80.4305
4.421380 89.269 -80.7121
4.453419 89.335 -81.0028
4.485691 89.397 -81.3026
4.518196 89.456 -81.6107
4.550936 89.511 -81.9254
4.583914 89.564 -82.2446
4.617131 89.614 -82.5659
4.650589 89.661 -82.8871
4.684289 89.706 -83.2060
4.718233 89.749 -83.5213
4.752424 89.788 -83.8322
4.786862 89.826 -84.1389
4.821549 89.860 -84.4420
4.856488 89.892 -84.7418
4.891680 89.922 -85.0385
4.927127 89.949 -85.3316
4.962831 89.974 -85.6204
4.998794 89.998 -85.9038
5.035017 90.020 -86.1805
5.071503 90.041 -86.4495
5.108253 90.062 -86.7099
5.145270 90.082 -86.9612
5.182555 90.101 -87.2034
5.220110 90.119 -87.4370
5.257937 90.137 -87.6629
5.296038 90.154 -87.8822
5.334415 90.171 -88.0961
5.373071 90.189 -88.3057
5.412006 90.207 -88.5117
5.451224 90.226 -88.7148
5.490725 90.245 -88.9151
5.530514 90.266 -89.1126
5.570590 90.289 -89.3077
5.610957 90.312 -89.5012
5.651616 90.336 -89.6948
5.692570 90.362 -89.8904
5.733821 90.389 -90.0903
5.775370 90.417 -90.2967
5.817221 90.447 -90.5113
5.859375 90.478 -90.7352
5.901834 90.511 -90.9689
5.944602 90.545 -91.2127
5.987679 90.580 -91.4672
6.031068 90.617 -91.7332
6.074771 90.655 -92.0121
6.118792 90.693 -92.3052
6.163131 90.732 -92.6141
6.207792 90.772 -92.9398
6.252776 90.812 -93.2829
6.298086 90.852 -93.6435
6.343725 90.892 -94.0212
6.389694 90.933 -94.4155
6.435996 90.973 -94.8256
6.482634 91.013 -95.2508
6.529610 91.052 -95.6907
6.576926 91.090 -96.1451
6.624585 91.128 -96.6138
6.672590 91.164 -97.0966
6.720942 91.199 -97.5925
6.769645 91.234 -98.1000
6.818700 91.267 -98.6174
6.868111 91.300 -99.1430
6.917881 91.331 -99.6751
6.968010 91.361 -100.2127
7.018504 91.390 -100.7554
7.069362 91.417 -101.3023
7.120590 91.444 -101.8523
7.172189 91.470 -102.4041
7.224161 91.496 -102.9559
7.276511 91.520 -103.5060
7.329239 91.545 -104.0533
7.382350 91.569 -104.5972
7.435845 91.594 -105.1372
7.489729 91.618 -105.6731
7.544002 91.643 -106.2045
7.598669 91.668 -106.7311
7.653732 91.694 -107.2522
7.709194 91.721 -107.7676
7.765058 91.749 -108.2773
7.821327 91.779 -108.7814
7.878004 91.810 -109.2807
7.935091 91.842 -109.7758
7.992592 91.877 -110.2675
8.050510 91.912 -110.7564
8.108847 91.950 -111.2428
8.167607 91.990 -111.7273
8.226793 92.031 -112.2105
8.286408 92.074 -112.6932
8.346454 92.119 -113.1764
8.406936 92.165 -113.6608
8.467856 92.213 -114.1469
8.529218 92.262 -114.6349
8.591024 92.312 -115.1249
8.653278 92.363 -115.6169
8.715983 92.415 -116.1110
8.779143 92.468 -116.6071
8.842760 92.521 -117.1051
8.906839 92.574 -117.6045
8.971381 92.628 -118.1047
9.036392 92.681 -118.6048
9.101873 92.734 -119.1039
9.167829 92.787 -119.6012
9.234263 92.839 -120.0961
9.301178 92.891 -120.5876
9.368578 92.943 -121.0748
9.436467 92.993 -121.5566
9.504847 93.043 -122.0320
9.573723 93.093 -122.5003
9.643099 93.142 -122.9607
9.712976 93.190 -123.4129
9.783361 93.238 -123.8562
9.854255 93.285 -124.2903
9.925663 93.332 -124.7147
9.997588 93.378 -125.1294
10.070035 93.424 -125.5345
10.143007 93.470 -125.9302
10.216507 93.516 -126.3168
10.290540 93.561 -126.6946
10.365109 93.606 -127.0640
10.440219 93.651 -127.4255
10.515873 93.695 -127.7798
10.592076 93.739 -128.1275
10.668830 93.783 -128.4691
10.746141 93.826 -128.8053
10.824012 93.869 -129.1365
10.902447 93.912 -129.4633
10.981451 93.953 -129.7862
11.061027 93.994 -130.1057
11.141180 94.035 -130.4219
11.221913 94.074 -130.7352
11.303232 94.112 -131.0460
11.385140 94.149 -131.3543
11.467641 94.185 -131.6605
11.550741 94.220 -131.9645
11.634442 94.254 -132.2667
11.718750 94.286 -132.5671
11.803669 94.317 -132.8660
11.889203 94.347 -133.1635
11.975357 94.376 -133.4598
12.062136 94.403 -133.7551
12.149543 94.429 -134.0499
12.237583 94.454 -134.3442
12.326262 94.477 -134.6385
12.415583 94.499 -134.9330
12.505552 94.520 -135.2280
12.596172 94.539 -135.5239
12.687449 94.558 -135.8210
12.779387 94.575 -136.1194
12.871992 94.590 -136.4196
12.965268 94.605 -136.7217
13.059220 94.618 -137.0259
13.153852 94.630 -137.3325
13.249170 94.641 -137.6418
13.345179 94.651 -137.9538
13.441884 94.660 -138.2690
13.539289 94.668 -138.5874
13.637401 94.675 -138.9096
13.736223 94.682 -139.2357
13.835761 94.688 -139.5662
13.936021 94.693 -139.9014
14.037007 94.698 -140.2417
14.138725 94.702 -140.5876
14.241180 94.706 -140.9393
14.344377 94.710 -141.2971
14.448323 94.714 -141.6613
14.553021 94.717 -142.0320
14.658478 94.720 -142.4093
14.764700 94.723 -142.7930
14.871691 94.725 -143.1831
14.979457 94.728 -143.5790
15.088005 94.730 -143.9805
15.197339 94.733 -144.3871
15.307465 94.735 -144.7981
15.418389 94.738 -145.2131
15.530117 94.740 -145.6314
15.642655 94.744 -146.0525
15.756008 94.747 -146.4758
15.870182 94.751 -146.9009
15.985184 94.756 -147.3273
16.101019 94.761 -147.7549
16.217694 94.767 -148.1830
16.335214 94.774 -148.6116
16.453586 94.782 -149.0403
16.572815 94.790 -149.4688
16.692909 94.799 -149.8966
16.813872 94.809 -150.3233
16.935713 94.820 -150.7483
17.058436 94.831 -151.1711
17.182048 94.842 -151.5909
17.306556 94.855 -152.0070
17.431967 94.867 -152.4188
17.558286 94.880 -152.8256
17.685521 94.894 -153.2268
17.813677 94.907 -153.6218
17.942762 94.921 -154.0105
18.072783 94.935 -154.3925
18.203746 94.949 -154.7677
18.335658 94.964 -155.1363
18.468526 94.978 -155.4983
18.602356 94.992 -155.8538
18.737156 95.006 -156.2030
18.872934 95.020 -156.5461
19.009695 95.033 -156.8830
19.147447 95.045 -157.2139
19.286197 95.056 -157.5388
19.425953 95.067 -157.8575
19.566721 95.077 -158.1701
19.708510 95.085 -158.4766
19.851326 95.092 -158.7770
19.995177 95.099 -159.0718
20.140070 95.104 -159.3612
20.286013 95.108 -159.6458
20.433014 95.110 -159.9263
20.581080 95.112 -160.2035
20.730219 95.113 -160.4783
20.880439 95.113 -160.7517
21.031747 95.111 -161.0245
21.184152 95.108 -161.2977
21.337661 95.105 -161.5719
21.492282 95.100 -161.8481
21.648024 95.094 -162.1267
21.804895 95.088 -162.4084
21.962902 95.080 -162.6936
22.122054 95.071 -162.9828
22.282360 95.062 -163.2764
22.443827 95.051 -163.5745
22.606464 95.040 -163.8776
22.770280 95.029 -164.1856
22.935283 95.017 -164.4987
23.101481 95.004 -164.8168
23.268884 94.992 -165.1398
23.437500 94.979 -165.4673
23.607338 94.966 -165.7992
23.778406 94.954 -166.1350
23.950714 94.941 -166.4744
24.124271 94.929 -166.8168
24.299086 94.918 -167.1620
24.475167 94.907 -167.5095
24.652524 94.897 -167.8587
24.831166 94.887 -168.2090
25.011103 94.878 -168.5598
25.192344 94.870 -168.9103
25.374898 94.863 -169.2597
25.558775 94.856 -169.6071
25.743984 94.850 -169.9516
25.930536 94.844 -170.2925
26.118439 94.839 -170.6291
26.307704 94.834 -170.9607
26.498341 94.830 -171.2870
26.690359 94.826 -171.6075
26.883768 94.822 -171.9219
27.078579 94.819 -172.2299
27.274801 94.815 -172.5314
27.472446 94.811 -172.8260
27.671522 94.806 -173.1138
27.872042 94.801 -173.3947
28.074014 94.796 -173.6689
28.277450 94.789 -173.9367
28.482360 94.783 -174.1987
28.688755 94.775 -174.4556
28.896645 94.766 -174.7082
29.106042 94.757 -174.9573
29.316957 94.747 -175.2039
29.529400 94.735 -175.4487
29.743382 94.723 -175.6925
29.958915 94.710 -175.9360
30.176009 94.696 -176.1799
30.394677 94.681 -176.4246
30.614929 94.665 -176.6707
30.836778 94.648 -176.9189
31.060234 94.631 -177.1694
31.285309 94.613 -177.4230
31.512015 94.595 -177.6798
31.740364 94.576 -177.9403
31.970368 94.558 -178.2046
32.202039 94.539 -178.4728
32.435388 94.521 -178.7448
32.670428 94.502 -179.0202
32.907171 94.484 -179.2987
33.145630 94.466 -179.5793
33.385817 94.448 -179.8613
33.627745 94.430 179.8564
33.871425 94.413 179.5748
34.116871 94.396 179.2947
34.364096 94.379 179.0168
34.613113 94.363 178.7418
34.863934 94.347 178.4700
35.116572 94.331 178.2018
35.371041 94.315 177.9376
35.627354 94.299 177.6779
35.885525 94.283 177.4232
36.145566 94.267 177.1738
36.407492 94.250 176.9301
36.671316 94.233 176.6920
36.937051 94.215 176.4597
37.204712 94.197 176.2326
37.474313 94.179 176.0103
37.745867 94.159 175.7921
38.019389 94.140 175.5773
38.294893 94.120 175.3652
38.572394 94.099 175.1550
38.851905 94.077 174.9461
39.133442 94.056 174.7376
39.417019 94.034 174.5289
39.702651 94.011 174.3194
39.990353 93.989 174.1087
40.280140 93.966 173.8965
40.572026 93.943 173.6828
40.866028 93.919 173.4679
41.162160 93.896 173.2523
41.460438 93.872 173.0364
41.760877 93.848 172.8212
42.063494 93.824 172.6072
42.368303 93.801 172.3950
42.675322 93.777 172.1851
42.984565 93.754 171.9775
43.296048 93.731 171.7724
43.609789 93.708 171.5696
43.925804 93.685 171.3691
44.244108 93.662 171.1710
44.564719 93.639 170.9752
44.887654 93.615 170.7822
45.212928 93.592 170.5920
45.540560 93.568 170.4049
45.870565 93.544 170.2207
46.202962 93.520 170.0392
46.537768 93.495 169.8599
46.875000 93.471 169.6823
47.214676 93.446 169.5061
47.556813 93.421 169.3310
47.901429 93.395 169.1573
48.248542 93.369 168.9855
48.598171 93.343 168.8160
48.950334 93.317 168.6497
49.305048 93.291 168.4867
49.662333 93.265 168.3271
50.022206 93.239 168.1707
50.384688 93.213 168.0168
50.749796 93.188 167.8651
51.117550 93.162 167.7151
51.487969 93.136 167.5670
51.861072 93.110 167.4211
52.236879 93.084 167.2775
52.615409 93.057 167.1364
52.996681 93.030 166.9979
53.380717 93.003 166.8619
53.767536 92.977 166.7281
54.157158 92.950 166.5961
54.549603 92.923 166.4654
54.944892 92.896 166.3351
55.343045 92.870 166.2042
55.744084 92.845 166.0721
56.148028 92.819 165.9381
56.554900 92.794 165.8021
56.964720 92.769 165.6641
57.377510 92.744 165.5245
57.793291 92.719 165.3840
58.212085 92.694 165.2435
58.633914 92.669 165.1042
59.058799 92.642 164.9673
59.486764 92.616 164.8337
59.917829 92.589 164.7034
60.352019 92.561 164.5763
60.789354 92.533 164.4521
61.229859 92.504 164.3310
61.673556 92.475 164.2133
62.120468 92.445 164.0995
62.570618 92.415 163.9894
63.024031 92.384 163.8824
63.480729 92.353 163.7774
63.940736 92.323 163.6734
64.404077 92.293 163.5700
64.870776 92.262 163.4674
65.340856 92.232 163.3659
65.814343 92.203 163.2659
66.291261 92.173 163.1677
66.771635 92.143 163.0719
67.255489 92.114 162.9790
67.742850 92.084 162.8896
68.233743 92.055 162.8038
68.728193 92.026 162.7216
69.226226 91.996 162.6430
69.727867 91.967 162.5675
70.233144 91.937 162.4946
70.742083 91.908 162.4233
71.254709 91.879 162.3528
71.771050 91.850 162.2825
72.291132 91.821 162.2126
72.814984 91.792 162.1436
73.342631 91.763 162.0761
73.874102 91.734 162.0110
74.409424 91.706 161.9484
74.948626 91.677 161.8883
75.491734 91.650 161.8303
76.038779 91.623 161.7739
76.589787 91.596 161.7184
77.144788 91.569 161.6630
77.703811 91.542 161.6071
78.266885 91.516 161.5498
78.834039 91.490 161.4902
79.405303 91.463 161.4272
79.980706 91.437 161.3597
80.560280 91.411 161.2867
81.144053 91.384 161.2077
81.732056 91.356 161.1230
82.324320 91.327 161.0340
82.920876 91.297 160.9432
83.521755 91.265 160.8538
84.126988 91.231 160.7688
84.736607 91.197 160.6909
85.350643 91.161 160.6219
85.969129 91.124 160.5627
86.592097 91.086 160.5132
87.219579 91.049 160.4735
87.851608 91.012 160.4431
88.488217 90.975 160.4215
89.129439 90.938 160.4075
89.775308 90.903 160.3996
90.425856 90.868 160.3962
91.081119 90.834 160.3963
91.741131 90.800 160.3990
92.405925 90.767 160.4033
93.075536 90.735 160.4078
93.750000 90.703 160.4111
94.429351 90.671 160.4130
95.113625 90.640 160.4142
95.802858 90.608 160.4157
96.497085 90.576 160.4185
97.196342 90.544 160.4232
97.900667 90.512 160.4308
98.610096 90.480 160.4425
99.324665 90.449 160.4590
100.044413 90.417 160.4813
100.769376 90.386 160.5093
101.499592 90.355 160.5431
102.235100 90.324 160.5814
102.975938 90.294 160.6227
103.722144 90.265 160.6648
104.473757 90.237 160.7056
105.230817 90.209 160.7433
105.993363 90.183 160.7767
106.761435 90.157 160.8045
107.535072 90.132 160.8264
108.314315 90.107 160.8422
109.099206 90.082 160.8528
109.889783 90.055 160.8597
110.686090 90.028 160.8638
111.488167 89.999 160.8653
112.296056 89.968 160.8638
113.109800 89.935 160.8596
113.929440 89.900 160.8542
114.755020 89.864 160.8504
115.586582 89.827 160.8519
116.424170 89.789 160.8624
117.267827 89.752 160.8848
118.117598 89.715 160.9221
118.973527 89.679 160.9781
119.835658 89.644 161.0575
120.704037 89.612 161.1609
121.578708 89.582 161.2812
122.459718 89.555 161.4073
123.347111 89.530 161.5300
124.240935 89.505 161.6445
125.141236 89.480 161.7495
126.048061 89.454 161.8450
126.961458 89.428 161.9321
127.881473 89.402 162.0119
128.808154 89.377 162.0854
129.741551 89.351 162.1545
130.681712 89.326 162.2209
131.628686 89.300 162.2867
132.582521 89.275 162.3527
133.543269 89.249 162.4188
134.510979 89.223 162.4849
135.485701 89.196 162.5512
136.467486 89.168 162.6188
137.456386 89.141 162.6888
138.452451 89.112 162.7620
139.455735 89.084 162.8391
140.466288 89.056 162.9201
141.484165 89.028 163.0043
142.509418 89.000 163.0903
143.542100 88.973 163.1768
144.582265 88.946 163.2625
145.629968 88.918 163.3469
146.685262 88.891 163.4312
147.748204 88.863 163.5171
148.818849 88.835 163.6066
149.897251 88.806 163.7021
150.983469 88.776 163.8061
152.077557 88.747 163.9204
153.179574 88.718 164.0460
154.289576 88.689 164.1818
155.407622 88.662 164.3250
156.533770 88.637 164.4702
157.668078 88.613 164.6118
158.810606 88.591 164.7454
159.961413 88.570 164.8691
161.120559 88.549 164.9833
162.288105 88.527 165.0903
163.464112 88.505 165.1934
164.648640 88.482 165.2957
165.841752 88.458 165.3997
167.043510 88.432 165.5078
168.253976 88.405 165.6228
169.473213 88.377 165.7470
170.701286 88.349 165.8809
171.938258 88.322 166.0224
173.184194 88.296 166.1674
174.439158 88.272 166.3120
175.703216 88.250 166.4545
176.976434 88.228 166.5945
178.258878 88.208 166.7324
179.550615 88.187 166.8679
180.851713 88.167 167.0009
182.162239 88.146 167.1314
183.482262 88.126 167.2595
184.811850 88.105 167.3858
186.151073 88.083 167.5115
187.500000 88.061 167.6377
188.858702 88.038 167.7652
190.227250 88.014 167.8939
191.605715 87.991 168.0238
192.994169 87.966 168.1559
194.392685 87.941 168.2919
195.801334 87.916 168.4330
197.220191 87.891 168.5806
198.649330 87.865 168.7357
200.088825 87.840 168.8986
201.538751 87.816 169.0688
202.999184 87.792 169.2437
204.470200 87.770 169.4196
205.951875 87.748 169.5920
207.444287 87.727 169.7581
208.947514 87.706 169.9178
210.461634 87.683 170.0745
211.986726 87.659 170.2327
213.522869 87.634 170.3977
215.070144 87.607 170.5748
216.628631 87.580 170.7680
218.198411 87.553 170.9792
219.779567 87.528 171.2068
221.372180 87.504 171.4460
222.976334 87.483 171.6914
224.592112 87.463 171.9397
226.219600 87.444 172.1903
227.858880 87.427 172.4451
229.510039 87.412 172.7067
231.173164 87.398 172.9761
232.848340 87.386 173.2513
234.535655 87.376 173.5269
236.235197 87.367 173.7971
237.947054 87.360 174.0586
239.671317 87.354 174.3097
241.408074 87.350 174.5494
243.157416 87.347 174.7779
244.919435 87.345 174.9955
246.694223 87.344 175.2031
248.481871 87.342 175.4015
250.282473 87.340 175.5923
252.096123 87.338 175.7807
253.922915 87.336 175.9746
255.762945 87.336 176.1765
257.616309 87.339 176.3788
259.483103 87.343 176.5676
261.363424 87.346 176.7316
263.257372 87.347 176.8680
265.165043 87.345 176.9836
267.086538 87.341 177.0898
269.021957 87.333 177.1976
270.971401 87.324 177.3138
272.934972 87.314 177.4398
274.912771 87.303 177.5742
276.904902 87.293 177.7159
278.911469 87.283 177.8643
280.932577 87.274 178.0190
282.968330 87.267 178.1776
285.018835 87.261 178.3345
287.084199 87.256 178.4818
289.164530 87.252 178.6127
291.259935 87.246 178.7251
293.370525 87.239 178.8244
295.496408 87.228 178.9205
297.637697 87.215 179.0230
299.794503 87.200 179.1379
301.966937 87.184 179.2669
304.155114 87.167 179.4087
306.359147 87.151 179.5600
308.579152 87.135 179.7175
310.815244 87.119 179.8783
313.067539 87.103 -179.9586
315.336156 87.087 -179.7923
317.621211 87.070 -179.6201
319.922826 87.053 -179.4387
322.241118 87.037 -179.2467
324.576210 87.021 -179.0452
326.928223 87.006 -178.8374
329.297280 86.992 -178.6261
331.683504 86.980 -178.4141
334.087019 86.969 -178.2036
336.507952 86.958 -177.9964
338.946427 86.948 -177.7939
341.402572 86.937 -177.5955
343.876516 86.926 -177.3985
346.368387 86.914 -177.1996
348.878315 86.902 -176.9960
351.406431 86.890 -176.7868
353.952867 86.878 -176.5727
356.517756 86.867 -176.3554
359.101230 86.856 -176.1364
361.703426 86.846 -175.9171
364.324478 86.835 -175.6979
366.964523 86.825 -175.4786
369.623699 86.815 -175.2584
372.302145 86.805 -175.0365
375.000000 86.796 -174.8127
377.717405 86.786 -174.5869
380.454501 86.777 -174.3597
383.211431 86.769 -174.1314
385.988339 86.761 -173.9016
388.785369 86.753 -173.6695
391.602668 86.745 -173.4349
394.440383 86.738 -173.1979
397.298660 86.731 -172.9594
400.177650 86.725 -172.7209
403.077502 86.718 -172.4844
405.998368 86.713 -172.2514
408.940400 86.706 -172.0224
411.903750 86.700 -171.7953
414.888575 86.692 -171.5656
417.895028 86.685 -171.3293
420.923268 86.676 -171.0837
423.973452 86.669 -170.8283
427.045738 86.662 -170.5651
430.140287 86.658 -170.2980
433.257261 86.654 -170.0317
436.396822 86.653 -169.7687
439.559133 86.652 -169.5089
442.744360 86.652 -169.2523
445.952668 86.653 -169.0008
449.184225 86.656 -168.7593
452.439199 86.658 -168.5335
455.717760 86.660 -168.3266
459.020079 86.659 -168.1346
462.346327 86.655 -167.9466
465.696680 86.647 -167.7499
469.071310 86.638 -167.5360
472.470394 86.627 -167.3027
475.894109 86.617 -167.0527
479.342634 86.607 -166.7915
482.816148 86.599 -166.5239
486.314833 86.590 -166.2511
489.838871 86.581 -165.9683
493.388445 86.573 -165.6683
496.963741 86.567 -165.3488
500.564945 86.564 -165.0163
504.192245 86.564 -164.6828
507.845830 86.569 -164.3600
511.525890 86.575 -164.0555
515.232618 86.583 -163.7715
518.966206 86.590 -163.5059
522.726849 86.596 -163.2531
526.514743 86.602 -163.0063
530.330086 86.605 -162.7596
534.173076 86.608 -162.5113
538.043915 86.610 -162.2623
541.942803 86.612 -162.0123
545.869944 86.612 -161.7585
549.825542 86.612 -161.4986
553.809805 86.612 -161.2335
557.822939 86.613 -160.9662
561.865154 86.613 -160.6996
565.936660 86.613 -160.4337
570.037671 86.613 -160.1665
574.168399 86.612 -159.8949
578.329060 86.610 -159.6171
582.519870 86.609 -159.3332
586.741049 86.607 -159.0432
590.992817 86.605 -158.7449
595.275394 86.603 -158.4361
599.589005 86.602 -158.1176
603.933874 86.603 -157.7941
608.310228 86.604 -157.4699
612.718295 86.605 -157.1466
617.158304 86.606 -156.8225
621.630488 86.607 -156.4921
626.135079 86.607 -156.1491
630.672311 86.609 -155.7916
635.242423 86.613 -155.4235
639.845651 86.618 -155.0508
644.482237 86.626 -154.6754
649.152421 86.636 -154.2959
653.856447 86.648 -153.9136
658.594560 86.663 -153.5354
663.367008 86.681 -153.1718
668.174039 86.700 -152.8310
673.015903 86.719 -152.5128
677.892854 86.736 -152.2097
682.805145 86.750 -151.9128
687.753032 86.763 -151.6152
692.736774 86.774 -151.3113
697.756631 86.784 -150.9964
702.812863 86.793 -150.6681
707.905735 86.804 -150.3285
713.035511 86.815 -149.9817
718.202461 86.827 -149.6312
723.406852 86.839 -149.2780
728.648956 86.852 -148.9212
733.929047 86.866 -148.5600
739.247399 86.879 -148.1941
744.604290 86.894 -147.8237
750.000000 86.909 -147.4489
755.434809 86.925 -147.0695
760.909001 86.941 -146.6854
766.422861 86.959 -146.2965
771.976677 86.978 -145.9033
777.570739 86.998 -145.5067
783.205337 87.020 -145.1077
788.880766 87.042 -144.7051
794.597321 87.065 -144.2959
800.355301 87.090 -143.8777
806.155005 87.118 -143.4512
811.996736 87.149 -143.0225
817.880799 87.183 -142.6003
823.807501 87.221 -142.1948
829.777150 87.260 -141.8142
835.790057 87.300 -141.4607
841.846536 87.338 -141.1274
847.946903 87.374 -140.8034
854.091476 87.409 -140.4803
860.280575 87.442 -140.1537
866.514523 87.475 -139.8209
872.793644 87.507 -139.4786
879.118267 87.540 -139.1270
885.488720 87.574 -138.7702
891.905336 87.609 -138.4121
898.368450 87.645 -138.0529
904.878398 87.681 -137.6905
911.435520 87.719 -137.3238
918.040157 87.758 -136.9546
924.692655 87.799 -136.5855
931.393359 87.842 -136.2201
938.142619 87.887 -135.8618
944.940787 87.932 -135.5124
951.788218 87.978 -135.1706
958.685268 88.024 -134.8340
965.632296 88.070 -134.5003
972.629666 88.116 -134.1673
979.677741 88.163 -133.8346
986.776890 88.210 -133.5026
993.927482 88.258 -133.1701
1001.129891 88.306 -132.8329
1008.384491 88.356 -132.4871
1015.691660 88.409 -132.1335
1023.051781 88.465 -131.7770
1030.465236 88.525 -131.4252
1037.932411 88.589 -131.0897
1045.453698 88.656 -130.7824
1053.029486 88.724 -130.5089
1060.660172 88.791 -130.2660
1068.346153 88.856 -130.0451
1076.087829 88.919 -129.8371
1083.885605 88.980 -129.6355
1091.739887 89.040 -129.4380
1099.651084 89.099 -129.2447
1107.619609 89.158 -129.0552
1115.645878 89.215 -128.8686
1123.730308 89.272 -128.6836
1131.873321 89.329 -128.4990
1140.075341 89.385 -128.3138
1148.336797 89.441 -128.1276
1156.658119 89.498 -127.9400
1165.039741 89.555 -127.7499
1173.482099 89.612 -127.5561
1181.985634 89.672 -127.3594
1190.550789 89.735 -127.1663
1199.178011 89.800 -126.9882
1207.867749 89.868 -126.8370
1216.620457 89.935 -126.7192
1225.436590 90.001 -126.6318
1234.316609 90.065 -126.5674
1243.260976 90.125 -126.5182
1252.270157 90.181 -126.4780
1261.344623 90.236 -126.4442
1270.484846 90.287 -126.4166
1279.691303 90.336 -126.3945
1288.964474 90.381 -126.3754
1298.304842 90.422 -126.3560
1307.712894 90.458 -126.3307
1317.189120 90.489 -126.2892
1326.734016 90.515 -126.2149
1336.348077 90.537 -126.0886
1346.031806 90.559 -125.8973
1355.785708 90.585 -125.6422
1365.610290 90.617 -125.3397
1375.506065 90.658 -125.0123
1385.473549 90.707 -124.6793
1395.513261 90.763 -124.3544
1405.625726 90.825 -124.0481
1415.811469 90.893 -123.7704
1426.071023 90.963 -123.5305
1436.404921 91.035 -123.3313
1446.813703 91.106 -123.1673
1457.297912 91.175 -123.0282
1467.858093 91.242 -122.9044
1478.494798 91.307 -122.7890
1489.208581 91.370 -122.6769
1500.000000 91.431 -122.5636
1510.869618 91.492 -122.4449
1521.818002 91.552 -122.3173
1532.845723 91.612 -122.1780
1543.953355 91.673 -122.0253
1555.141477 91.736 -121.8590
1566.410674 91.803 -121.6836
1577.761531 91.874 -121.5102
1589.194642 91.950 -121.3533
1600.710601 92.028 -121.2228
1612.310010 92.107 -121.1205
1623.993473 92.186 -121.0422
1635.761599 92.264 -120.9822
1647.615002 92.342 -120.9360
1659.554299 92.419 -120.9006
1671.580114 92.496 -120.8742
1683.693072 92.573 -120.8581
1695.893807 92.651 -120.8556
1708.182952 92.728 -120.8698
1720.561150 92.804 -120.9010
1733.029045 92.878 -120.9456
1745.587288 92.949 -120.9967
1758.236533 93.018 -121.0457
1770.977440 93.086 -121.0844
1783.810673 93.155 -121.1105
1796.736900 93.225 -121.1301
1809.756796 93.297 -121.1546
1822.871040 93.371 -121.1926
1836.080315 93.445 -121.2465
1849.385310 93.518 -121.3140
1862.786718 93.590 -121.3915
1876.285239 93.661 -121.4745
1889.881575 93.731 -121.5580
1903.576436 93.800 -121.6367
1917.370535 93.868 -121.7062
1931.264593 93.939 -121.7642
1945.259332 94.011 -121.8129
1959.355483 94.088 -121.8620
1973.553781 94.168 -121.9257
1987.854965 94.251 -122.0151
2002.259781 94.335 -122.1347
2016.768981 94.419 -122.2830
2031.383320 94.501 -122.4558
2046.103561 94.583 -122.6484
2060.930471 94.663 -122.8567
2075.864823 94.741 -123.0793
2090.907395 94.819 -123.3160
2106.058972 94.895 -123.5649
2121.320344 94.968 -123.8213
2136.692305 95.040 -124.0777
2152.175658 95.110 -124.3265
2167.771210 95.181 -124.5657
2183.479774 95.255 -124.8022
2199.302169 95.331 -125.0478
2215.239219 95.408 -125.3126
2231.291755 95.487 -125.6015
2247.460615 95.565 -125.9150
2263.746641 95.641 -126.2499
2280.150683 95.716 -126.6000
2296.673595 95.789 -126.9581
2313.316238 95.862 -127.3179
2330.079481 95.936 -127.6788
2346.964198 96.011 -128.0479
2363.971268 96.089 -128.4375
2381.101578 96.168 -128.8576
2398.356022 96.247 -129.3132
2415.735498 96.325 -129.8044
2433.240913 96.400 -130.3285
2450.873180 96.473 -130.8822
2468.633217 96.543 -131.4627
2486.521951 96.609 -132.0670
2504.540314 96.671 -132.6891
2522.689246 96.728 -133.3199
2540.969692 96.783 -133.9504
2559.382606 96.835 -134.5778
2577.928947 96.888 -135.2068
2596.609683 96.939 -135.8458
2615.425787 96.991 -136.5011
2634.378241 97.040 -137.1756
2653.468031 97.087 -137.8676
2672.696154 97.130 -138.5711
2692.063613 97.171 -139.2785
2711.571415 97.210 -139.9845
2731.220579 97.249 -140.6915
2751.012130 97.289 -141.4080
2770.947098 97.329 -142.1436
2791.026522 97.368 -142.9053
2811.251451 97.406 -143.6959
2831.622938 97.442 -144.5160
2852.142045 97.474 -145.3647
2872.809842 97.502 -146.2390
2893.627406 97.525 -147.1324
2914.595823 97.543 -148.0350
2935.716186 97.557 -148.9375
2956.989596 97.568 -149.8371
2978.417161 97.577 -150.7372
3000.000000 97.585 -151.6433
3021.739237 97.590 -152.5593
3043.636005 97.591 -153.4851
3065.691446 97.589 -154.4153
3087.906710 97.584 -155.3424
3110.282955 97.577 -156.2626
3132.821347 97.570 -157.1794
3155.523062 97.562 -158.1008
3178.389283 97.555 -159.0358
3201.421202 97.547 -159.9913
3224.620020 97.537 -160.9723
3247.986946 97.524 -161.9813
3271.523198 97.507 -163.0169
3295.230004 97.485 -164.0719
3319.108599 97.457 -165.1364
3343.160228 97.426 -166.2038
3367.386145 97.390 -167.2735
3391.787613 97.351 -168.3479
3416.365904 97.307 -169.4294
3441.122300 97.259 -170.5160
3466.058091 97.206 -171.6005
3491.174576 97.148 -172.6750
3516.473066 97.087 -173.7370
3541.954880 97.023 -174.7898
3567.621345 96.958 -175.8408
3593.473800 96.891 -176.8979
3619.513592 96.821 -177.9683
3645.742080 96.747 -179.0565
3672.160630 96.668 179.8392
3698.770620 96.582 178.7271
3725.573436 96.489 177.6167
3752.570477 96.389 176.5135
3779.763150 96.283 175.4194
3807.152872 96.171 174.3353
3834.741071 96.050 173.2665
3862.529185 95.922 172.2235
3890.518664 95.787 171.2171
3918.710966 95.646 170.2528
3947.107561 95.502 169.3295
3975.709929 95.354 168.4417
4004.519563 95.204 167.5812
4033.537962 95.050 166.7405
4062.766641 94.893 165.9177
4092.207123 94.730 165.1178
4121.860942 94.562 164.3480
4151.729646 94.389 163.6121
4181.814790 94.211 162.9107
4212.117944 94.027 162.2457
4242.640687 93.838 161.6241
4273.384610 93.644 161.0563
4304.351317 93.446 160.5502
4335.542421 93.246 160.1070
4366.959549 93.045 159.7220
4398.604338 92.845 159.3854
4430.478438 92.646 159.0864
4462.583511 92.447 158.8197
4494.921231 92.247 158.5862
4527.493283 92.045 158.3880
4560.301365 91.843 158.2246
4593.347189 91.639 158.0955
4626.632476 91.433 158.0052
4660.158962 91.224 157.9641
4693.928395 91.013 157.9821
4727.942535 90.803 158.0646
4762.203156 90.595 158.2092
4796.712043 90.389 158.4064
4831.470996 90.188 158.6446
4866.481826 89.990 158.9165
4901.746360 89.796 159.2191
4937.266434 89.604 159.5496
4973.043902 89.414 159.9041
5009.080628 89.225 160.2834
5045.378492 89.036 160.6951
5081.939384 88.847 161.1510
5118.765212 88.659 161.6604
5155.857894 88.474 162.2261
5193.219366 88.293 162.8431
5230.851574 88.117 163.5030
5268.756481 87.946 164.2003
5306.936062 87.780 164.9326
5345.392309 87.619 165.6972
5384.127225 87.463 166.4932
5423.142830 87.310 167.3266
5462.441159 87.162 168.2096
5502.024259 87.020 169.1526
5541.894195 86.889 170.1541
5582.053045 86.772 171.1929
5622.502902 86.669 172.2316
5663.245876 86.580 173.2327
5704.284090 86.500 174.1743
5745.619684 86.423 175.0574
5787.254813 86.345 175.9014
5829.191647 86.265 176.7350
5871.432373 86.182 177.5861
5913.979192 86.099 178.4750
5956.834323 86.018 179.4107
6000.000000 85.941 -179.6085
6043.478473 85.871 -178.5897
6087.272010 85.809 -177.5418
6131.382892 85.755 -176.4751
6175.813420 85.709 -175.3997
6220.565910 85.669 -174.3201
6265.642695 85.635 -173.2321
6311.046124 85.607 -172.1261
6356.778566 85.586 -170.9923
6402.842404 85.573 -169.8244
6449.240040 85.569 -168.6198
6495.973891 85.578 -167.3808
6543.046396 85.601 -166.1153
6590.460007 85.638 -164.8341
6638.217197 85.692 -163.5457
6686.320456 85.763 -162.2549
6734.772290 85.851 -160.9662
6783.575226 85.960 -159.6871
6832.731809 86.090 -158.4289
6882.244600 86.244 -157.2070
6932.116181 86.423 -156.0415
6982.349153 86.627 -154.9539
7032.946133 86.857 -153.9630
7083.909760 87.113 -153.0841
7135.242690 87.396 -152.3331
7186.947600 87.708 -151.7318
7239.027185 88.052 -151.3097
7291.484160 88.428 -151.1078
7344.321260 88.837 -151.1787
7397.541239 89.276 -151.5819
7451.146872 89.742 -152.3787
7505.140954 90.229 -153.6301
7559.526299 90.726 -155.3968
7614.305743 91.223 -157.7358
7669.482141 91.703 -160.6953
7725.058371 92.148 -164.3065
7781.037328 92.536 -168.5725
7837.421932 92.841 -173.4546
7894.215122 93.041 -178.8647
7951.419859 93.116 175.3347
8009.039125 93.051 169.3217
8067.075924 92.841 163.2997
8125.533282 92.488 157.4733
8184.414245 92.000 152.0271
8243.721885 91.393 147.1119
8303.459292 90.685 142.8394
8363.629581 89.896 139.2802
8424.235888 89.047 136.4694
8485.281374 88.159 134.4096
8546.769221 87.252 133.0749
8608.702634 86.343 132.4182
8671.084842 85.444 132.3842
8733.919097 84.566 132.9201
8797.208675 83.715 133.9852
8860.956876 82.898 135.5534
8925.167022 82.119 137.6082
8989.842461 81.383 140.1357
9054.986566 80.698 143.1246
9120.602731 80.071 146.5678
9186.694378 79.512 150.4604
9253.264952 79.034 154.7882
9320.317925 78.655 159.5011
9387.856790 78.391 164.4856
9455.885071 78.258 169.5562
9524.406312 78.260 174.4722
9593.424086 78.391 178.9796
9662.941992 78.631 -177.1419
9732.963653 78.952 -174.0483
9803.492719 79.319 -171.8178
9874.532869 79.698 -170.4483
9946.087805 80.056 -169.8649
10018.161257 80.369 -169.9337
10090.756983 80.618 -170.4871
10163.878768 80.798 -171.3522
10237.530423 80.908 -172.3731
10311.715789 80.953 -173.4218
10386.438732 80.941 -174.3993
10461.703149 80.883 -175.2310
10537.512962 80.789 -175.8671
10613.872125 80.672 -176.2841
10690.784618 80.543 -176.4840
10768.254450 80.411 -176.4870
10846.285661 80.282 -176.3191
10924.882318 80.162 -176.0059
11004.048518 80.053 -175.5750
11083.788390 79.960 -175.0590
11164.106090 79.884 -174.4939
11245.005805 79.824 -173.9110
11326.491752 79.780 -173.3329
11408.568180 79.751 -172.7777
11491.239368 79.735 -172.2645
11574.509626 79.733 -171.8147
11658.383294 79.742 -171.4464
11742.864745 79.758 -171.1699
11827.958384 79.780 -170.9911
11913.668646 79.805 -170.9162
12000.000000 79.831 -170.9526
12086.956947 79.854 -171.1028
12174.544019 79.871 -171.3629
12262.765784 79.880 -171.7242
12351.626840 79.877 -172.1785
12441.131819 79.862 -172.7168
12531.285389 79.831 -173.3254
12622.092249 79.783 -173.9846
12713.557132 79.717 -174.6731
12805.684808 79.632 -175.3723
12898.480079 79.528 -176.0629
12991.947783 79.404 -176.7210
13086.092792 79.263 -177.3196
13180.920015 79.106 -177.8357
13276.434395 78.935 -178.2518
13372.640911 78.754 -178.5537
13469.544580 78.567 -178.7287
13567.150452 78.379 -178.7699
13665.463617 78.194 -178.6796
13764.489200 78.015 -178.4662
13864.232362 77.848 -178.1372
13964.698305 77.695 -177.6987
14065.892266 77.559 -177.1588
14167.819519 77.447 -176.5295
14270.485380 77.363 -175.8273
14373.895200 77.312 -175.0787
14478.054370 77.301 -174.3236
14582.968320 77.335 -173.6140
14688.642520 77.417 -173.0089
14795.082478 77.551 -172.5766
14902.293745 77.737 -172.3980
15010.281908 77.974 -172.5625
15119.052599 78.255 -173.1620
15228.611486 78.569 -174.2876
15338.964283 78.901 -176.0217
15450.116741 79.231 -178.4252
15562.074656 79.532 178.4754
15674.843864 79.779 174.6962
15788.430244 79.942 170.3011
15902.839718 79.998 165.4052
16018.078250 79.926 160.1713
16134.151848 79.711 154.7974
16251.066563 79.349 149.4963
16368.828491 78.845 144.4766
16487.443769 78.211 139.9221
16606.918584 77.464 135.9776
16727.259161 76.629 132.7422
16848.471777 75.727 130.2725
16970.562748 74.784 128.5847
17093.538442 73.822 127.6604
17217.405268 72.863 127.4555
17342.169684 71.924 127.9062
17467.838194 71.020 128.9316
17594.417350 70.163 130.4405
17721.913751 69.359 132.3390
17850.334044 68.613 134.5327
17979.684923 67.925 136.9357
18109.973131 67.292 139.4816
18241.205462 66.710 142.1260
18373.388756 66.175 144.8359
18506.529905 65.684 147.5779
18640.635849 65.234 150.3044
18775.713581 64.823 152.9448
18911.770141 64.443 155.4138
19048.812624 64.081 157.6361
19186.848172 63.717 159.5894
19325.883983 63.327 161.3512
19465.927305 62.893 163.1113
19606.985439 62.426 165.0785
19749.065738 61.974 167.2543
19892.175609 61.612 169.2618
20036.322514 61.411 170.4948
