* Measurement data measured by REW V5.30.9
* Source: EXCL: Microphone (USB Sound Device        ), MICROPHONE (Master Volume), L, volume: 0.560
* Format: 256k Log Swept Sine, 1 sweep at -12.0 dBFS with no timing reference
* Dated: Mar 8, 2024 5:24:38 PM
* REW Settings:
*  C-weighting compensation: Off
*  Target level: 75.0 dB
* Note: CKLVX CK-41
* Measurement: CKLVX CK-41
* Smoothing: 1/12 octave
* Frequency Step: 96 ppo
* Start Frequency: 0.36621094 Hz
*
* Freq(Hz) SPL(dB) Phase(degrees)
0.366211 76.968 177.9116
0.368865 76.962 177.9091
0.371538 76.953 177.9053
0.374230 76.942 177.9005
0.376942 76.930 177.8949
0.379673 76.917 177.8887
0.382424 76.904 177.8818
0.385196 76.890 177.8745
0.387987 76.876 177.8667
0.390798 76.861 177.8585
0.393630 76.847 177.8498
0.396483 76.832 177.8408
0.399356 76.817 177.8313
0.402250 76.803 177.8213
0.405165 76.788 177.8110
0.408101 76.773 177.8002
0.411058 76.758 177.7890
0.414037 76.742 177.7774
0.417037 76.727 177.7654
0.420059 76.711 177.7529
0.423103 76.696 177.7400
0.426169 76.680 177.7267
0.429257 76.664 177.7129
0.432367 76.648 177.6987
0.435501 76.632 177.6841
0.438656 76.616 177.6691
0.441835 76.600 177.6537
0.445037 76.583 177.6379
0.448262 76.567 177.6216
0.451510 76.550 177.6049
0.454782 76.533 177.5878
0.458077 76.516 177.5704
0.461397 76.499 177.5525
0.464740 76.482 177.5342
0.468108 76.465 177.5155
0.471500 76.448 177.4964
0.474917 76.430 177.4770
0.478358 76.413 177.4572
0.481825 76.395 177.4370
0.485316 76.377 177.4164
0.488833 76.359 177.3955
0.492375 76.341 177.3742
0.495943 76.322 177.3526
0.499537 76.304 177.3307
0.503157 76.285 177.3084
0.506803 76.267 177.2859
0.510475 76.248 177.2630
0.514174 76.229 177.2398
0.517900 76.210 177.2164
0.521653 76.191 177.1927
0.525433 76.171 177.1688
0.529241 76.152 177.1446
0.533076 76.132 177.1202
0.536939 76.112 177.0956
0.540830 76.092 177.0708
0.544749 76.072 177.0459
0.548696 76.052 177.0208
0.552673 76.032 176.9955
0.556677 76.011 176.9702
0.560711 75.990 176.9448
0.564774 75.970 176.9193
0.568867 75.949 176.8938
0.572989 75.927 176.8683
0.577141 75.906 176.8428
0.581324 75.885 176.8174
0.585536 75.863 176.7921
0.589779 75.841 176.7668
0.594053 75.820 176.7417
0.598358 75.797 176.7168
0.602694 75.775 176.6922
0.607061 75.753 176.6677
0.611460 75.730 176.6436
0.615891 75.708 176.6198
0.620354 75.685 176.5965
0.624849 75.662 176.5735
0.629377 75.638 176.5510
0.633938 75.615 176.5291
0.638532 75.592 176.5078
0.643159 75.568 176.4872
0.647819 75.544 176.4672
0.652514 75.520 176.4481
0.657242 75.496 176.4297
0.662005 75.471 176.4124
0.666802 75.447 176.3960
0.671634 75.422 176.3806
0.676501 75.397 176.3664
0.681403 75.372 176.3535
0.686341 75.346 176.3419
0.691314 75.321 176.3316
0.696324 75.295 176.3229
0.701369 75.269 176.3158
0.706452 75.242 176.3103
0.711571 75.214 176.3065
0.716727 75.185 176.3044
0.721921 75.153 176.3039
0.727153 75.119 176.3048
0.732422 75.080 176.3069
0.737729 75.037 176.3099
0.743075 74.990 176.3132
0.748460 74.938 176.3167
0.753883 74.883 176.3201
0.759346 74.826 176.3233
0.764849 74.765 176.3262
0.770391 74.703 176.3289
0.775974 74.638 176.3314
0.781597 74.572 176.3338
0.787261 74.503 176.3361
0.792965 74.433 176.3385
0.798712 74.361 176.3410
0.804499 74.287 176.3439
0.810329 74.212 176.3471
0.816201 74.134 176.3509
0.822116 74.055 176.3553
0.828073 73.974 176.3606
0.834073 73.892 176.3669
0.840118 73.807 176.3744
0.846205 73.722 176.3832
0.852337 73.634 176.3937
0.858514 73.545 176.4059
0.864735 73.454 176.4202
0.871001 73.362 176.4367
0.877313 73.269 176.4558
0.883670 73.174 176.4778
0.890074 73.077 176.5029
0.896523 72.979 176.5315
0.903020 72.880 176.5639
0.909564 72.780 176.6006
0.916155 72.678 176.6420
0.922793 72.575 176.6885
0.929480 72.471 176.7406
0.936216 72.367 176.7988
0.943000 72.261 176.8637
0.949833 72.154 176.9358
0.956716 72.046 177.0160
0.963649 71.938 177.1048
0.970632 71.829 177.2030
0.977666 71.719 177.3115
0.984750 71.609 177.4312
0.991886 71.498 177.5630
0.999074 71.387 177.7080
1.006313 71.276 177.8674
1.013605 71.164 178.0424
1.020950 71.053 178.2345
1.028349 70.941 178.4450
1.035801 70.830 178.6756
1.043306 70.719 178.9280
1.050867 70.608 179.2041
1.058482 70.497 179.5059
1.066152 70.387 179.8355
1.073878 70.278 -179.8049
1.081659 70.168 -179.4132
1.089498 70.057 -178.9873
1.097393 69.945 -178.5251
1.105345 69.831 -178.0249
1.113355 69.713 -177.4844
1.121422 69.591 -176.9011
1.129549 69.464 -176.2720
1.137734 69.333 -175.5929
1.145978 69.196 -174.8594
1.154283 69.054 -174.0662
1.162647 68.907 -173.2071
1.171072 68.756 -172.2753
1.179558 68.601 -171.2631
1.188106 68.443 -170.1618
1.196715 68.282 -168.9617
1.205387 68.118 -167.6521
1.214122 67.952 -166.2210
1.222920 67.785 -164.6552
1.231781 67.617 -162.9402
1.240708 67.449 -161.0607
1.249698 67.281 -158.9999
1.258754 67.115 -156.7408
1.267875 66.951 -154.2662
1.277063 66.789 -151.5597
1.286317 66.631 -148.6072
1.295638 66.477 -145.3984
1.305027 66.329 -141.9292
1.314484 66.186 -138.2037
1.324009 66.051 -134.2370
1.333603 65.924 -130.0569
1.343267 65.806 -125.7045
1.353001 65.699 -121.2341
1.362805 65.602 -116.7093
1.372681 65.519 -112.1990
1.382628 65.449 -107.7711
1.392647 65.395 -103.4878
1.402739 65.357 -99.4001
1.412904 65.337 -95.5461
1.423142 65.337 -91.9498
1.433455 65.358 -88.6221
1.443842 65.402 -85.5625
1.454305 65.470 -82.7618
1.464843 65.565 -80.2045
1.475458 65.687 -77.8711
1.486150 65.836 -75.7418
1.496919 66.015 -73.7976
1.507766 66.221 -72.0219
1.518692 66.455 -70.3999
1.529697 66.715 -68.9185
1.540782 67.000 -67.5659
1.551947 67.309 -66.3317
1.563193 67.640 -65.2064
1.574521 67.992 -64.1812
1.585931 68.362 -63.2485
1.597423 68.749 -62.4010
1.608998 69.151 -61.6324
1.620658 69.567 -60.9368
1.632402 69.993 -60.3091
1.644231 70.428 -59.7446
1.656146 70.871 -59.2389
1.668147 71.317 -58.7882
1.680235 71.767 -58.3892
1.692410 72.216 -58.0387
1.704674 72.663 -57.7339
1.717027 73.104 -57.4723
1.729469 73.539 -57.2517
1.742002 73.964 -57.0700
1.754625 74.377 -56.9253
1.767340 74.776 -56.8158
1.780147 75.158 -56.7399
1.793046 75.523 -56.6956
1.806040 75.870 -56.6812
1.819127 76.198 -56.6944
1.832309 76.509 -56.7329
1.845587 76.805 -56.7941
1.858961 77.088 -56.8756
1.872431 77.358 -56.9753
1.886000 77.619 -57.0915
1.899666 77.870 -57.2227
1.913432 78.113 -57.3678
1.927298 78.349 -57.5261
1.941264 78.576 -57.6967
1.955331 78.797 -57.8791
1.969500 79.012 -58.0727
1.983772 79.221 -58.2769
1.998147 79.424 -58.4915
2.012626 79.622 -58.7160
2.027211 79.815 -58.9502
2.041901 80.005 -59.1938
2.056697 80.191 -59.4467
2.071601 80.375 -59.7086
2.086613 80.556 -59.9796
2.101733 80.736 -60.2595
2.116963 80.914 -60.5483
2.132303 81.092 -60.8462
2.147755 81.270 -61.1534
2.163318 81.448 -61.4700
2.178995 81.625 -61.7963
2.194785 81.802 -62.1327
2.210689 81.978 -62.4793
2.226709 82.152 -62.8363
2.242844 82.322 -63.2033
2.259097 82.490 -63.5800
2.275467 82.654 -63.9657
2.291956 82.815 -64.3595
2.308565 82.972 -64.7607
2.325294 83.126 -65.1684
2.342144 83.277 -65.5819
2.359116 83.425 -66.0003
2.376211 83.570 -66.4231
2.393430 83.712 -66.8496
2.410774 83.852 -67.2791
2.428243 83.989 -67.7112
2.445839 84.125 -68.1455
2.463562 84.259 -68.5816
2.481415 84.392 -69.0193
2.499396 84.523 -69.4588
2.517508 84.653 -69.9002
2.535750 84.781 -70.3441
2.554126 84.909 -70.7916
2.572634 85.034 -71.2437
2.591276 85.158 -71.7018
2.610054 85.279 -72.1666
2.628967 85.398 -72.6385
2.648018 85.514 -73.1172
2.667206 85.628 -73.6021
2.686534 85.739 -74.0924
2.706002 85.848 -74.5870
2.725610 85.955 -75.0848
2.745361 86.059 -75.5848
2.765255 86.161 -76.0858
2.785294 86.261 -76.5867
2.805477 86.359 -77.0866
2.825807 86.456 -77.5846
2.846284 86.550 -78.0801
2.866909 86.644 -78.5726
2.887684 86.736 -79.0623
2.908609 86.826 -79.5497
2.929686 86.915 -80.0358
2.950916 87.002 -80.5222
2.972299 87.087 -81.0104
2.993838 87.169 -81.5011
3.015532 87.250 -81.9947
3.037384 87.328 -82.4910
3.059394 87.404 -82.9893
3.081564 87.478 -83.4888
3.103894 87.549 -83.9882
3.126386 87.619 -84.4863
3.149041 87.688 -84.9819
3.171861 87.754 -85.4737
3.194845 87.819 -85.9606
3.217996 87.883 -86.4416
3.241315 87.946 -86.9160
3.264803 88.007 -87.3836
3.288461 88.067 -87.8449
3.312291 88.125 -88.3006
3.336293 88.182 -88.7519
3.360469 88.237 -89.1998
3.384820 88.290 -89.6448
3.409348 88.341 -90.0872
3.434054 88.391 -90.5266
3.458938 88.439 -90.9628
3.484003 88.486 -91.3950
3.509250 88.531 -91.8224
3.534679 88.575 -92.2442
3.560293 88.619 -92.6595
3.586092 88.662 -93.0677
3.612079 88.704 -93.4678
3.638253 88.745 -93.8597
3.664618 88.786 -94.2431
3.691173 88.826 -94.6184
3.717921 88.865 -94.9859
3.744862 88.904 -95.3461
3.771999 88.941 -95.6996
3.799332 88.978 -96.0467
3.826864 89.013 -96.3879
3.854595 89.049 -96.7234
3.882527 89.084 -97.0533
3.910661 89.118 -97.3777
3.938999 89.153 -97.6968
3.967543 89.188 -98.0102
3.996294 89.224 -98.3178
4.025252 89.259 -98.6193
4.054421 89.295 -98.9144
4.083801 89.331 -99.2029
4.113394 89.368 -99.4850
4.143201 89.404 -99.7613
4.173225 89.441 -100.0326
4.203466 89.478 -100.3000
4.233926 89.515 -100.5645
4.264606 89.553 -100.8274
4.295509 89.591 -101.0896
4.326636 89.630 -101.3518
4.357989 89.670 -101.6147
4.389569 89.710 -101.8782
4.421378 89.751 -102.1423
4.453417 89.793 -102.4066
4.485688 89.836 -102.6712
4.518193 89.879 -102.9364
4.550934 89.923 -103.2028
4.583912 89.967 -103.4713
4.617129 90.012 -103.7430
4.650587 90.057 -104.0191
4.684287 90.102 -104.3004
4.718231 90.148 -104.5878
4.752421 90.194 -104.8818
4.786859 90.240 -105.1825
4.821547 90.287 -105.4899
4.856485 90.333 -105.8036
4.891677 90.380 -106.1237
4.927125 90.427 -106.4498
4.962829 90.473 -106.7822
4.998791 90.520 -107.1207
5.035015 90.566 -107.4658
5.071500 90.611 -107.8176
5.108251 90.656 -108.1766
5.145267 90.700 -108.5428
5.182552 90.743 -108.9167
5.220107 90.786 -109.2977
5.257934 90.828 -109.6856
5.296035 90.869 -110.0795
5.334412 90.909 -110.4785
5.373067 90.949 -110.8817
5.412003 90.987 -111.2884
5.451221 91.024 -111.6981
5.490722 91.060 -112.1107
5.530510 91.095 -112.5261
5.570587 91.128 -112.9445
5.610953 91.161 -113.3656
5.651613 91.192 -113.7886
5.692567 91.222 -114.2126
5.733818 91.251 -114.6364
5.775367 91.279 -115.0590
5.817218 91.306 -115.4794
5.859372 91.332 -115.8972
5.901831 91.357 -116.3120
5.944598 91.381 -116.7241
5.987675 91.404 -117.1332
6.031065 91.427 -117.5392
6.074768 91.449 -117.9417
6.118788 91.470 -118.3401
6.163127 91.492 -118.7339
6.207788 91.513 -119.1227
6.252772 91.534 -119.5061
6.298082 91.555 -119.8842
6.343721 91.576 -120.2573
6.389690 91.597 -120.6258
6.435992 91.618 -120.9901
6.482630 91.640 -121.3509
6.529606 91.662 -121.7084
6.576922 91.685 -122.0629
6.624581 91.709 -122.4146
6.672585 91.733 -122.7637
6.720938 91.758 -123.1107
6.769640 91.784 -123.4563
6.818696 91.811 -123.8016
6.868107 91.838 -124.1474
6.917876 91.866 -124.4946
6.968006 91.895 -124.8437
7.018499 91.925 -125.1952
7.069358 91.955 -125.5493
7.120586 91.986 -125.9062
7.172184 92.018 -126.2664
7.224157 92.050 -126.6304
7.276506 92.082 -126.9987
7.329235 92.115 -127.3717
7.382345 92.147 -127.7495
7.435841 92.180 -128.1319
7.489724 92.213 -128.5187
7.543997 92.245 -128.9095
7.598664 92.278 -129.3037
7.653728 92.309 -129.7012
7.709189 92.341 -130.1015
7.765053 92.371 -130.5044
7.821322 92.402 -130.9093
7.877998 92.431 -131.3155
7.935086 92.460 -131.7220
7.992587 92.488 -132.1279
8.050504 92.516 -132.5325
8.108841 92.543 -132.9351
8.167601 92.569 -133.3353
8.226787 92.594 -133.7327
8.286402 92.619 -134.1265
8.346449 92.644 -134.5160
8.406931 92.668 -134.9008
8.467851 92.692 -135.2803
8.529212 92.716 -135.6545
8.591018 92.740 -136.0233
8.653272 92.763 -136.3869
8.715977 92.787 -136.7452
8.779137 92.811 -137.0986
8.842754 92.835 -137.4470
8.906833 92.860 -137.7908
8.971375 92.885 -138.1306
9.036386 92.910 -138.4669
9.101867 92.936 -138.8003
9.167823 92.962 -139.1315
9.234257 92.989 -139.4609
9.301172 93.016 -139.7889
9.368572 93.043 -140.1161
9.436460 93.071 -140.4430
9.504841 93.098 -140.7700
9.573717 93.126 -141.0975
9.643092 93.154 -141.4255
9.712970 93.181 -141.7542
9.783354 93.208 -142.0835
9.854248 93.235 -142.4133
9.925656 93.261 -142.7434
9.997581 93.287 -143.0736
10.070028 93.313 -143.4036
10.143000 93.337 -143.7329
10.216500 93.361 -144.0610
10.290533 93.385 -144.3875
10.365103 93.407 -144.7119
10.440212 93.429 -145.0341
10.515866 93.450 -145.3534
10.592069 93.471 -145.6696
10.668823 93.491 -145.9825
10.746134 93.510 -146.2920
10.824005 93.529 -146.5980
10.902440 93.548 -146.9007
10.981443 93.566 -147.2001
11.061020 93.584 -147.4966
11.141172 93.602 -147.7903
11.221906 93.619 -148.0818
11.303225 93.636 -148.3714
11.385133 93.653 -148.6595
11.467634 93.670 -148.9466
11.550734 93.686 -149.2330
11.634435 93.703 -149.5190
11.718742 93.718 -149.8051
11.803661 93.734 -150.0915
11.889195 93.749 -150.3782
11.975349 93.763 -150.6655
12.062128 93.777 -150.9533
12.149535 93.791 -151.2416
12.237576 93.803 -151.5304
12.326254 93.816 -151.8195
12.415575 93.827 -152.1088
12.505544 93.839 -152.3983
12.596164 93.849 -152.6877
12.687441 93.859 -152.9772
12.779379 93.869 -153.2668
12.871984 93.878 -153.5564
12.965260 93.887 -153.8462
13.059211 93.895 -154.1364
13.153843 93.904 -154.4272
13.249161 93.912 -154.7189
13.345170 93.919 -155.0118
13.441875 93.927 -155.3060
13.539280 93.934 -155.6017
13.637391 93.941 -155.8993
13.736214 93.948 -156.1987
13.835752 93.954 -156.5000
13.936011 93.960 -156.8032
14.036998 93.966 -157.1081
14.138716 93.971 -157.4147
14.241171 93.977 -157.7226
14.344368 93.982 -158.0317
14.448313 93.986 -158.3417
14.553011 93.991 -158.6525
14.658468 93.995 -158.9637
14.764689 93.999 -159.2755
14.871680 94.004 -159.5876
14.979446 94.008 -159.9001
15.087994 94.012 -160.2132
15.197328 94.017 -160.5268
15.307454 94.022 -160.8412
15.418378 94.026 -161.1566
15.530106 94.032 -161.4730
15.642643 94.037 -161.7905
15.755996 94.042 -162.1091
15.870171 94.047 -162.4286
15.985172 94.053 -162.7491
16.101007 94.058 -163.0699
16.217682 94.063 -163.3909
16.335201 94.068 -163.7115
16.453573 94.074 -164.0314
16.572803 94.079 -164.3500
16.692898 94.084 -164.6669
16.813862 94.089 -164.9819
16.935701 94.094 -165.2946
17.058424 94.099 -165.6049
17.182035 94.104 -165.9127
17.306543 94.110 -166.2183
17.431953 94.115 -166.5216
17.558273 94.121 -166.8229
17.685509 94.127 -167.1223
17.813665 94.133 -167.4200
17.942751 94.138 -167.7161
18.072771 94.144 -168.0106
18.203733 94.150 -168.3034
18.335646 94.155 -168.5945
18.468513 94.160 -168.8836
18.602345 94.165 -169.1706
18.737144 94.169 -169.4553
18.872921 94.173 -169.7375
19.009682 94.177 -170.0173
19.147434 94.180 -170.2945
19.286184 94.183 -170.5693
19.425940 94.185 -170.8418
19.566708 94.188 -171.1123
19.708496 94.189 -171.3811
19.851313 94.191 -171.6484
19.995163 94.192 -171.9146
20.140057 94.193 -172.1798
20.285999 94.193 -172.4444
20.433001 94.193 -172.7085
20.581066 94.192 -172.9723
20.730206 94.191 -173.2359
20.880424 94.189 -173.4996
21.031733 94.187 -173.7635
21.184137 94.184 -174.0278
21.337646 94.181 -174.2927
21.492268 94.178 -174.5583
21.648010 94.174 -174.8249
21.804880 94.169 -175.0926
21.962887 94.165 -175.3615
22.122040 94.160 -175.6316
22.282345 94.154 -175.9030
22.443811 94.149 -176.1756
22.606449 94.143 -176.4495
22.770266 94.137 -176.7245
22.935268 94.131 -177.0009
23.101467 94.124 -177.2787
23.268869 94.118 -177.5577
23.437485 94.112 -177.8382
23.607323 94.105 -178.1200
23.778391 94.099 -178.4031
23.950699 94.093 -178.6872
24.124256 94.086 -178.9721
24.299070 94.080 -179.2574
24.475151 94.074 -179.5427
24.652508 94.068 -179.8276
24.831150 94.062 179.8881
25.011087 94.056 179.6049
25.192327 94.050 179.3226
25.374882 94.044 179.0414
25.558758 94.039 178.7613
25.743967 94.034 178.4820
25.930519 94.029 178.2037
26.118422 94.024 177.9264
26.307686 94.019 177.6503
26.498322 94.013 177.3756
26.690340 94.008 177.1028
26.883749 94.002 176.8323
27.078560 93.996 176.5644
27.274782 93.990 176.2992
27.472427 93.984 176.0369
27.671503 93.977 175.7773
27.872023 93.970 175.5202
28.073996 93.963 175.2649
28.277431 93.956 175.0110
28.482342 93.948 174.7580
28.688736 93.940 174.5052
28.896626 93.932 174.2522
29.106022 93.923 173.9988
29.316936 93.914 173.7450
29.529379 93.904 173.4909
29.743361 93.894 173.2367
29.958893 93.883 172.9824
30.175987 93.871 172.7281
30.394655 93.860 172.4734
30.614908 93.848 172.2178
30.836756 93.836 171.9604
31.060211 93.824 171.7004
31.285286 93.812 171.4370
31.511992 93.799 171.1701
31.740341 93.786 170.9003
31.970345 93.773 170.6285
32.202015 93.759 170.3565
32.435364 93.745 170.0856
32.670403 93.731 169.8173
32.907146 93.717 169.5518
33.145607 93.703 169.2887
33.385796 93.690 169.0267
33.627724 93.678 168.7645
33.871403 93.667 168.5009
34.116848 93.655 168.2356
34.364071 93.644 167.9693
34.613087 93.633 167.7034
34.863907 93.622 167.4390
35.116547 93.611 167.1769
35.371017 93.600 166.9159
35.627331 93.591 166.6538
35.885502 93.581 166.3875
36.145542 93.571 166.1145
36.407467 93.561 165.8338
36.671291 93.548 165.5473
36.937027 93.533 165.2597
37.204689 93.515 164.9770
37.474289 93.495 164.7057
37.745842 93.474 164.4502
38.019363 93.451 164.2114
38.294868 93.430 163.9866
38.572369 93.409 163.7702
38.851879 93.391 163.5555
39.133415 93.373 163.3369
39.416992 93.355 163.1112
39.702625 93.338 162.8782
39.990326 93.319 162.6398
40.280113 93.300 162.3991
40.571999 93.280 162.1583
40.866001 93.259 161.9181
41.162132 93.239 161.6781
41.460411 93.219 161.4369
41.760849 93.199 161.1933
42.063465 93.178 160.9474
42.368275 93.158 160.7001
42.675293 93.137 160.4526
42.984535 93.116 160.2062
43.296021 93.095 159.9614
43.609760 93.075 159.7180
43.925774 93.054 159.4753
44.244080 93.034 159.2329
44.564690 93.014 158.9911
44.887623 92.993 158.7501
45.212898 92.973 158.5103
45.540531 92.953 158.2717
45.870537 92.933 158.0336
46.202934 92.912 157.7954
46.537739 92.892 157.5567
46.874969 92.870 157.3179
47.214645 92.849 157.0803
47.556782 92.826 156.8454
47.901398 92.803 156.6145
48.248512 92.780 156.3879
48.598141 92.757 156.1647
48.950302 92.734 155.9434
49.305016 92.711 155.7225
49.662300 92.688 155.5010
50.022175 92.665 155.2785
50.384655 92.642 155.0554
50.749763 92.618 154.8322
51.117516 92.594 154.6096
51.487934 92.570 154.3882
51.861038 92.545 154.1685
52.236843 92.520 153.9508
52.615372 92.495 153.7353
52.996643 92.470 153.5218
53.380680 92.445 153.3097
53.767498 92.421 153.0983
54.157120 92.396 152.8868
54.549564 92.372 152.6744
54.944855 92.348 152.4604
55.343006 92.325 152.2442
55.744045 92.301 152.0253
56.147991 92.277 151.8031
56.554863 92.253 151.5776
56.964684 92.229 151.3489
57.377472 92.204 151.1176
57.793251 92.179 150.8842
58.212044 92.154 150.6486
58.633873 92.129 150.4108
59.058758 92.103 150.1703
59.486721 92.076 149.9275
59.917786 92.049 149.6838
60.351974 92.021 149.4412
60.789310 91.992 149.2021
61.229816 91.962 148.9680
61.673512 91.931 148.7403
62.120422 91.900 148.5190
62.570572 91.870 148.3037
63.023983 91.839 148.0933
63.480682 91.809 147.8863
63.940689 91.779 147.6812
64.404030 91.749 147.4760
64.870728 91.720 147.2685
65.340805 91.690 147.0561
65.814293 91.659 146.8380
66.291214 91.627 146.6175
66.771591 91.591 146.4024
67.255447 91.555 146.2023
67.742805 91.517 146.0235
68.233696 91.482 145.8646
68.728142 91.449 145.7168
69.226173 91.419 145.5679
69.727814 91.393 145.4063
70.233093 91.368 145.2235
70.742035 91.343 145.0148
71.254662 91.316 144.7812
71.771004 91.284 144.5325
72.291084 91.247 144.2873
72.814934 91.205 144.0670
73.342583 91.161 143.8846
73.874054 91.119 143.7378
74.409378 91.080 143.6110
74.948578 91.046 143.4868
75.491684 91.014 143.3543
76.038727 90.985 143.2095
76.589737 90.956 143.0509
77.144737 90.928 142.8783
77.703758 90.898 142.6966
78.266830 90.867 142.5158
78.833984 90.836 142.3446
79.405251 90.804 142.1829
79.980652 90.775 142.0217
80.560226 90.745 141.8516
81.143997 90.714 141.6723
81.732002 90.679 141.4946
82.324265 90.642 141.3345
82.920822 90.604 141.2013
83.521698 90.567 141.0899
84.126930 90.532 140.9841
84.736549 90.500 140.8707
85.350586 90.467 140.7484
85.969070 90.433 140.6231
86.592041 90.399 140.4977
87.219521 90.365 140.3685
87.851547 90.330 140.2321
88.488159 90.294 140.0911
89.129379 90.256 139.9511
89.775246 90.217 139.8154
90.425797 90.177 139.6840
91.081062 90.137 139.5577
91.741074 90.096 139.4397
92.405869 90.056 139.3336
93.075478 90.018 139.2383
93.749939 89.983 139.1490
94.429291 89.951 139.0595
95.113564 89.920 138.9657
95.802795 89.892 138.8673
96.497025 89.863 138.7680
97.196281 89.833 138.6733
97.900604 89.803 138.5884
98.610031 89.773 138.5176
99.324600 89.742 138.4618
100.044350 89.713 138.4169
100.769310 89.685 138.3747
101.499527 89.660 138.3276
102.235031 89.635 138.2710
102.975868 89.612 138.2035
103.722076 89.590 138.1266
104.473686 89.569 138.0411
105.230743 89.550 137.9449
105.993286 89.532 137.8343
106.761360 89.514 137.7094
107.534996 89.496 137.5736
108.314240 89.478 137.4292
109.099129 89.461 137.2742
109.889709 89.446 137.1045
110.686012 89.431 136.9177
111.488091 89.416 136.7157
112.295982 89.401 136.5056
113.109726 89.384 136.2975
113.929367 89.364 136.1024
114.754944 89.341 135.9279
115.586502 89.314 135.7792
116.424088 89.284 135.6606
117.267746 89.250 135.5746
118.117516 89.217 135.5148
118.973442 89.186 135.4577
119.835571 89.160 135.3641
120.703949 89.137 135.1997
121.578621 89.114 134.9586
122.459633 89.090 134.6616
123.347023 89.065 134.3385
124.240845 89.040 134.0154
125.141144 89.017 133.7112
126.047966 88.996 133.4371
126.961365 88.976 133.1999
127.881378 88.957 133.0030
128.808060 88.936 132.8459
129.741455 88.915 132.7231
130.681610 88.891 132.6226
131.628586 88.866 132.5231
132.582428 88.839 132.3979
133.543182 88.808 132.2263
134.510895 88.772 132.0062
135.485611 88.731 131.7546
136.467392 88.685 131.4933
137.456284 88.638 131.2367
138.452347 88.593 130.9911
139.455627 88.550 130.7583
140.466187 88.510 130.5378
141.484070 88.474 130.3276
142.509323 88.440 130.1254
143.542007 88.407 129.9294
144.582169 88.375 129.7396
145.629868 88.342 129.5593
146.685165 88.307 129.3926
147.748108 88.272 129.2413
148.818756 88.235 129.1049
149.897156 88.197 128.9817
150.983368 88.158 128.8673
152.077454 88.118 128.7562
153.179474 88.078 128.6463
154.289474 88.038 128.5382
155.407516 87.999 128.4320
156.533661 87.962 128.3254
157.667969 87.927 128.2141
158.810501 87.894 128.0941
159.961304 87.861 127.9649
161.120453 87.827 127.8297
162.287994 87.792 127.6932
163.464005 87.756 127.5576
164.648529 87.720 127.4213
165.841644 87.684 127.2816
167.043396 87.648 127.1383
168.253860 87.611 126.9954
169.473099 87.573 126.8581
170.701172 87.534 126.7299
171.938141 87.495 126.6120
173.184082 87.456 126.5049
174.439041 87.417 126.4091
175.703094 87.378 126.3247
176.976318 87.340 126.2501
178.258759 87.303 126.1835
179.550491 87.265 126.1247
180.851593 87.229 126.0745
182.162125 87.192 126.0320
183.482147 87.156 125.9960
184.811737 87.121 125.9667
186.150955 87.085 125.9462
187.499878 87.051 125.9373
188.858582 87.018 125.9436
190.227127 86.987 125.9684
191.605591 86.959 126.0128
192.994049 86.937 126.0736
194.392563 86.920 126.1435
195.801208 86.910 126.2130
197.220062 86.905 126.2717
198.649200 86.907 126.3088
200.088699 86.913 126.3138
201.538620 86.923 126.2767
202.999054 86.936 126.1901
204.470062 86.949 126.0507
205.951736 86.960 125.8596
207.444153 86.968 125.6228
208.947372 86.970 125.3504
210.461487 86.966 125.0549
211.986572 86.956 124.7499
213.522720 86.939 124.4482
215.069992 86.917 124.1611
216.628479 86.892 123.8963
218.198257 86.864 123.6572
219.779419 86.836 123.4416
221.372025 86.808 123.2433
222.976181 86.780 123.0554
224.591965 86.754 122.8731
226.219452 86.728 122.6940
227.858734 86.702 122.5177
229.509888 86.676 122.3443
231.173004 86.651 122.1735
232.848175 86.625 122.0048
234.535492 86.600 121.8374
236.235031 86.575 121.6702
237.946884 86.549 121.5028
239.671143 86.523 121.3352
241.407898 86.496 121.1687
243.157242 86.469 121.0052
244.919266 86.440 120.8474
246.694046 86.411 120.6980
248.481689 86.382 120.5602
250.282288 86.353 120.4366
252.095932 86.325 120.3288
253.922729 86.300 120.2351
255.762756 86.278 120.1487
257.616119 86.259 120.0592
259.482910 86.242 119.9561
261.363220 86.226 119.8344
263.257172 86.210 119.6960
265.164856 86.193 119.5484
267.086365 86.174 119.4006
269.021790 86.153 119.2592
270.971222 86.132 119.1274
272.934784 86.112 119.0045
274.912567 86.092 118.8886
276.904694 86.074 118.7776
278.911255 86.057 118.6704
280.932373 86.043 118.5655
282.968140 86.031 118.4592
285.018646 86.022 118.3454
287.084015 86.014 118.2166
289.164337 86.007 118.0663
291.259735 86.000 117.8926
293.370331 85.991 117.7012
295.496216 85.978 117.5023
297.637512 85.963 117.3066
299.794312 85.946 117.1209
301.966736 85.928 116.9473
304.154907 85.910 116.7840
306.358948 85.892 116.6273
308.578949 85.874 116.4732
310.815033 85.856 116.3186
313.067322 85.839 116.1623
315.335938 85.820 116.0059
317.621002 85.801 115.8535
319.922607 85.782 115.7091
322.240906 85.763 115.5746
324.575989 85.745 115.4488
326.928009 85.728 115.3290
329.297058 85.713 115.2121
331.683289 85.699 115.0953
334.086792 85.686 114.9761
336.507721 85.674 114.8524
338.946198 85.662 114.7237
341.402344 85.650 114.5910
343.876282 85.638 114.4572
346.368164 85.626 114.3246
348.878082 85.613 114.1945
351.406189 85.600 114.0671
353.952637 85.588 113.9419
356.517517 85.575 113.8186
359.100983 85.563 113.6966
361.703186 85.551 113.5756
364.324249 85.539 113.4556
366.964294 85.528 113.3373
369.623474 85.517 113.2215
372.301910 85.507 113.1091
374.999756 85.497 113.0006
377.717163 85.488 112.8957
380.454254 85.479 112.7938
383.211182 85.470 112.6942
385.988098 85.462 112.5967
388.785126 85.454 112.5014
391.602417 85.447 112.4085
394.440125 85.441 112.3180
397.298401 85.435 112.2291
400.177399 85.430 112.1403
403.077240 85.426 112.0503
405.998108 85.423 111.9577
408.940125 85.419 111.8630
411.903473 85.416 111.7685
414.888306 85.412 111.6778
417.894745 85.409 111.5942
420.922974 85.406 111.5192
423.973145 85.404 111.4527
427.045441 85.404 111.3929
430.139984 85.407 111.3361
433.256958 85.412 111.2782
436.396515 85.418 111.2165
439.558838 85.427 111.1508
442.744049 85.436 111.0805
445.952362 85.448 111.0026
449.183929 85.461 110.9113
452.438904 85.475 110.8002
455.717468 85.489 110.6663
459.019775 85.501 110.5140
462.346008 85.511 110.3543
465.696350 85.519 110.1996
469.070984 85.525 110.0573
472.470062 85.532 109.9286
475.893768 85.538 109.8101
479.342285 85.546 109.6958
482.815796 85.555 109.5795
486.314484 85.563 109.4591
489.838531 85.571 109.3384
493.388092 85.578 109.2249
496.963379 85.586 109.1216
500.564575 85.596 109.0244
504.191864 85.608 108.9253
507.845459 85.621 108.8176
511.525513 85.636 108.6991
515.232239 85.650 108.5718
518.965820 85.663 108.4400
522.726440 85.676 108.3086
526.514343 85.687 108.1816
530.329712 85.699 108.0601
534.172729 85.711 107.9421
538.043579 85.725 107.8236
541.942444 85.739 107.7030
545.869568 85.753 107.5808
549.825134 85.768 107.4576
553.809387 85.783 107.3316
557.822510 85.799 107.2000
561.864746 85.815 107.0612
565.936279 85.830 106.9162
570.037292 85.845 106.7683
574.168030 85.859 106.6213
578.328674 85.872 106.4772
582.519470 85.885 106.3361
586.740662 85.898 106.1986
590.992432 85.910 106.0674
595.275024 85.922 105.9449
599.588623 85.934 105.8300
603.933472 85.948 105.7184
608.309814 85.962 105.6057
612.717896 85.975 105.4902
617.157898 85.988 105.3739
621.630066 86.000 105.2625
626.134644 86.011 105.1627
630.671875 86.024 105.0774
635.242004 86.037 105.0030
639.845215 86.053 104.9338
644.481812 86.071 104.8674
649.151978 86.090 104.8040
653.856018 86.112 104.7419
658.594116 86.136 104.6741
663.366577 86.162 104.5903
668.173584 86.189 104.4828
673.015442 86.215 104.3524
677.892395 86.239 104.2078
682.804688 86.260 104.0591
687.752563 86.279 103.9139
692.736328 86.295 103.7783
697.756165 86.311 103.6565
702.812378 86.325 103.5499
707.905273 86.340 103.4560
713.035034 86.356 103.3701
718.201965 86.372 103.2888
723.406372 86.388 103.2110
728.648499 86.405 103.1371
733.928589 86.421 103.0678
739.246948 86.438 103.0037
744.603821 86.456 102.9454
749.999512 86.473 102.8939
755.434326 86.492 102.8496
760.908508 86.511 102.8128
766.422363 86.530 102.7829
771.976196 86.551 102.7590
777.570251 86.572 102.7398
783.204834 86.594 102.7251
788.880249 86.617 102.7163
794.596802 86.641 102.7165
800.354797 86.667 102.7281
806.154480 86.695 102.7491
811.996216 86.726 102.7729
817.880249 86.761 102.7904
823.806946 86.798 102.7918
829.776611 86.838 102.7698
835.789490 86.877 102.7229
841.845947 86.915 102.6584
847.946289 86.950 102.5879
854.090881 86.984 102.5198
860.279968 87.016 102.4586
866.513916 87.047 102.4069
872.793030 87.078 102.3678
879.117676 87.110 102.3403
885.488098 87.143 102.3195
891.904724 87.176 102.3014
898.367859 87.210 102.2857
904.877808 87.245 102.2746
911.434937 87.281 102.2690
918.039551 87.319 102.2671
924.692017 87.358 102.2658
931.392700 87.399 102.2616
938.141968 87.441 102.2510
944.940125 87.485 102.2324
951.787537 87.528 102.2070
958.684570 87.571 102.1774
965.631592 87.615 102.1462
972.628967 87.658 102.1159
979.677063 87.701 102.0872
986.776184 87.745 102.0592
993.926758 87.789 102.0331
1001.129150 87.834 102.0127
1008.383728 87.880 102.0019
1015.690918 87.928 101.9993
1023.051025 87.979 101.9993
1030.464478 88.034 101.9941
1037.931641 88.093 101.9723
1045.452881 88.155 101.9220
1053.028687 88.217 101.8381
1060.659424 88.278 101.7243
1068.345459 88.337 101.5898
1076.087158 88.393 101.4441
1083.884888 88.447 101.2941
1091.739136 88.499 101.1421
1099.650269 88.550 100.9887
1107.618774 88.599 100.8350
1115.645020 88.647 100.6826
1123.729492 88.694 100.5332
1131.872559 88.740 100.3881
1140.074585 88.785 100.2483
1148.336060 88.830 100.1145
1156.657349 88.875 99.9876
1165.038940 88.921 99.8683
1173.481323 88.968 99.7571
1181.984863 89.018 99.6519
1190.550049 89.071 99.5442
1199.177246 89.127 99.4208
1207.866943 89.186 99.2680
1216.619629 89.245 99.0790
1225.435791 89.301 98.8568
1234.315796 89.354 98.6102
1243.260132 89.403 98.3496
1252.269287 89.448 98.0847
1261.343750 89.490 97.8220
1270.484009 89.528 97.5649
1279.690430 89.563 97.3163
1288.963623 89.597 97.0784
1298.303955 89.629 96.8516
1307.712036 89.660 96.6338
1317.188232 89.690 96.4216
1326.733154 89.719 96.2131
1336.347168 89.746 96.0089
1346.030884 89.772 95.8119
1355.784790 89.796 95.6256
1365.609375 89.819 95.4536
1375.505127 89.840 95.3000
1385.472656 89.861 95.1695
1395.512329 89.883 95.0629
1405.624756 89.908 94.9746
1415.810547 89.937 94.8926
1426.070068 89.969 94.8023
1436.403931 90.002 94.6944
1446.812744 90.036 94.5686
1457.296997 90.069 94.4305
1467.857178 90.101 94.2868
1478.493896 90.131 94.1422
1489.207642 90.159 94.0008
1499.999023 90.186 93.8660
1510.868652 90.211 93.7410
1521.817017 90.236 93.6288
1532.844727 90.261 93.5319
1543.952393 90.286 93.4519
1555.140503 90.312 93.3887
1566.409668 90.342 93.3377
1577.760498 90.375 93.2876
1589.193604 90.412 93.2240
1600.709595 90.450 93.1376
1612.308960 90.489 93.0279
1623.992432 90.525 92.9006
1635.760498 90.560 92.7634
1647.613892 90.593 92.6230
1659.553223 90.624 92.4846
1671.578979 90.654 92.3515
1683.691895 90.682 92.2246
1695.892578 90.711 92.1016
1708.181763 90.738 91.9805
1720.559937 90.764 91.8615
1733.027832 90.789 91.7481
1745.586060 90.813 91.6456
1758.235352 90.835 91.5606
1770.976196 90.858 91.4983
1783.809448 90.883 91.4576
1796.735718 90.912 91.4284
1809.755615 90.944 91.3956
1822.869873 90.979 91.3475
1836.079102 91.015 91.2804
1849.384033 91.052 91.1960
1862.785400 91.088 91.0987
1876.283936 91.123 90.9939
1889.880249 91.156 90.8877
1903.575073 91.188 90.7862
1917.369141 91.219 90.6944
1931.263184 91.251 90.6158
1945.257935 91.284 90.5488
1959.354126 91.320 90.4844
1973.552368 91.360 90.4089
1987.853516 91.401 90.3116
2002.258301 91.443 90.1894
2016.767456 91.484 90.0455
2031.381836 91.523 89.8862
2046.102051 91.559 89.7184
2060.928955 91.594 89.5474
2075.863281 91.626 89.3756
2090.905762 91.656 89.2040
2106.057373 91.684 89.0354
2121.318848 91.709 88.8755
2136.690918 91.731 88.7331
2152.174316 91.752 88.6174
2167.769775 91.774 88.5321
2183.478271 91.799 88.4719
2199.300537 91.827 88.4264
2215.237549 91.859 88.3867
2231.290039 91.894 88.3480
2247.458984 91.933 88.3076
2263.745117 91.976 88.2640
2280.149170 92.022 88.2149
2296.672119 92.074 88.1562
2313.314697 92.131 88.0810
2330.077881 92.193 87.9776
2346.962646 92.261 87.8286
2363.969727 92.331 87.6171
2381.100098 92.401 87.3347
2398.354492 92.468 86.9841
2415.733887 92.529 86.5775
2433.239258 92.582 86.1316
2450.871582 92.627 85.6634
2468.631592 92.665 85.1870
2486.520264 92.695 84.7145
2504.538574 92.718 84.2582
2522.687500 92.736 83.8308
2540.968018 92.751 83.4424
2559.380859 92.767 83.0942
2577.927246 92.784 82.7765
2596.607910 92.806 82.4736
2615.424072 92.832 82.1697
2634.376465 92.861 81.8515
2653.466309 92.892 81.5104
2672.694336 92.924 81.1447
2692.061768 92.955 80.7579
2711.569580 92.986 80.3538
2731.218750 93.018 79.9297
2751.010254 93.050 79.4775
2770.945312 93.081 78.9897
2791.024658 93.111 78.4626
2811.249512 93.136 77.8977
2831.621094 93.157 77.2995
2852.140137 93.171 76.6740
2872.807861 93.179 76.0289
2893.625488 93.178 75.3759
2914.593994 93.170 74.7302
2935.714355 93.155 74.1055
2956.987793 93.135 73.5077
2978.415283 93.113 72.9347
2999.998047 93.089 72.3810
3021.737305 93.062 71.8419
3043.634033 93.034 71.3160
3065.689453 93.004 70.8063
3087.904785 92.972 70.3176
3110.281006 92.939 69.8502
3132.819336 92.907 69.3975
3155.520996 92.876 68.9491
3178.387207 92.845 68.4966
3201.419189 92.812 68.0370
3224.617920 92.777 67.5726
3247.984863 92.737 67.1106
3271.520996 92.691 66.6646
3295.227783 92.640 66.2541
3319.106445 92.585 65.9000
3343.157959 92.529 65.6144
3367.383789 92.478 65.3961
3391.785156 92.433 65.2324
3416.363525 92.397 65.1049
3441.119873 92.371 64.9961
3466.055664 92.355 64.8925
3491.172119 92.349 64.7826
3516.470703 92.353 64.6517
3541.952393 92.367 64.4827
3567.618896 92.390 64.2593
3593.471436 92.419 63.9690
3619.511230 92.454 63.6027
3645.739746 92.489 63.1562
3672.158203 92.524 62.6323
3698.768066 92.556 62.0404
3725.570801 92.585 61.3903
3752.567871 92.610 60.6869
3779.760498 92.631 59.9302
3807.150146 92.647 59.1198
3834.738281 92.657 58.2602
3862.526367 92.660 57.3612
3890.515869 92.656 56.4331
3918.708252 92.645 55.4811
3947.104736 92.628 54.5052
3975.707031 92.606 53.5031
4004.516602 92.578 52.4718
4033.534912 92.542 51.4100
4062.763672 92.497 50.3222
4092.204102 92.443 49.2186
4121.857910 92.379 48.1100
4151.726562 92.306 47.0029
4181.811523 92.224 45.9009
4212.114746 92.131 44.8099
4242.637695 92.027 43.7433
4273.381836 91.913 42.7183
4304.348633 91.791 41.7488
4335.539551 91.662 40.8408
4366.956543 91.531 39.9925
4398.601074 91.398 39.1950
4430.475098 91.265 38.4375
4462.580078 91.131 37.7135
4494.917969 90.996 37.0220
4527.490234 90.860 36.3630
4560.298340 90.722 35.7341
4593.344238 90.584 35.1334
4626.629395 90.443 34.5650
4660.155762 90.299 34.0393
4693.925293 90.153 33.5672
4727.939453 90.007 33.1554
4762.200195 89.862 32.8038
4796.708984 89.721 32.5062
4831.467773 89.585 32.2544
4866.478516 89.452 32.0445
4901.743164 89.324 31.8753
4937.263184 89.202 31.7445
4973.040527 89.085 31.6474
5009.077148 88.972 31.5826
5045.375000 88.865 31.5554
5081.936035 88.763 31.5738
5118.761719 88.668 31.6430
5155.854492 88.583 31.7613
5193.215820 88.509 31.9191
5230.848145 88.447 32.1038
5268.752930 88.398 32.3051
5306.932617 88.361 32.5149
5345.388672 88.337 32.7251
5384.123535 88.324 32.9288
5423.139160 88.322 33.1262
5462.437500 88.329 33.3242
5502.020508 88.347 33.5312
5541.890625 88.376 33.7512
5582.049316 88.420 33.9802
5622.499023 88.479 34.2087
5663.242188 88.554 34.4261
5704.280273 88.647 34.6212
5745.615723 88.757 34.7809
5787.250977 88.883 34.8925
5829.187988 89.024 34.9488
5871.428711 89.180 34.9484
5913.975586 89.351 34.8911
5956.830566 89.538 34.7725
5999.996094 89.741 34.5820
6043.474609 89.960 34.3053
6087.268066 90.197 33.9265
6131.378906 90.448 33.4271
6175.809570 90.714 32.7883
6220.562012 90.989 31.9961
6265.638672 91.273 31.0417
6311.041992 91.562 29.9204
6356.774414 91.853 28.6266
6402.838379 92.145 27.1535
6449.235840 92.432 25.4951
6495.969727 92.713 23.6471
6543.041992 92.981 21.6083
6590.455566 93.233 19.3833
6638.212891 93.462 16.9871
6686.315918 93.664 14.4443
6734.767578 93.837 11.7859
6783.570312 93.977 9.0464
6832.727051 94.084 6.2612
6882.239746 94.158 3.4651
6932.111328 94.201 0.6895
6982.344238 94.215 -2.0379
7032.941406 94.202 -4.6916
7083.904785 94.165 -7.2477
7135.237793 94.108 -9.6877
7186.942871 94.035 -11.9996
7239.022461 93.952 -14.1791
7291.479492 93.861 -16.2302
7344.316406 93.769 -18.1655
7397.536133 93.676 -20.0024
7451.141602 93.585 -21.7580
7505.135742 93.495 -23.4470
7559.520996 93.408 -25.0835
7614.300293 93.325 -26.6824
7669.476562 93.244 -28.2604
7725.052734 93.167 -29.8387
7781.031738 93.091 -31.4399
7837.416504 93.012 -33.0812
7894.209473 92.927 -34.7692
7951.414062 92.831 -36.5014
8009.033203 92.720 -38.2669
8067.069824 92.591 -40.0505
8125.527344 92.443 -41.8380
8184.408203 92.273 -43.6159
8243.715820 92.079 -45.3664
8303.453125 91.858 -47.0633
8363.623047 91.609 -48.6734
8424.229492 91.332 -50.1592
8485.275391 91.029 -51.4850
8546.763672 90.704 -52.6245
8608.697266 90.359 -53.5604
8671.079102 90.000 -54.2804
8733.913086 89.629 -54.7733
8797.202148 89.250 -55.0274
8860.950195 88.867 -55.0331
8925.160156 88.485 -54.7889
8989.835938 88.110 -54.3060
9054.980469 87.746 -53.6042
9120.596680 87.395 -52.7051
9186.688477 87.061 -51.6272
9253.258789 86.743 -50.3822
9320.311523 86.444 -48.9810
9387.850586 86.166 -47.4406
9455.878906 85.910 -45.7841
9524.400391 85.678 -44.0379
9593.417969 85.467 -42.2244
9662.935547 85.278 -40.3580
9732.957031 85.110 -38.4483
9803.486328 84.961 -36.5063
9874.526367 84.832 -34.5447
9946.081055 84.719 -32.5733
10018.154297 84.622 -30.5933
10090.750000 84.538 -28.5968
10163.872070 84.469 -26.5758
10237.523438 84.414 -24.5287
10311.708984 84.374 -22.4614
10386.431641 84.351 -20.3810
10461.696289 84.343 -18.2893
10537.505859 84.351 -16.1857
10613.865234 84.377 -14.0738
10690.777344 84.423 -11.9654
10768.247070 84.489 -9.8766
10846.278320 84.575 -7.8199
10924.875000 84.682 -5.8043
11004.041016 84.810 -3.8425
11083.781250 84.961 -1.9570
11164.098633 85.135 -0.1787
11244.998047 85.330 1.4603
11326.484375 85.544 2.9315
11408.560547 85.774 4.2069
11491.231445 86.015 5.2563
11574.501953 86.263 6.0517
11658.375977 86.508 6.5777
11742.857422 86.744 6.8375
11827.951172 86.964 6.8476
11913.661133 87.163 6.6277
11999.992188 87.337 6.1965
12086.949219 87.480 5.5764
12174.536133 87.586 4.7987
12262.757812 87.653 3.9023
12351.619141 87.676 2.9286
12441.124023 87.654 1.9230
12531.277344 87.585 0.9400
12622.083984 87.468 0.0442
12713.548828 87.306 -0.6972
12805.676758 87.105 -1.2235
12898.471680 86.872 -1.4826
12991.939453 86.614 -1.4315
13086.083984 86.343 -1.0399
13180.911133 86.071 -0.2957
13276.425781 85.808 0.7939
13372.631836 85.567 2.2060
13469.535156 85.359 3.9027
13567.140625 85.196 5.8239
13665.454102 85.084 7.8831
13764.479492 85.031 9.9742
13864.222656 85.034 11.9862
13964.688477 85.090 13.8153
14065.882812 85.188 15.3765
14167.809570 85.317 16.6167
14270.475586 85.464 17.5196
14373.885742 85.619 18.0961
14478.044922 85.773 18.3693
14582.958984 85.920 18.3671
14688.632812 86.057 18.1192
14795.072266 86.182 17.6514
14902.283203 86.293 16.9828
15010.271484 86.390 16.1300
15119.041992 86.472 15.1094
15228.600586 86.543 13.9351
15338.953125 86.604 12.6137
15450.105469 86.660 11.1410
15562.063477 86.716 9.4967
15674.833008 86.779 7.6373
15788.418945 86.853 5.4946
15902.828125 86.938 2.9798
16018.066406 87.028 -0.0076
16134.139648 87.110 -3.5681
16251.054688 87.159 -7.7816
16368.816406 87.144 -12.6772
16487.431641 87.023 -18.2029
16606.906250 86.753 -24.2028
16727.246094 86.297 -30.4070
16848.458984 85.632 -36.4488
16970.550781 84.749 -41.9121
17093.527344 83.663 -46.3898
17217.394531 82.402 -49.5315
17342.158203 81.011 -51.0946
17467.826172 79.545 -51.0149
17594.404297 78.069 -49.4822
17721.900391 76.649 -46.9548
17850.320312 75.331 -44.0232
17979.671875 74.131 -41.1593
18109.960938 73.028 -38.5307
18241.193359 71.984 -36.0064
18373.376953 70.965 -33.2935
18506.517578 69.961 -30.1031
18640.623047 68.986 -26.3056
18775.701172 68.066 -22.0301
18911.757812 67.224 -17.6243
19048.800781 66.461 -13.4585
19186.835938 65.756 -9.7182
19325.871094 65.081 -6.3573
19465.914062 64.420 -3.2181
19606.972656 63.785 -0.2007
19749.052734 63.214 2.6104
19892.162109 62.772 4.9045
20036.308594 62.527 6.2299
