* Measurement data measured by REW V5.31.3
* Source: EXCL: Microphone (USB Sound Device        ), MICROPHONE (Master Volume), R, volume: 0.390
* Format: 256k Log Swept Sine, 1 sweep at -12.0 dBFS with no timing reference
* Dated: Jul 14, 2025 2:47:09 PM
* REW Settings:
*  C-weighting compensation: Off
*  Target level: 75.0 dB
* Note: L CrinEar Daybreak 10ohm
* Measurement: L CrinEar Daybreak 10ohm
* Smoothing: 1/12 octave
* Frequency Step: 96 ppo
* Start Frequency: 0.36621094 Hz
*
* Freq(Hz) SPL(dB) Phase(degrees)
0.366211 93.855 159.1481
0.368865 93.850 159.1263
0.371538 93.841 159.0936
0.374230 93.831 159.0526
0.376942 93.819 159.0052
0.379673 93.806 158.9532
0.382424 93.793 158.8976
0.385196 93.780 158.8389
0.387987 93.766 158.7775
0.390798 93.752 158.7137
0.393630 93.738 158.6474
0.396483 93.724 158.5788
0.399356 93.709 158.5078
0.402250 93.695 158.4345
0.405165 93.681 158.3589
0.408101 93.666 158.2808
0.411058 93.651 158.2003
0.414037 93.636 158.1174
0.417037 93.621 158.0320
0.420059 93.606 157.9441
0.423103 93.591 157.8538
0.426169 93.576 157.7609
0.429257 93.560 157.6655
0.432368 93.545 157.5674
0.435501 93.529 157.4668
0.438656 93.514 157.3636
0.441835 93.498 157.2578
0.445037 93.482 157.1493
0.448262 93.466 157.0381
0.451510 93.450 156.9243
0.454782 93.433 156.8077
0.458077 93.417 156.6884
0.461397 93.400 156.5664
0.464740 93.384 156.4415
0.468108 93.367 156.3140
0.471500 93.350 156.1836
0.474917 93.333 156.0504
0.478358 93.316 155.9144
0.481825 93.298 155.7756
0.485316 93.281 155.6339
0.488833 93.263 155.4893
0.492375 93.246 155.3419
0.495943 93.228 155.1917
0.499537 93.210 155.0385
0.503157 93.192 154.8825
0.506803 93.174 154.7236
0.510475 93.156 154.5618
0.514175 93.137 154.3971
0.517900 93.119 154.2295
0.521653 93.100 154.0591
0.525434 93.081 153.8857
0.529241 93.062 153.7095
0.533076 93.043 153.5304
0.536939 93.024 153.3485
0.540830 93.004 153.1638
0.544749 92.985 152.9762
0.548696 92.965 152.7858
0.552673 92.945 152.5926
0.556677 92.925 152.3967
0.560711 92.905 152.1981
0.564774 92.885 151.9967
0.568867 92.865 151.7927
0.572989 92.844 151.5860
0.577141 92.823 151.3768
0.581324 92.802 151.1650
0.585536 92.781 150.9508
0.589779 92.760 150.7340
0.594053 92.739 150.5149
0.598358 92.718 150.2935
0.602694 92.696 150.0698
0.607061 92.674 149.8439
0.611460 92.652 149.6159
0.615891 92.630 149.3859
0.620354 92.608 149.1539
0.624849 92.586 148.9200
0.629377 92.563 148.6844
0.633938 92.540 148.4471
0.638532 92.517 148.2083
0.643159 92.494 147.9680
0.647819 92.471 147.7265
0.652514 92.448 147.4837
0.657242 92.424 147.2399
0.662005 92.400 146.9953
0.666802 92.376 146.7498
0.671634 92.352 146.5038
0.676501 92.328 146.2574
0.681403 92.304 146.0108
0.686341 92.279 145.7641
0.691314 92.254 145.5176
0.696324 92.229 145.2713
0.701370 92.204 145.0256
0.706452 92.178 144.7805
0.711571 92.152 144.5361
0.716728 92.125 144.2923
0.721921 92.097 144.0491
0.727153 92.067 143.8058
0.732422 92.036 143.5619
0.737729 92.002 143.3164
0.743075 91.967 143.0683
0.748460 91.930 142.8169
0.753883 91.892 142.5614
0.759346 91.853 142.3015
0.764849 91.813 142.0367
0.770391 91.772 141.7669
0.775974 91.731 141.4919
0.781597 91.689 141.2116
0.787261 91.647 140.9260
0.792966 91.604 140.6350
0.798712 91.561 140.3386
0.804500 91.517 140.0366
0.810329 91.472 139.7291
0.816201 91.427 139.4160
0.822116 91.381 139.0972
0.828073 91.335 138.7728
0.834074 91.288 138.4428
0.840118 91.240 138.1071
0.846206 91.191 137.7656
0.852338 91.141 137.4185
0.858514 91.091 137.0656
0.864735 91.040 136.7071
0.871001 90.988 136.3429
0.877313 90.935 135.9730
0.883670 90.881 135.5976
0.890074 90.826 135.2166
0.896524 90.770 134.8301
0.903020 90.714 134.4382
0.909564 90.656 134.0410
0.916155 90.596 133.6385
0.922794 90.536 133.2310
0.929481 90.474 132.8185
0.936216 90.412 132.4012
0.943000 90.347 131.9793
0.949834 90.282 131.5529
0.956717 90.215 131.1224
0.963649 90.147 130.6879
0.970632 90.077 130.2497
0.977666 90.005 129.8081
0.984750 89.932 129.3635
0.991886 89.857 128.9161
0.999074 89.781 128.4665
1.006314 89.703 128.0150
1.013606 89.623 127.5621
1.020951 89.541 127.1084
1.028349 89.457 126.6542
1.035801 89.371 126.2004
1.043307 89.283 125.7474
1.050867 89.192 125.2959
1.058482 89.100 124.8467
1.066152 89.005 124.4003
1.073878 88.909 123.9574
1.081660 88.810 123.5185
1.089498 88.709 123.0838
1.097393 88.608 122.6533
1.105345 88.505 122.2268
1.113355 88.401 121.8037
1.121423 88.298 121.3834
1.129549 88.194 120.9653
1.137734 88.091 120.5490
1.145979 87.988 120.1341
1.154283 87.885 119.7201
1.162647 87.782 119.3067
1.171072 87.678 118.8936
1.179558 87.574 118.4805
1.188106 87.468 118.0669
1.196715 87.362 117.6526
1.205387 87.254 117.2373
1.214122 87.144 116.8204
1.222920 87.031 116.4017
1.231782 86.917 115.9806
1.240708 86.799 115.5569
1.249699 86.678 115.1300
1.258754 86.553 114.6994
1.267876 86.424 114.2647
1.277063 86.291 113.8252
1.286318 86.153 113.3806
1.295639 86.009 112.9300
1.305027 85.859 112.4729
1.314484 85.703 112.0088
1.324009 85.540 111.5368
1.333604 85.369 111.0562
1.343268 85.191 110.5663
1.353002 85.004 110.0664
1.362806 84.808 109.5555
1.372681 84.602 109.0330
1.382628 84.386 108.4978
1.392647 84.159 107.9491
1.402739 83.920 107.3863
1.412904 83.669 106.8084
1.423142 83.404 106.2148
1.433455 83.124 105.6052
1.443843 82.828 104.9795
1.454305 82.513 104.3378
1.464844 82.178 103.6810
1.475459 81.817 103.0097
1.486150 81.429 102.3247
1.496920 81.012 101.6263
1.507767 80.563 100.9140
1.518693 80.083 100.1866
1.529698 79.573 99.4424
1.540783 79.033 98.6793
1.551948 78.465 97.8944
1.563194 77.871 97.0845
1.574521 77.254 96.2456
1.585931 76.615 95.3731
1.597423 75.959 94.4615
1.608999 75.287 93.5043
1.620658 74.602 92.4938
1.632402 73.909 91.4206
1.644232 73.210 90.2734
1.656146 72.510 89.0381
1.668147 71.813 87.6978
1.680235 71.122 86.2311
1.692411 70.444 84.6111
1.704675 69.782 82.8036
1.717028 69.143 80.7649
1.729470 68.532 78.4381
1.742003 67.956 75.7489
1.754626 67.423 72.5989
1.767341 66.938 68.8584
1.780147 66.511 64.3563
1.793047 66.149 58.8717
1.806040 65.861 52.1330
1.819128 65.653 43.8428
1.832310 65.531 33.7656
1.845587 65.498 21.9125
1.858961 65.556 8.7752
1.872432 65.701 -4.6408
1.886001 65.931 -17.2052
1.899667 66.240 -28.1784
1.913433 66.620 -37.3642
1.927299 67.066 -44.9196
1.941265 67.569 -51.1268
1.955332 68.122 -56.2661
1.969501 68.717 -60.5707
1.983773 69.346 -64.2214
1.998148 70.002 -67.3549
2.012627 70.676 -70.0734
2.027212 71.361 -72.4540
2.041902 72.050 -74.5548
2.056698 72.735 -76.4205
2.071602 73.408 -78.0855
2.086614 74.063 -79.5766
2.101734 74.693 -80.9156
2.116964 75.291 -82.1200
2.132304 75.853 -83.2050
2.147756 76.374 -84.1847
2.163320 76.851 -85.0730
2.178996 77.283 -85.8848
2.194786 77.673 -86.6362
2.210690 78.023 -87.3442
2.226710 78.339 -88.0242
2.242845 78.625 -88.6877
2.259098 78.884 -89.3421
2.275468 79.120 -89.9909
2.291957 79.335 -90.6352
2.308566 79.530 -91.2739
2.325295 79.707 -91.9049
2.342145 79.868 -92.5255
2.359117 80.013 -93.1326
2.376212 80.145 -93.7226
2.393431 80.265 -94.2918
2.410775 80.376 -94.8365
2.428244 80.477 -95.3527
2.445840 80.572 -95.8365
2.463564 80.661 -96.2840
2.481416 80.747 -96.6915
2.499397 80.831 -97.0561
2.517509 80.913 -97.3758
2.535752 80.994 -97.6502
2.554127 81.074 -97.8805
2.572635 81.150 -98.0704
2.591277 81.221 -98.2244
2.610055 81.286 -98.3470
2.628968 81.342 -98.4417
2.648019 81.391 -98.5106
2.667208 81.431 -98.5546
2.686535 81.463 -98.5736
2.706003 81.489 -98.5669
2.725612 81.509 -98.5333
2.745363 81.523 -98.4715
2.765257 81.535 -98.3797
2.785295 81.544 -98.2560
2.805478 81.552 -98.0987
2.825808 81.561 -97.9055
2.846285 81.571 -97.6746
2.866910 81.584 -97.4038
2.887685 81.600 -97.0910
2.908611 81.620 -96.7339
2.929688 81.643 -96.3306
2.950917 81.669 -95.8793
2.972301 81.697 -95.3790
2.993839 81.726 -94.8300
3.015534 81.756 -94.2339
3.037386 81.786 -93.5936
3.059396 81.818 -92.9127
3.081565 81.852 -92.1961
3.103896 81.888 -91.4489
3.126388 81.927 -90.6769
3.149043 81.970 -89.8863
3.171862 82.018 -89.0835
3.194847 82.072 -88.2745
3.217998 82.133 -87.4650
3.241317 82.201 -86.6593
3.264805 82.277 -85.8599
3.288463 82.362 -85.0674
3.312293 82.457 -84.2805
3.336295 82.561 -83.4973
3.360471 82.674 -82.7177
3.384822 82.795 -81.9435
3.409350 82.924 -81.1788
3.434056 83.061 -80.4294
3.458940 83.203 -79.7018
3.484005 83.350 -79.0028
3.509252 83.500 -78.3392
3.534681 83.653 -77.7173
3.560295 83.807 -77.1427
3.586094 83.962 -76.6197
3.612081 84.117 -76.1513
3.638255 84.272 -75.7388
3.664620 84.427 -75.3815
3.691175 84.582 -75.0768
3.717923 84.738 -74.8215
3.744864 84.895 -74.6120
3.772001 85.053 -74.4453
3.799335 85.211 -74.3185
3.826866 85.369 -74.2292
3.854597 85.526 -74.1756
3.882529 85.681 -74.1558
3.910664 85.833 -74.1685
3.939002 85.981 -74.2126
3.967546 86.126 -74.2878
3.996296 86.265 -74.3938
4.025255 86.400 -74.5312
4.054423 86.529 -74.7002
4.083804 86.653 -74.9007
4.113396 86.773 -75.1314
4.143204 86.888 -75.3896
4.173227 86.998 -75.6721
4.203468 87.103 -75.9747
4.233928 87.204 -76.2935
4.264609 87.301 -76.6244
4.295512 87.392 -76.9643
4.326639 87.479 -77.3106
4.357992 87.560 -77.6623
4.389572 87.637 -78.0197
4.421380 87.708 -78.3840
4.453419 87.773 -78.7566
4.485691 87.833 -79.1380
4.518196 87.887 -79.5268
4.550936 87.936 -79.9207
4.583914 87.981 -80.3159
4.617131 88.021 -80.7083
4.650589 88.057 -81.0938
4.684289 88.089 -81.4686
4.718233 88.118 -81.8298
4.752424 88.143 -82.1760
4.786862 88.164 -82.5070
4.821549 88.181 -82.8238
4.856488 88.194 -83.1270
4.891680 88.204 -83.4172
4.927127 88.211 -83.6941
4.962831 88.215 -83.9568
4.998794 88.217 -84.2038
5.035017 88.219 -84.4335
5.071503 88.219 -84.6441
5.108253 88.220 -84.8339
5.145270 88.220 -85.0019
5.182555 88.220 -85.1477
5.220110 88.220 -85.2721
5.257937 88.220 -85.3769
5.296038 88.221 -85.4648
5.334415 88.223 -85.5386
5.373071 88.226 -85.6013
5.412006 88.232 -85.6557
5.451224 88.240 -85.7034
5.490725 88.252 -85.7454
5.530514 88.267 -85.7821
5.570590 88.285 -85.8141
5.610957 88.307 -85.8431
5.651616 88.332 -85.8725
5.692570 88.360 -85.9063
5.733821 88.391 -85.9493
5.775370 88.424 -86.0062
5.817221 88.461 -86.0807
5.859375 88.501 -86.1750
5.901834 88.543 -86.2905
5.944602 88.589 -86.4275
5.987679 88.637 -86.5865
6.031068 88.687 -86.7687
6.074771 88.738 -86.9755
6.118792 88.791 -87.2091
6.163131 88.844 -87.4711
6.207792 88.897 -87.7633
6.252776 88.949 -88.0863
6.298086 89.002 -88.4402
6.343725 89.054 -88.8236
6.389694 89.105 -89.2346
6.435996 89.155 -89.6709
6.482634 89.203 -90.1304
6.529610 89.250 -90.6114
6.576926 89.294 -91.1127
6.624585 89.335 -91.6339
6.672590 89.374 -92.1740
6.720942 89.411 -92.7315
6.769645 89.445 -93.3035
6.818700 89.477 -93.8867
6.868111 89.506 -94.4774
6.917881 89.533 -95.0726
6.968010 89.558 -95.6704
7.018504 89.580 -96.2695
7.069362 89.600 -96.8690
7.120590 89.618 -97.4675
7.172189 89.635 -98.0627
7.224161 89.651 -98.6521
7.276511 89.666 -99.2334
7.329239 89.681 -99.8045
7.382350 89.696 -100.3646
7.435845 89.710 -100.9135
7.489729 89.726 -101.4513
7.544002 89.742 -101.9785
7.598669 89.760 -102.4953
7.653732 89.780 -103.0017
7.709194 89.802 -103.4979
7.765058 89.827 -103.9843
7.821327 89.854 -104.4620
7.878004 89.884 -104.9328
7.935091 89.917 -105.3989
7.992592 89.953 -105.8625
8.050510 89.993 -106.3255
8.108847 90.036 -106.7890
8.167607 90.082 -107.2542
8.226793 90.131 -107.7224
8.286408 90.183 -108.1952
8.346454 90.237 -108.6743
8.406936 90.294 -109.1611
8.467856 90.352 -109.6564
8.529218 90.412 -110.1605
8.591024 90.474 -110.6729
8.653278 90.537 -111.1932
8.715983 90.601 -111.7209
8.779143 90.664 -112.2555
8.842760 90.728 -112.7962
8.906839 90.792 -113.3420
8.971381 90.855 -113.8910
9.036392 90.917 -114.4414
9.101873 90.979 -114.9911
9.167829 91.040 -115.5383
9.234263 91.099 -116.0815
9.301178 91.158 -116.6193
9.368578 91.216 -117.1497
9.436467 91.272 -117.6710
9.504847 91.328 -118.1816
9.573723 91.383 -118.6801
9.643099 91.437 -119.1658
9.712976 91.490 -119.6382
9.783361 91.543 -120.0967
9.854255 91.596 -120.5412
9.925663 91.649 -120.9715
9.997588 91.702 -121.3878
10.070035 91.755 -121.7908
10.143007 91.808 -122.1814
10.216507 91.862 -122.5605
10.290540 91.916 -122.9291
10.365109 91.970 -123.2881
10.440219 92.024 -123.6386
10.515873 92.078 -123.9817
10.592076 92.133 -124.3187
10.668830 92.187 -124.6503
10.746141 92.241 -124.9774
10.824012 92.295 -125.3005
10.902447 92.348 -125.6202
10.981451 92.400 -125.9369
11.061027 92.452 -126.2509
11.141180 92.502 -126.5623
11.221913 92.551 -126.8711
11.303232 92.600 -127.1772
11.385140 92.646 -127.4805
11.467641 92.692 -127.7811
11.550741 92.736 -128.0789
11.634442 92.778 -128.3739
11.718750 92.819 -128.6663
11.803669 92.859 -128.9561
11.889203 92.898 -129.2437
11.975357 92.935 -129.5295
12.062136 92.970 -129.8140
12.149543 93.005 -130.0977
12.237583 93.038 -130.3811
12.326262 93.070 -130.6649
12.415583 93.100 -130.9496
12.505552 93.129 -131.2357
12.596172 93.157 -131.5236
12.687449 93.183 -131.8137
12.779387 93.207 -132.1063
12.871992 93.230 -132.4014
12.965268 93.252 -132.6992
13.059220 93.272 -132.9997
13.153852 93.290 -133.3027
13.249170 93.307 -133.6083
13.345179 93.323 -133.9163
13.441884 93.337 -134.2269
13.539289 93.351 -134.5402
13.637401 93.363 -134.8564
13.736223 93.375 -135.1759
13.835761 93.386 -135.4993
13.936021 93.396 -135.8273
14.037007 93.406 -136.1605
14.138725 93.416 -136.4998
14.241180 93.426 -136.8461
14.344377 93.435 -137.2001
14.448323 93.445 -137.5624
14.553021 93.454 -137.9336
14.658478 93.463 -138.3139
14.764700 93.472 -138.7034
14.871691 93.481 -139.1018
14.979457 93.489 -139.5086
15.088005 93.497 -139.9231
15.197339 93.505 -140.3444
15.307465 93.512 -140.7715
15.418389 93.520 -141.2033
15.530117 93.528 -141.6387
15.642655 93.536 -142.0769
15.756008 93.544 -142.5170
15.870182 93.553 -142.9583
15.985184 93.563 -143.4006
16.101019 93.573 -143.8436
16.217694 93.585 -144.2875
16.335214 93.598 -144.7324
16.453586 93.613 -145.1785
16.572815 93.628 -145.6260
16.692909 93.645 -146.0752
16.813872 93.663 -146.5260
16.935713 93.682 -146.9782
17.058436 93.701 -147.4314
17.182048 93.721 -147.8846
17.306556 93.742 -148.3371
17.431967 93.762 -148.7876
17.558286 93.783 -149.2347
17.685521 93.804 -149.6770
17.813677 93.824 -150.1133
17.942762 93.844 -150.5421
18.072783 93.864 -150.9625
18.203746 93.884 -151.3735
18.335658 93.904 -151.7745
18.468526 93.924 -152.1652
18.602356 93.943 -152.5455
18.737156 93.963 -152.9155
18.872934 93.982 -153.2756
19.009695 94.001 -153.6263
19.147447 94.020 -153.9682
19.286197 94.039 -154.3022
19.425953 94.057 -154.6291
19.566721 94.074 -154.9497
19.708510 94.091 -155.2651
19.851326 94.108 -155.5762
19.995177 94.123 -155.8839
20.140070 94.137 -156.1890
20.286013 94.151 -156.4923
20.433014 94.163 -156.7946
20.581080 94.173 -157.0964
20.730219 94.182 -157.3980
20.880439 94.190 -157.6998
21.031747 94.195 -158.0017
21.184152 94.200 -158.3040
21.337661 94.202 -158.6067
21.492282 94.203 -158.9099
21.648024 94.202 -159.2139
21.804895 94.201 -159.5191
21.962902 94.198 -159.8262
22.122054 94.194 -160.1357
22.282360 94.190 -160.4488
22.443827 94.185 -160.7661
22.606464 94.179 -161.0887
22.770280 94.173 -161.4171
22.935283 94.167 -161.7518
23.101481 94.160 -162.0929
23.268884 94.153 -162.4404
23.437500 94.146 -162.7940
23.607338 94.139 -163.1530
23.778406 94.132 -163.5171
23.950714 94.125 -163.8855
24.124271 94.118 -164.2577
24.299086 94.113 -164.6332
24.475167 94.107 -165.0115
24.652524 94.103 -165.3922
24.831166 94.100 -165.7749
25.011103 94.097 -166.1590
25.192344 94.095 -166.5439
25.374898 94.095 -166.9289
25.558775 94.095 -167.3135
25.743984 94.096 -167.6968
25.930536 94.098 -168.0783
26.118439 94.100 -168.4575
26.307704 94.103 -168.8337
26.498341 94.106 -169.2066
26.690359 94.110 -169.5756
26.883768 94.113 -169.9402
27.078579 94.117 -170.2998
27.274801 94.120 -170.6537
27.472446 94.122 -171.0012
27.671522 94.124 -171.3420
27.872042 94.125 -171.6757
28.074014 94.125 -172.0024
28.277450 94.125 -172.3224
28.482360 94.124 -172.6364
28.688755 94.122 -172.9451
28.896645 94.119 -173.2495
29.106042 94.115 -173.5506
29.316957 94.109 -173.8493
29.529400 94.103 -174.1464
29.743382 94.096 -174.4428
29.958915 94.087 -174.7395
30.176009 94.078 -175.0371
30.394677 94.067 -175.3368
30.614929 94.055 -175.6392
30.836778 94.043 -175.9452
31.060234 94.029 -176.2552
31.285309 94.015 -176.5694
31.512015 94.000 -176.8878
31.740364 93.985 -177.2102
31.970368 93.969 -177.5363
32.202039 93.953 -177.8661
32.435388 93.937 -178.1996
32.670428 93.922 -178.5368
32.907171 93.906 -178.8781
33.145630 93.891 -179.2232
33.385817 93.877 -179.5720
33.627745 93.862 -179.9234
33.871425 93.847 179.7237
34.116871 93.833 179.3710
34.364096 93.819 179.0198
34.613113 93.804 178.6717
34.863934 93.790 178.3274
35.116572 93.776 177.9875
35.371041 93.763 177.6520
35.627354 93.749 177.3209
35.885525 93.735 176.9942
36.145566 93.721 176.6721
36.407492 93.706 176.3550
36.671316 93.691 176.0435
36.937051 93.675 175.7381
37.204712 93.658 175.4390
37.474313 93.641 175.1458
37.745867 93.624 174.8575
38.019389 93.605 174.5728
38.294893 93.587 174.2900
38.572394 93.568 174.0077
38.851905 93.548 173.7247
39.133442 93.528 173.4406
39.417019 93.507 173.1553
39.702651 93.485 172.8688
39.990353 93.462 172.5815
40.280140 93.439 172.2931
40.572026 93.415 172.0036
40.866028 93.391 171.7128
41.162160 93.367 171.4210
41.460438 93.342 171.1287
41.760877 93.317 170.8370
42.063494 93.292 170.5469
42.368303 93.266 170.2592
42.675322 93.241 169.9740
42.984565 93.216 169.6909
43.296048 93.191 169.4094
43.609789 93.166 169.1289
43.925804 93.141 168.8491
44.244108 93.116 168.5701
44.564719 93.091 168.2923
44.887654 93.065 168.0161
45.212928 93.039 167.7416
45.540560 93.013 167.4688
45.870565 92.986 167.1975
46.202962 92.959 166.9276
46.537768 92.931 166.6592
46.875000 92.903 166.3932
47.214676 92.874 166.1302
47.556813 92.844 165.8710
47.901429 92.814 165.6160
48.248542 92.785 165.3652
48.598171 92.755 165.1180
48.950334 92.725 164.8734
49.305048 92.696 164.6304
49.662333 92.666 164.3881
50.022206 92.637 164.1459
50.384688 92.607 163.9041
50.749796 92.576 163.6633
51.117550 92.545 163.4248
51.487969 92.513 163.1898
51.861072 92.481 162.9591
52.236879 92.447 162.7329
52.615409 92.414 162.5109
52.996681 92.380 162.2924
53.380717 92.346 162.0767
53.767536 92.311 161.8633
54.157158 92.277 161.6512
54.549603 92.242 161.4397
54.944892 92.208 161.2280
55.343045 92.174 161.0160
55.744084 92.140 160.8038
56.148028 92.105 160.5917
56.554900 92.072 160.3795
56.964720 92.038 160.1666
57.377510 92.005 159.9520
57.793291 91.972 159.7352
58.212085 91.939 159.5162
58.633914 91.905 159.2960
59.058799 91.870 159.0756
59.486764 91.834 158.8564
59.917829 91.796 158.6399
60.352019 91.758 158.4282
60.789354 91.718 158.2231
61.229859 91.676 158.0261
61.673556 91.634 157.8369
62.120468 91.592 157.6540
62.570618 91.550 157.4751
63.024031 91.507 157.2984
63.480729 91.465 157.1228
63.940736 91.422 156.9481
64.404077 91.379 156.7745
64.870776 91.336 156.6026
65.340856 91.293 156.4332
65.814343 91.250 156.2673
66.291261 91.206 156.1058
66.771635 91.163 155.9494
67.255489 91.119 155.7982
67.742850 91.075 155.6526
68.233743 91.031 155.5131
68.728193 90.986 155.3801
69.226226 90.941 155.2537
69.727867 90.896 155.1329
70.233144 90.852 155.0160
70.742083 90.807 154.9007
71.254709 90.762 154.7857
71.771050 90.718 154.6711
72.291132 90.673 154.5577
72.814984 90.628 154.4463
73.342631 90.583 154.3366
73.874102 90.539 154.2276
74.409424 90.495 154.1182
74.948626 90.451 154.0082
75.491734 90.407 153.8993
76.038779 90.362 153.7936
76.589787 90.317 153.6924
77.144788 90.272 153.5955
77.703811 90.227 153.5013
78.266885 90.182 153.4081
78.834039 90.136 153.3148
79.405303 90.091 153.2206
79.980706 90.044 153.1249
80.560280 89.998 153.0272
81.144053 89.950 152.9275
81.732056 89.903 152.8256
82.324320 89.854 152.7214
82.920876 89.804 152.6161
83.521755 89.753 152.5121
84.126988 89.701 152.4130
84.736607 89.647 152.3223
85.350643 89.591 152.2431
85.969129 89.534 152.1779
86.592097 89.477 152.1278
87.219579 89.419 152.0919
87.851608 89.360 152.0680
88.488217 89.302 152.0533
89.129439 89.244 152.0457
89.775308 89.186 152.0438
90.425856 89.129 152.0468
91.081119 89.071 152.0542
91.741131 89.014 152.0658
92.405925 88.957 152.0820
93.075536 88.901 152.1035
93.750000 88.845 152.1307
94.429351 88.788 152.1643
95.113625 88.732 152.2047
95.802858 88.675 152.2522
96.497085 88.617 152.3064
97.196342 88.558 152.3663
97.900667 88.499 152.4314
98.610096 88.438 152.5013
99.324665 88.378 152.5760
100.044413 88.318 152.6545
100.769376 88.258 152.7348
101.499592 88.198 152.8161
102.235100 88.137 152.9046
102.975938 88.074 153.0144
103.722144 88.010 153.1595
104.473757 87.945 153.3420
105.230817 87.882 153.5516
105.993363 87.819 153.7744
106.761435 87.757 153.9996
107.535072 87.694 154.2213
108.314315 87.632 154.4367
109.099206 87.571 154.6467
109.889783 87.511 154.8585
110.686090 87.452 155.0922
111.488167 87.393 155.3806
112.296056 87.335 155.7602
113.109800 87.278 156.2595
113.929440 87.223 156.8954
114.755020 87.169 157.6771
115.586582 87.118 158.6086
116.424170 87.075 159.6800
117.267827 87.050 160.8439
118.117598 87.053 161.9974
118.973527 87.088 162.9835
119.835658 87.149 163.6382
120.704037 87.217 163.8921
121.578708 87.276 163.8250
122.459718 87.322 163.5905
123.347111 87.362 163.3083
124.240935 87.400 163.0333
125.141236 87.438 162.7816
126.048061 87.472 162.5578
126.961458 87.499 162.3649
127.881473 87.514 162.1986
128.808154 87.518 162.0447
129.741551 87.510 161.8892
130.681712 87.490 161.7302
131.628686 87.462 161.5766
132.582521 87.428 161.4387
133.543269 87.391 161.3250
134.510979 87.354 161.2392
135.485701 87.316 161.1820
136.467486 87.277 161.1549
137.456386 87.235 161.1591
138.452451 87.192 161.1906
139.455735 87.149 161.2404
140.466288 87.106 161.2994
141.484165 87.066 161.3641
142.509418 87.027 161.4359
143.542100 86.991 161.5180
144.582265 86.956 161.6138
145.629968 86.922 161.7255
146.685262 86.888 161.8532
147.748204 86.854 161.9952
148.818849 86.819 162.1485
149.897251 86.784 162.3101
150.983469 86.748 162.4779
152.077557 86.714 162.6522
153.179574 86.680 162.8347
154.289576 86.648 163.0269
155.407622 86.619 163.2275
156.533770 86.592 163.4314
157.668078 86.567 163.6321
158.810606 86.545 163.8247
159.961413 86.524 164.0082
161.120559 86.503 164.1843
162.288105 86.483 164.3554
163.464112 86.464 164.5235
164.648640 86.444 164.6898
165.841752 86.423 164.8557
167.043510 86.401 165.0220
168.253976 86.378 165.1902
169.473213 86.355 165.3617
170.701286 86.333 165.5386
171.938258 86.313 165.7219
173.184194 86.294 165.9119
174.439158 86.278 166.1086
175.703216 86.263 166.3127
176.976434 86.248 166.5246
178.258878 86.232 166.7433
179.550615 86.216 166.9659
180.851713 86.200 167.1876
182.162239 86.183 167.4033
183.482262 86.168 167.6102
184.811850 86.153 167.8086
186.151073 86.138 168.0007
187.500000 86.123 168.1895
188.858702 86.108 168.3759
190.227250 86.094 168.5598
191.605715 86.080 168.7404
192.994169 86.067 168.9175
194.392685 86.054 169.0930
195.801334 86.041 169.2698
197.220191 86.029 169.4496
198.649330 86.015 169.6324
200.088825 86.002 169.8163
201.538751 85.988 169.9991
202.999184 85.976 170.1791
204.470200 85.966 170.3568
205.951875 85.957 170.5337
207.444287 85.950 170.7115
208.947514 85.944 170.8895
210.461634 85.937 171.0640
211.986726 85.929 171.2335
213.522869 85.919 171.4003
215.070144 85.907 171.5701
216.628631 85.894 171.7485
218.198411 85.882 171.9389
219.779567 85.870 172.1395
221.372180 85.859 172.3443
222.976334 85.850 172.5463
224.592112 85.842 172.7411
226.219600 85.835 172.9278
227.858880 85.828 173.1082
229.510039 85.821 173.2853
231.173164 85.813 173.4624
232.848340 85.805 173.6407
234.535655 85.797 173.8192
236.235197 85.788 173.9947
237.947054 85.779 174.1651
239.671317 85.769 174.3311
241.408074 85.757 174.4958
243.157416 85.745 174.6646
244.919435 85.731 174.8419
246.694223 85.716 175.0320
248.481871 85.700 175.2391
250.282473 85.683 175.4673
252.096123 85.668 175.7201
253.922915 85.654 175.9979
255.762945 85.644 176.2968
257.616309 85.637 176.6085
259.483103 85.635 176.9234
261.363424 85.636 177.2360
263.257372 85.639 177.5463
265.165043 85.645 177.8575
267.086538 85.655 178.1709
269.021957 85.669 178.4834
270.971401 85.688 178.7869
272.934972 85.713 179.0696
274.912771 85.742 179.3188
276.904902 85.775 179.5247
278.911469 85.810 179.6823
280.932577 85.844 179.7923
282.968330 85.876 179.8586
285.018835 85.905 179.8867
287.084199 85.930 179.8810
289.164530 85.950 179.8466
291.259935 85.965 179.7908
293.370525 85.974 179.7249
295.496408 85.976 179.6631
297.637697 85.972 179.6174
299.794503 85.965 179.5952
301.966937 85.955 179.5978
304.155114 85.945 179.6227
306.359147 85.933 179.6652
308.579152 85.922 179.7204
310.815244 85.911 179.7838
313.067539 85.900 179.8521
315.336156 85.888 179.9253
317.621211 85.875 -179.9937
319.922826 85.862 -179.9006
322.241118 85.849 -179.7937
324.576210 85.837 -179.6749
326.928223 85.826 -179.5483
329.297280 85.816 -179.4180
331.683504 85.808 -179.2871
334.087019 85.800 -179.1581
336.507952 85.793 -179.0328
338.946427 85.786 -178.9117
341.402572 85.779 -178.7939
343.876516 85.771 -178.6770
346.368387 85.762 -178.5588
348.878315 85.753 -178.4375
351.406431 85.745 -178.3128
353.952867 85.736 -178.1852
356.517756 85.727 -178.0559
359.101230 85.719 -177.9257
361.703426 85.711 -177.7950
364.324478 85.703 -177.6633
366.964523 85.695 -177.5302
369.623699 85.687 -177.3953
372.302145 85.679 -177.2586
375.000000 85.671 -177.1203
377.717405 85.664 -176.9811
380.454501 85.656 -176.8416
383.211431 85.648 -176.7017
385.988339 85.641 -176.5613
388.785369 85.633 -176.4201
391.602668 85.626 -176.2776
394.440383 85.619 -176.1336
397.298660 85.612 -175.9882
400.177650 85.606 -175.8419
403.077502 85.599 -175.6960
405.998368 85.593 -175.5519
408.940400 85.586 -175.4101
411.903750 85.579 -175.2697
414.888575 85.571 -175.1273
417.895028 85.562 -174.9790
420.923268 85.553 -174.8218
423.973452 85.544 -174.6549
427.045738 85.536 -174.4804
430.140287 85.529 -174.3027
433.257261 85.524 -174.1272
436.396822 85.520 -173.9568
439.559133 85.517 -173.7924
442.744360 85.515 -173.6336
445.952668 85.514 -173.4819
449.184225 85.514 -173.3415
452.439199 85.514 -173.2179
455.717760 85.513 -173.1143
459.020079 85.509 -173.0268
462.346327 85.501 -172.9445
465.696680 85.491 -172.8548
469.071310 85.478 -172.7497
472.470394 85.463 -172.6277
475.894109 85.449 -172.4919
479.342634 85.435 -172.3482
482.816148 85.422 -172.2029
486.314833 85.408 -172.0583
489.838871 85.392 -171.9103
493.388445 85.376 -171.7509
496.963741 85.360 -171.5760
500.564945 85.345 -171.3885
504.192245 85.331 -171.1962
507.845830 85.319 -171.0059
511.525890 85.306 -170.8211
515.232618 85.294 -170.6405
518.966206 85.280 -170.4602
522.726849 85.266 -170.2749
526.514743 85.251 -170.0800
530.330086 85.235 -169.8734
534.173076 85.221 -169.6579
538.043915 85.207 -169.4383
541.942803 85.194 -169.2169
545.869944 85.181 -168.9928
549.825542 85.169 -168.7650
553.809805 85.157 -168.5354
557.822939 85.146 -168.3073
561.865154 85.136 -168.0832
565.936660 85.125 -167.8628
570.037671 85.114 -167.6429
574.168399 85.102 -167.4194
578.329060 85.090 -167.1898
582.519870 85.078 -166.9544
586.741049 85.065 -166.7138
590.992817 85.052 -166.4663
595.275394 85.040 -166.2102
599.589005 85.027 -165.9462
603.933874 85.015 -165.6784
608.310228 85.004 -165.4104
612.718295 84.993 -165.1431
617.158304 84.981 -164.8732
621.630488 84.968 -164.5946
626.135079 84.954 -164.3009
630.672311 84.942 -163.9903
635.242423 84.932 -163.6668
639.845651 84.923 -163.3365
644.482237 84.917 -163.0012
649.152421 84.912 -162.6598
653.856447 84.910 -162.3135
658.594560 84.911 -161.9693
663.367008 84.915 -161.6381
668.174039 84.920 -161.3286
673.015903 84.925 -161.0417
677.892854 84.929 -160.7698
682.805145 84.930 -160.5037
687.753032 84.929 -160.2358
692.736774 84.926 -159.9606
697.756631 84.922 -159.6739
702.812863 84.918 -159.3744
707.905735 84.914 -159.0647
713.035511 84.911 -158.7496
718.202461 84.908 -158.4321
723.406852 84.906 -158.1126
728.648956 84.903 -157.7894
733.929047 84.901 -157.4608
739.247399 84.898 -157.1252
744.604290 84.896 -156.7813
750.000000 84.893 -156.4281
755.434809 84.891 -156.0647
760.909001 84.890 -155.6914
766.422861 84.889 -155.3090
771.976677 84.889 -154.9184
777.570739 84.890 -154.5208
783.205337 84.892 -154.1166
788.880766 84.895 -153.7043
794.597321 84.900 -153.2807
800.355301 84.907 -152.8432
806.155005 84.917 -152.3932
811.996736 84.930 -151.9372
817.880799 84.948 -151.4846
823.807501 84.969 -151.0454
829.777150 84.993 -150.6276
835.790057 85.017 -150.2330
841.846536 85.040 -149.8551
847.946903 85.061 -149.4832
854.091476 85.081 -149.1096
860.280575 85.101 -148.7308
866.514523 85.120 -148.3441
872.793644 85.139 -147.9465
879.118267 85.160 -147.5384
885.488720 85.182 -147.1241
891.905336 85.205 -146.7077
898.368450 85.230 -146.2898
904.878398 85.256 -145.8685
911.435520 85.284 -145.4424
918.040157 85.314 -145.0131
924.692655 85.347 -144.5829
931.393359 85.381 -144.1557
938.142619 85.418 -143.7359
944.940787 85.456 -143.3263
951.788218 85.495 -142.9267
958.685268 85.535 -142.5350
965.632296 85.576 -142.1485
972.629666 85.617 -141.7646
979.677741 85.660 -141.3826
986.776890 85.703 -141.0031
993.927482 85.747 -140.6248
1001.129891 85.792 -140.2431
1008.384491 85.839 -139.8542
1015.691660 85.888 -139.4591
1023.051781 85.942 -139.0633
1030.465236 85.999 -138.6754
1037.932411 86.061 -138.3078
1045.453698 86.127 -137.9735
1053.029486 86.193 -137.6781
1060.660172 86.258 -137.4179
1068.346153 86.322 -137.1836
1076.087829 86.384 -136.9650
1083.885605 86.444 -136.7550
1091.739887 86.503 -136.5513
1099.651084 86.561 -136.3541
1107.619609 86.618 -136.1633
1115.645878 86.674 -135.9780
1123.730308 86.730 -135.7969
1131.873321 86.785 -135.6190
1140.075341 86.839 -135.4432
1148.336797 86.893 -135.2688
1156.658119 86.947 -135.0950
1165.039741 87.000 -134.9210
1173.482099 87.055 -134.7453
1181.985634 87.110 -134.5685
1190.550789 87.169 -134.3961
1199.178011 87.229 -134.2392
1207.867749 87.291 -134.1091
1216.620457 87.353 -134.0115
1225.436590 87.413 -133.9425
1234.316609 87.469 -133.8930
1243.260976 87.522 -133.8535
1252.270157 87.573 -133.8157
1261.344623 87.620 -133.7749
1270.484846 87.665 -133.7296
1279.691303 87.709 -133.6788
1288.964474 87.751 -133.6215
1298.304842 87.791 -133.5583
1307.712894 87.832 -133.4917
1317.189120 87.872 -133.4245
1326.734016 87.911 -133.3586
1336.348077 87.948 -133.2927
1346.031806 87.985 -133.2239
1355.785708 88.019 -133.1482
1365.610290 88.053 -133.0618
1375.506065 88.085 -132.9600
1385.473549 88.117 -132.8374
1395.513261 88.150 -132.6931
1405.625726 88.187 -132.5326
1415.811469 88.227 -132.3685
1426.071023 88.271 -132.2156
1436.404921 88.317 -132.0835
1446.813703 88.364 -131.9728
1457.297912 88.409 -131.8774
1467.858093 88.453 -131.7907
1478.494798 88.496 -131.7073
1489.208581 88.537 -131.6232
1500.000000 88.578 -131.5347
1510.869618 88.617 -131.4389
1521.818002 88.655 -131.3333
1532.845723 88.694 -131.2155
1543.953355 88.733 -131.0838
1555.141477 88.774 -130.9379
1566.410674 88.818 -130.7821
1577.761531 88.866 -130.6276
1589.194642 88.918 -130.4887
1600.710601 88.971 -130.3748
1612.310010 89.025 -130.2868
1623.993473 89.078 -130.2190
1635.761599 89.129 -130.1635
1647.615002 89.178 -130.1136
1659.554299 89.226 -130.0641
1671.580114 89.273 -130.0116
1683.693072 89.319 -129.9556
1695.893807 89.364 -129.8981
1708.182952 89.410 -129.8415
1720.561150 89.454 -129.7857
1733.029045 89.497 -129.7274
1745.587288 89.539 -129.6612
1758.236533 89.580 -129.5798
1770.977440 89.622 -129.4775
1783.810673 89.666 -129.3549
1796.736900 89.714 -129.2219
1809.756796 89.766 -129.0934
1822.871040 89.822 -128.9808
1836.080315 89.879 -128.8880
1849.385310 89.936 -128.8132
1862.786718 89.993 -128.7522
1876.285239 90.050 -128.6993
1889.881575 90.106 -128.6482
1903.576436 90.161 -128.5922
1917.370535 90.217 -128.5262
1931.264593 90.273 -128.4470
1945.259332 90.333 -128.3564
1959.355483 90.397 -128.2634
1973.553781 90.465 -128.1820
1987.854965 90.537 -128.1233
2002.259781 90.611 -128.0915
2016.768981 90.686 -128.0852
2031.383320 90.762 -128.1009
2046.103561 90.838 -128.1350
2060.930471 90.914 -128.1859
2075.864823 90.991 -128.2552
2090.907395 91.067 -128.3459
2106.058972 91.143 -128.4584
2121.320344 91.216 -128.5883
2136.692305 91.288 -128.7275
2152.175658 91.358 -128.8665
2167.771210 91.429 -129.0013
2183.479774 91.500 -129.1373
2199.302169 91.574 -129.2847
2215.239219 91.649 -129.4519
2231.291755 91.724 -129.6426
2247.460615 91.799 -129.8563
2263.746641 91.872 -130.0887
2280.150683 91.944 -130.3332
2296.673595 92.014 -130.5825
2313.316238 92.084 -130.8312
2330.079481 92.156 -131.0795
2346.964198 92.230 -131.3359
2363.971268 92.307 -131.6135
2381.101578 92.385 -131.9229
2398.356022 92.465 -132.2693
2415.735498 92.543 -132.6528
2433.240913 92.621 -133.0712
2450.873180 92.696 -133.5218
2468.633217 92.769 -134.0035
2486.521951 92.838 -134.5144
2504.540314 92.904 -135.0495
2522.689246 92.965 -135.6006
2540.969692 93.022 -136.1593
2559.382606 93.078 -136.7234
2577.928947 93.131 -137.2982
2596.609683 93.184 -137.8917
2615.425787 93.234 -138.5093
2634.378241 93.280 -139.1524
2653.468031 93.323 -139.8172
2672.696154 93.360 -140.4958
2692.063613 93.392 -141.1788
2711.571415 93.422 -141.8595
2731.220579 93.449 -142.5396
2751.012130 93.474 -143.2273
2770.947098 93.498 -143.9317
2791.026522 93.519 -144.6585
2811.251451 93.537 -145.4090
2831.622938 93.550 -146.1817
2852.142045 93.557 -146.9741
2872.809842 93.558 -147.7813
2893.627406 93.551 -148.5950
2914.595823 93.537 -149.4027
2935.716186 93.516 -150.1931
2956.989596 93.490 -150.9617
2978.417161 93.459 -151.7103
3000.000000 93.425 -152.4427
3021.739237 93.387 -153.1610
3043.636005 93.344 -153.8631
3065.691446 93.295 -154.5417
3087.906710 93.243 -155.1875
3110.282955 93.188 -155.7948
3132.821347 93.132 -156.3658
3155.523062 93.077 -156.9076
3178.389283 93.022 -157.4283
3201.421202 92.967 -157.9344
3224.620020 92.913 -158.4309
3247.986946 92.858 -158.9210
3271.523198 92.803 -159.4051
3295.230004 92.745 -159.8780
3319.108599 92.686 -160.3325
3343.160228 92.626 -160.7652
3367.386145 92.567 -161.1791
3391.787613 92.508 -161.5811
3416.365904 92.449 -161.9767
3441.122300 92.390 -162.3661
3466.058091 92.329 -162.7439
3491.174576 92.268 -163.1032
3516.473066 92.208 -163.4429
3541.954880 92.149 -163.7678
3567.621345 92.092 -164.0858
3593.473800 92.037 -164.4044
3619.513592 91.982 -164.7303
3645.742080 91.928 -165.0673
3672.160630 91.872 -165.4135
3698.770620 91.814 -165.7609
3725.573436 91.753 -166.1014
3752.570477 91.691 -166.4318
3779.763150 91.628 -166.7541
3807.152872 91.564 -167.0705
3834.741071 91.498 -167.3789
3862.529185 91.430 -167.6712
3890.518664 91.361 -167.9402
3918.710966 91.292 -168.1848
3947.107561 91.225 -168.4106
3975.709929 91.161 -168.6279
4004.519563 91.099 -168.8488
4033.537962 91.039 -169.0843
4062.766641 90.979 -169.3393
4092.207123 90.918 -169.6106
4121.860942 90.855 -169.8928
4151.729646 90.789 -170.1830
4181.814790 90.719 -170.4803
4212.117944 90.646 -170.7817
4242.640687 90.567 -171.0769
4273.384610 90.482 -171.3518
4304.351317 90.394 -171.5950
4335.542421 90.303 -171.8021
4366.959549 90.211 -171.9753
4398.604338 90.120 -172.1215
4430.478438 90.029 -172.2489
4462.583511 89.938 -172.3604
4494.921231 89.847 -172.4536
4527.493283 89.755 -172.5266
4560.301365 89.664 -172.5809
4593.347189 89.572 -172.6193
4626.632476 89.480 -172.6398
4660.158962 89.387 -172.6353
4693.928395 89.294 -172.5992
4727.942535 89.203 -172.5302
4762.203156 89.116 -172.4344
4796.712043 89.033 -172.3233
4831.470996 88.955 -172.2101
4866.481826 88.879 -172.1025
4901.746360 88.807 -172.0041
4937.266434 88.735 -171.9181
4973.043902 88.664 -171.8482
5009.080628 88.592 -171.7935
5045.378492 88.518 -171.7456
5081.939384 88.441 -171.6926
5118.765212 88.361 -171.6246
5155.857894 88.280 -171.5380
5193.219366 88.200 -171.4370
5230.851574 88.120 -171.3282
5268.756481 88.040 -171.2159
5306.936062 87.959 -171.1020
5345.392309 87.878 -170.9891
5384.127225 87.794 -170.8782
5423.142830 87.706 -170.7643
5462.441159 87.614 -170.6353
5502.024259 87.517 -170.4767
5541.894195 87.417 -170.2770
5582.053045 87.315 -170.0318
5622.502902 87.213 -169.7424
5663.245876 87.110 -169.4114
5704.284090 87.010 -169.0411
5745.619684 86.910 -168.6362
5787.254813 86.812 -168.2006
5829.191647 86.715 -167.7325
5871.432373 86.618 -167.2241
5913.979192 86.522 -166.6652
5956.834323 86.428 -166.0489
6000.000000 86.338 -165.3747
6043.478473 86.255 -164.6461
6087.272010 86.178 -163.8690
6131.382892 86.110 -163.0520
6175.813420 86.049 -162.2054
6220.565910 85.997 -161.3355
6265.642695 85.952 -160.4419
6311.046124 85.915 -159.5193
6356.778566 85.886 -158.5632
6402.842404 85.867 -157.5733
6449.240040 85.860 -156.5528
6495.973891 85.865 -155.5090
6543.046396 85.884 -154.4533
6590.460007 85.918 -153.3981
6638.217197 85.966 -152.3518
6686.320456 86.028 -151.3180
6734.772290 86.105 -150.2983
6783.575226 86.198 -149.2973
6832.731809 86.309 -148.3236
6882.244600 86.440 -147.3913
6932.116181 86.590 -146.5203
6982.349153 86.761 -145.7337
7032.946133 86.953 -145.0529
7083.909760 87.163 -144.4957
7135.242690 87.392 -144.0806
7186.947600 87.639 -143.8291
7239.027185 87.902 -143.7669
7291.484160 88.180 -143.9242
7344.321260 88.468 -144.3339
7397.541239 88.761 -145.0251
7451.146872 89.052 -146.0169
7505.140954 89.333 -147.3170
7559.526299 89.598 -148.9253
7614.305743 89.839 -150.8351
7669.482141 90.048 -153.0331
7725.058371 90.218 -155.4975
7781.037328 90.339 -158.1929
7837.421932 90.403 -161.0669
7894.215122 90.405 -164.0496
7951.419859 90.342 -167.0607
8009.039125 90.213 -170.0157
8067.075924 90.022 -172.8346
8125.533282 89.775 -175.4503
8184.414245 89.481 -177.8125
8243.721885 89.147 -179.8849
8303.459292 88.781 178.3586
8363.629581 88.391 176.9360
8424.235888 87.986 175.8591
8485.281374 87.573 175.1315
8546.769221 87.162 174.7459
8608.702634 86.759 174.6856
8671.084842 86.372 174.9314
8733.919097 86.006 175.4643
8797.208675 85.669 176.2635
8860.956876 85.367 177.2986
8925.167022 85.108 178.5162
8989.842461 84.897 179.8366
9054.986566 84.735 -178.8317
9120.602731 84.617 -177.5667
9186.694378 84.534 -176.4119
9253.264952 84.477 -175.3714
9320.317925 84.442 -174.4258
9387.856790 84.427 -173.5556
9455.885071 84.432 -172.7538
9524.406312 84.459 -172.0290
9593.424086 84.510 -171.4020
9662.941992 84.585 -170.9010
9732.963653 84.685 -170.5634
9803.492719 84.807 -170.4355
9874.532869 84.946 -170.5660
9946.087805 85.094 -170.9948
10018.161257 85.241 -171.7431
10090.756983 85.375 -172.8091
10163.878768 85.488 -174.1734
10237.530423 85.570 -175.8045
10311.715789 85.612 -177.6602
10386.438732 85.609 -179.6873
10461.703149 85.555 178.1780
10537.512962 85.448 176.0045
10613.872125 85.290 173.8561
10690.784618 85.082 171.7874
10768.254450 84.829 169.8427
10846.285661 84.534 168.0624
10924.882318 84.201 166.4844
11004.048518 83.834 165.1421
11083.788390 83.440 164.0609
11164.106090 83.025 163.2581
11245.005805 82.593 162.7484
11326.491752 82.150 162.5476
11408.568180 81.702 162.6688
11491.239368 81.256 163.1154
11574.509626 80.820 163.8787
11658.383294 80.400 164.9423
11742.864745 80.001 166.2876
11827.958384 79.631 167.8927
11913.668646 79.293 169.7288
12000.000000 78.993 171.7601
12086.956947 78.733 173.9521
12174.544019 78.516 176.2751
12262.765784 78.345 178.7009
12351.626840 78.222 -178.8061
12441.131819 78.151 -176.2897
12531.285389 78.132 -173.7961
12622.092249 78.166 -171.3718
12713.557132 78.254 -169.0683
12805.684808 78.394 -166.9450
12898.480079 78.583 -165.0640
12991.947783 78.816 -163.4836
13086.092792 79.087 -162.2571
13180.920015 79.386 -161.4341
13276.434395 79.702 -161.0559
13372.640911 80.021 -161.1457
13469.544580 80.330 -161.7031
13567.150452 80.614 -162.7055
13665.463617 80.859 -164.1084
13764.489200 81.054 -165.8432
13864.232362 81.190 -167.8181
13964.698305 81.262 -169.9280
14065.892266 81.271 -172.0656
14167.819519 81.220 -174.1293
14270.485380 81.120 -176.0292
14373.895200 80.982 -177.6967
14478.054370 80.821 -179.0926
14582.968320 80.655 179.7911
14688.642520 80.497 178.9348
14795.082478 80.362 178.2913
14902.293745 80.260 177.7882
15010.281908 80.199 177.3390
15119.052599 80.181 176.8561
15228.611486 80.202 176.2599
15338.964283 80.258 175.4854
15450.116741 80.342 174.4878
15562.074656 80.447 173.2402
15674.843864 80.568 171.7241
15788.430244 80.702 169.9167
15902.839718 80.842 167.7881
16018.078250 80.981 165.3066
16134.151848 81.107 162.4493
16251.066563 81.208 159.2155
16368.828491 81.267 155.6345
16487.443769 81.274 151.7621
16606.918584 81.219 147.6711
16727.259161 81.099 143.4433
16848.471777 80.912 139.1620
16970.562748 80.664 134.8996
17093.538442 80.365 130.7024
17217.405268 80.026 126.5801
17342.169684 79.661 122.4990
17467.838194 79.278 118.3876
17594.417350 78.875 114.1638
17721.913751 78.440 109.7708
17850.334044 77.953 105.2083
17979.684923 77.393 100.5443
18109.973131 76.740 95.9029
18241.205462 75.989 91.4269
18373.388756 75.140 87.2379
18506.529905 74.204 83.4131
18640.635849 73.192 79.9841
18775.713581 72.115 76.9553
18911.770141 70.979 74.3327
19048.812624 69.785 72.1460
19186.848172 68.534 70.4553
19325.883983 67.232 69.3416
19465.927305 65.891 68.8828
19606.985439 64.550 69.1087
19749.065738 63.287 69.9231
19892.175609 62.252 71.0038
20036.322514 61.649 71.7953
