* Measurement data measured by REW V5.31
* Source: EXCL: Microphone (USB Sound Device        ), MICROPHONE (Master Volume), L, volume: 0.390
* Format: 256k Log Swept Sine, 1 sweep at -15.0 dBFS with no timing reference
* Dated: Nov 17, 2024 1:05:43 PM
* REW Settings:
*  C-weighting compensation: Off
*  Target level: 75.0 dB
* Note: CVJ Aria Blue L
* Measurement: L CVJ Aria Blue
* Smoothing: 1/12 octave
* Frequency Step: 96 ppo
* Start Frequency: 0.36621094 Hz
*
* Freq(Hz)	SPL(dB)	Phase(degrees)
0.366211	84.522	156.4354
0.368865	84.516	156.4107
0.371538	84.507	156.3736
0.374230	84.496	156.3270
0.376942	84.483	156.2733
0.379673	84.470	156.2143
0.382424	84.456	156.1510
0.385196	84.441	156.0844
0.387987	84.427	156.0146
0.390798	84.412	155.9420
0.393630	84.397	155.8666
0.396483	84.382	155.7886
0.399356	84.367	155.7078
0.402250	84.351	155.6244
0.405165	84.336	155.5381
0.408101	84.320	155.4492
0.411058	84.305	155.3575
0.414037	84.289	155.2629
0.417037	84.273	155.1655
0.420059	84.257	155.0653
0.423103	84.241	154.9622
0.426169	84.225	154.8562
0.429257	84.208	154.7472
0.432368	84.192	154.6352
0.435501	84.175	154.5203
0.438656	84.158	154.4023
0.441835	84.142	154.2813
0.445037	84.125	154.1572
0.448262	84.108	154.0301
0.451510	84.090	153.8998
0.454782	84.073	153.7663
0.458077	84.056	153.6297
0.461397	84.038	153.4900
0.464740	84.020	153.3470
0.468108	84.002	153.2008
0.471500	83.984	153.0513
0.474917	83.966	152.8986
0.478358	83.948	152.7426
0.481825	83.930	152.5833
0.485316	83.911	152.4207
0.488833	83.893	152.2548
0.492375	83.874	152.0855
0.495943	83.855	151.9129
0.499537	83.836	151.7370
0.503157	83.817	151.5576
0.506803	83.797	151.3749
0.510475	83.778	151.1889
0.514175	83.758	150.9994
0.517900	83.739	150.8066
0.521653	83.719	150.6104
0.525434	83.699	150.4108
0.529241	83.679	150.2079
0.533076	83.658	150.0016
0.536939	83.638	149.7919
0.540830	83.617	149.5789
0.544749	83.596	149.3626
0.548696	83.575	149.1431
0.552673	83.554	148.9202
0.556677	83.533	148.6941
0.560711	83.512	148.4648
0.564774	83.490	148.2322
0.568867	83.469	147.9966
0.572989	83.447	147.7578
0.577141	83.425	147.5160
0.581324	83.403	147.2711
0.585536	83.380	147.0233
0.589779	83.358	146.7726
0.594053	83.335	146.5191
0.598358	83.312	146.2627
0.602694	83.289	146.0037
0.607061	83.266	145.7421
0.611460	83.243	145.4780
0.615891	83.220	145.2113
0.620354	83.196	144.9424
0.624849	83.172	144.6712
0.629377	83.148	144.3979
0.633938	83.124	144.1226
0.638532	83.100	143.8454
0.643159	83.075	143.5664
0.647819	83.050	143.2858
0.652514	83.026	143.0037
0.657242	83.000	142.7204
0.662005	82.975	142.4359
0.666802	82.950	142.1504
0.671634	82.924	141.8641
0.676501	82.898	141.5773
0.681403	82.872	141.2901
0.686341	82.846	141.0026
0.691314	82.820	140.7152
0.696324	82.793	140.4281
0.701370	82.766	140.1414
0.706452	82.739	139.8552
0.711571	82.711	139.5697
0.716728	82.682	139.2849
0.721921	82.652	139.0003
0.727153	82.621	138.7157
0.732422	82.588	138.4300
0.737729	82.552	138.1422
0.743075	82.514	137.8513
0.748460	82.475	137.5561
0.753883	82.434	137.2559
0.759346	82.392	136.9501
0.764849	82.350	136.6385
0.770391	82.306	136.3206
0.775974	82.262	135.9963
0.781597	82.218	135.6654
0.787261	82.172	135.3280
0.792966	82.127	134.9838
0.798712	82.080	134.6328
0.804500	82.033	134.2749
0.810329	81.986	133.9100
0.816201	81.937	133.5381
0.822116	81.888	133.1591
0.828073	81.838	132.7730
0.834074	81.788	132.3797
0.840118	81.737	131.9791
0.846206	81.685	131.5713
0.852338	81.632	131.1562
0.858514	81.578	130.7337
0.864735	81.523	130.3040
0.871001	81.467	129.8669
0.877313	81.411	129.4225
0.883670	81.353	128.9708
0.890074	81.294	128.5119
0.896524	81.234	128.0458
0.903020	81.174	127.5725
0.909564	81.111	127.0922
0.916155	81.048	126.6049
0.922794	80.984	126.1109
0.929481	80.918	125.6101
0.936216	80.850	125.1028
0.943000	80.782	124.5892
0.949834	80.712	124.0695
0.956717	80.640	123.5440
0.963649	80.567	123.0128
0.970632	80.493	122.4763
0.977666	80.416	121.9349
0.984750	80.338	121.3889
0.991886	80.258	120.8388
0.999074	80.177	120.2849
1.006314	80.093	119.7279
1.013606	80.008	119.1681
1.020951	79.921	118.6063
1.028349	79.831	118.0430
1.035801	79.739	117.4789
1.043307	79.645	116.9147
1.050867	79.549	116.3513
1.058482	79.451	115.7893
1.066152	79.350	115.2294
1.073878	79.246	114.6724
1.081660	79.140	114.1187
1.089498	79.031	113.5685
1.097393	78.920	113.0215
1.105345	78.806	112.4772
1.113355	78.689	111.9345
1.121423	78.569	111.3925
1.129549	78.446	110.8502
1.137734	78.320	110.3067
1.145979	78.191	109.7613
1.154283	78.060	109.2132
1.162647	77.925	108.6618
1.171072	77.787	108.1064
1.179558	77.647	107.5464
1.188106	77.503	106.9810
1.196715	77.357	106.4096
1.205387	77.208	105.8314
1.214122	77.056	105.2456
1.222920	76.900	104.6515
1.231782	76.742	104.0481
1.240708	76.581	103.4345
1.249699	76.418	102.8099
1.258754	76.251	102.1731
1.267876	76.082	101.5231
1.277063	75.909	100.8588
1.286318	75.734	100.1790
1.295639	75.556	99.4826
1.305027	75.376	98.7681
1.314484	75.192	98.0344
1.324009	75.006	97.2799
1.333604	74.818	96.5032
1.343268	74.626	95.7029
1.353002	74.433	94.8774
1.362806	74.236	94.0253
1.372681	74.037	93.1449
1.382628	73.836	92.2347
1.392647	73.632	91.2934
1.402739	73.426	90.3195
1.412904	73.218	89.3118
1.423142	73.006	88.2692
1.433455	72.792	87.1908
1.443843	72.574	86.0759
1.454305	72.352	84.9237
1.464844	72.123	83.7333
1.475459	71.888	82.5031
1.486150	71.643	81.2306
1.496920	71.388	79.9122
1.507767	71.122	78.5433
1.518693	70.845	77.1182
1.529698	70.557	75.6301
1.540783	70.258	74.0713
1.551948	69.951	72.4329
1.563194	69.634	70.7050
1.574521	69.311	68.8763
1.585931	68.981	66.9341
1.597423	68.646	64.8641
1.608999	68.308	62.6505
1.620658	67.969	60.2754
1.632402	67.628	57.7196
1.644232	67.289	54.9622
1.656146	66.953	51.9813
1.668147	66.622	48.7545
1.680235	66.298	45.2606
1.692411	65.982	41.4811
1.704675	65.678	37.4030
1.717028	65.387	33.0218
1.729470	65.112	28.3456
1.742003	64.855	23.3980
1.754626	64.619	18.2210
1.767341	64.407	12.8744
1.780147	64.221	7.4324
1.793047	64.066	1.9764
1.806040	63.943	-3.4150
1.819128	63.855	-8.6756
1.832310	63.805	-13.7588
1.845587	63.794	-18.6389
1.858961	63.824	-23.3067
1.872432	63.893	-27.7621
1.886001	64.000	-32.0091
1.899667	64.145	-36.0525
1.913433	64.324	-39.8977
1.927299	64.534	-43.5498
1.941265	64.773	-47.0138
1.955332	65.037	-50.2952
1.969501	65.324	-53.3993
1.983773	65.629	-56.3318
1.998148	65.949	-59.0985
2.012627	66.281	-61.7048
2.027212	66.621	-64.1565
2.041902	66.964	-66.4589
2.056698	67.308	-68.6171
2.071602	67.648	-70.6360
2.086614	67.981	-72.5205
2.101734	68.302	-74.2751
2.116964	68.609	-75.9049
2.132304	68.898	-77.4152
2.147756	69.166	-78.8128
2.163320	69.412	-80.1062
2.178996	69.634	-81.3068
2.194786	69.834	-82.4290
2.210690	70.012	-83.4893
2.226710	70.173	-84.5040
2.242845	70.318	-85.4866
2.259098	70.449	-86.4464
2.275468	70.568	-87.3892
2.291957	70.675	-88.3175
2.308566	70.773	-89.2317
2.325295	70.860	-90.1306
2.342145	70.939	-91.0122
2.359117	71.009	-91.8735
2.376212	71.070	-92.7106
2.393431	71.124	-93.5196
2.410775	71.171	-94.2956
2.428244	71.211	-95.0337
2.445840	71.245	-95.7282
2.463564	71.273	-96.3736
2.481416	71.295	-96.9642
2.499397	71.313	-97.4949
2.517509	71.325	-97.9615
2.535752	71.331	-98.3614
2.554127	71.331	-98.6943
2.572635	71.323	-98.9625
2.591277	71.306	-99.1699
2.610055	71.278	-99.3208
2.628968	71.240	-99.4181
2.648019	71.191	-99.4637
2.667208	71.132	-99.4577
2.686535	71.065	-99.3992
2.706003	70.991	-99.2863
2.725612	70.911	-99.1163
2.745363	70.827	-98.8862
2.765257	70.742	-98.5926
2.785295	70.657	-98.2317
2.805478	70.575	-97.7998
2.825808	70.497	-97.2931
2.846285	70.427	-96.7077
2.866910	70.365	-96.0396
2.887685	70.313	-95.2846
2.908611	70.272	-94.4382
2.929688	70.243	-93.4951
2.950917	70.224	-92.4506
2.972301	70.214	-91.3012
2.993839	70.212	-90.0464
3.015534	70.218	-88.6896
3.037386	70.232	-87.2381
3.059396	70.254	-85.7024
3.081565	70.284	-84.0965
3.103896	70.323	-82.4367
3.126388	70.371	-80.7414
3.149043	70.430	-79.0303
3.171862	70.500	-77.3235
3.194847	70.582	-75.6405
3.217998	70.678	-73.9992
3.241317	70.788	-72.4137
3.264805	70.915	-70.8940
3.288463	71.058	-69.4445
3.312293	71.221	-68.0653
3.336295	71.402	-66.7540
3.360471	71.602	-65.5095
3.384822	71.820	-64.3329
3.409350	72.054	-63.2271
3.434056	72.300	-62.1966
3.458940	72.557	-61.2459
3.484005	72.821	-60.3788
3.509252	73.088	-59.5989
3.534681	73.356	-58.9083
3.560295	73.622	-58.3086
3.586094	73.883	-57.8000
3.612081	74.137	-57.3819
3.638255	74.384	-57.0523
3.664620	74.623	-56.8079
3.691175	74.855	-56.6440
3.717923	75.080	-56.5544
3.744864	75.301	-56.5322
3.772001	75.517	-56.5701
3.799335	75.729	-56.6607
3.826866	75.935	-56.7968
3.854597	76.137	-56.9719
3.882529	76.333	-57.1801
3.910664	76.523	-57.4165
3.939002	76.706	-57.6773
3.967546	76.882	-57.9602
3.996296	77.050	-58.2645
4.025255	77.210	-58.5913
4.054423	77.362	-58.9421
4.083804	77.506	-59.3184
4.113396	77.641	-59.7194
4.143204	77.769	-60.1427
4.173227	77.889	-60.5838
4.203468	78.001	-61.0371
4.233928	78.107	-61.4966
4.264609	78.206	-61.9562
4.295512	78.299	-62.4108
4.326639	78.386	-62.8562
4.357992	78.467	-63.2903
4.389572	78.541	-63.7131
4.421380	78.610	-64.1263
4.453419	78.671	-64.5321
4.485691	78.726	-64.9317
4.518196	78.774	-65.3244
4.550936	78.817	-65.7080
4.583914	78.854	-66.0788
4.617131	78.886	-66.4320
4.650589	78.914	-66.7627
4.684289	78.940	-67.0663
4.718233	78.962	-67.3388
4.752424	78.981	-67.5777
4.786862	78.997	-67.7820
4.821549	79.011	-67.9522
4.856488	79.021	-68.0895
4.891680	79.029	-68.1951
4.927127	79.035	-68.2703
4.962831	79.040	-68.3160
4.998794	79.045	-68.3326
5.035017	79.052	-68.3202
5.071503	79.061	-68.2784
5.108253	79.072	-68.2064
5.145270	79.087	-68.1032
5.182555	79.105	-67.9688
5.220110	79.126	-67.8047
5.257937	79.151	-67.6142
5.296038	79.179	-67.4028
5.334415	79.210	-67.1768
5.373071	79.247	-66.9428
5.412006	79.288	-66.7071
5.451224	79.334	-66.4745
5.490725	79.387	-66.2479
5.530514	79.445	-66.0289
5.570590	79.509	-65.8186
5.610957	79.578	-65.6191
5.651616	79.653	-65.4341
5.692570	79.732	-65.2682
5.733821	79.814	-65.1269
5.775370	79.899	-65.0151
5.817221	79.986	-64.9370
5.859375	80.075	-64.8949
5.901834	80.166	-64.8897
5.944602	80.258	-64.9209
5.987679	80.352	-64.9873
6.031068	80.446	-65.0876
6.074771	80.540	-65.2210
6.118792	80.633	-65.3867
6.163131	80.725	-65.5845
6.207792	80.813	-65.8143
6.252776	80.899	-66.0758
6.298086	80.982	-66.3680
6.343725	81.063	-66.6886
6.389694	81.139	-67.0340
6.435996	81.213	-67.3997
6.482634	81.283	-67.7814
6.529610	81.349	-68.1751
6.576926	81.412	-68.5784
6.624585	81.470	-68.9895
6.672590	81.524	-69.4075
6.720942	81.574	-69.8305
6.769645	81.621	-70.2556
6.818700	81.664	-70.6791
6.868111	81.705	-71.0970
6.917881	81.743	-71.5059
6.968010	81.779	-71.9033
7.018504	81.812	-72.2880
7.069362	81.844	-72.6597
7.120590	81.874	-73.0178
7.172189	81.904	-73.3618
7.224161	81.934	-73.6908
7.276511	81.964	-74.0039
7.329239	81.995	-74.3003
7.382350	82.028	-74.5802
7.435845	82.063	-74.8444
7.489729	82.099	-75.0950
7.544002	82.138	-75.3346
7.598669	82.180	-75.5661
7.653732	82.225	-75.7919
7.709194	82.273	-76.0140
7.765058	82.326	-76.2340
7.821327	82.382	-76.4540
7.878004	82.441	-76.6768
7.935091	82.504	-76.9056
7.992592	82.569	-77.1436
8.050510	82.638	-77.3933
8.108847	82.710	-77.6565
8.167607	82.784	-77.9338
8.226793	82.860	-78.2260
8.286408	82.938	-78.5335
8.346454	83.017	-78.8570
8.406936	83.097	-79.1967
8.467856	83.178	-79.5525
8.529218	83.258	-79.9236
8.591024	83.339	-80.3084
8.653278	83.418	-80.7050
8.715983	83.498	-81.1110
8.779143	83.576	-81.5247
8.842760	83.653	-81.9444
8.906839	83.728	-82.3681
8.971381	83.803	-82.7937
9.036392	83.876	-83.2187
9.101873	83.949	-83.6404
9.167829	84.020	-84.0568
9.234263	84.091	-84.4664
9.301178	84.160	-84.8680
9.368578	84.230	-85.2604
9.436467	84.299	-85.6427
9.504847	84.368	-86.0139
9.573723	84.437	-86.3737
9.643099	84.506	-86.7220
9.712976	84.575	-87.0593
9.783361	84.643	-87.3864
9.854255	84.710	-87.7042
9.925663	84.777	-88.0135
9.997588	84.842	-88.3153
10.070035	84.906	-88.6108
10.143007	84.970	-88.9012
10.216507	85.033	-89.1881
10.290540	85.096	-89.4725
10.365109	85.158	-89.7551
10.440219	85.221	-90.0368
10.515873	85.283	-90.3181
10.592076	85.345	-90.5993
10.668830	85.407	-90.8809
10.746141	85.469	-91.1626
10.824012	85.530	-91.4442
10.902447	85.591	-91.7253
10.981451	85.651	-92.0053
11.061027	85.711	-92.2837
11.141180	85.770	-92.5599
11.221913	85.828	-92.8333
11.303232	85.885	-93.1034
11.385140	85.941	-93.3697
11.467641	85.997	-93.6317
11.550741	86.052	-93.8895
11.634442	86.107	-94.1428
11.718750	86.161	-94.3919
11.803669	86.215	-94.6369
11.889203	86.269	-94.8780
11.975357	86.323	-95.1159
12.062136	86.377	-95.3509
12.149543	86.431	-95.5836
12.237583	86.484	-95.8143
12.326262	86.537	-96.0436
12.415583	86.589	-96.2717
12.505552	86.641	-96.4990
12.596172	86.692	-96.7257
12.687449	86.742	-96.9517
12.779387	86.791	-97.1772
12.871992	86.839	-97.4020
12.965268	86.887	-97.6263
13.059220	86.934	-97.8498
13.153852	86.980	-98.0728
13.249170	87.026	-98.2951
13.345179	87.072	-98.5172
13.441884	87.118	-98.7394
13.539289	87.163	-98.9621
13.637401	87.208	-99.1860
13.736223	87.254	-99.4118
13.835761	87.299	-99.6404
13.936021	87.344	-99.8725
14.037007	87.389	-100.1090
14.138725	87.433	-100.3505
14.241180	87.477	-100.5977
14.344377	87.521	-100.8510
14.448323	87.564	-101.1105
14.553021	87.606	-101.3763
14.658478	87.648	-101.6481
14.764700	87.689	-101.9254
14.871691	87.730	-102.2076
14.979457	87.769	-102.4941
15.088005	87.809	-102.7840
15.197339	87.848	-103.0768
15.307465	87.886	-103.3717
15.418389	87.925	-103.6684
15.530117	87.963	-103.9665
15.642655	88.001	-104.2661
15.756008	88.040	-104.5673
15.870182	88.079	-104.8706
15.985184	88.118	-105.1765
16.101019	88.158	-105.4855
16.217694	88.199	-105.7983
16.335214	88.240	-106.1154
16.453586	88.281	-106.4372
16.572815	88.324	-106.7638
16.692909	88.366	-107.0951
16.813872	88.410	-107.4308
16.935713	88.453	-107.7701
17.058436	88.497	-108.1123
17.182048	88.541	-108.4563
17.306556	88.585	-108.8011
17.431967	88.630	-109.1455
17.558286	88.674	-109.4887
17.685521	88.719	-109.8299
17.813677	88.763	-110.1683
17.942762	88.808	-110.5038
18.072783	88.854	-110.8361
18.203746	88.900	-111.1653
18.335658	88.946	-111.4918
18.468526	88.993	-111.8157
18.602356	89.041	-112.1376
18.737156	89.089	-112.4576
18.872934	89.137	-112.7760
19.009695	89.186	-113.0928
19.147447	89.235	-113.4081
19.286197	89.284	-113.7215
19.425953	89.333	-114.0329
19.566721	89.382	-114.3418
19.708510	89.431	-114.6478
19.851326	89.479	-114.9506
19.995177	89.526	-115.2499
20.140070	89.573	-115.5455
20.286013	89.620	-115.8373
20.433014	89.666	-116.1255
20.581080	89.712	-116.4102
20.730219	89.758	-116.6918
20.880439	89.803	-116.9709
21.031747	89.848	-117.2480
21.184152	89.893	-117.5239
21.337661	89.938	-117.7994
21.492282	89.983	-118.0753
21.648024	90.027	-118.3525
21.804895	90.071	-118.6316
21.962902	90.115	-118.9133
22.122054	90.158	-119.1982
22.282360	90.201	-119.4865
22.443827	90.242	-119.7784
22.606464	90.283	-120.0736
22.770280	90.323	-120.3720
22.935283	90.362	-120.6730
23.101481	90.400	-120.9761
23.268884	90.437	-121.2811
23.437500	90.474	-121.5876
23.607338	90.509	-121.8953
23.778406	90.544	-122.2044
23.950714	90.579	-122.5150
24.124271	90.614	-122.8274
24.299086	90.648	-123.1419
24.475167	90.682	-123.4587
24.652524	90.716	-123.7779
24.831166	90.750	-124.0996
25.011103	90.784	-124.4234
25.192344	90.818	-124.7491
25.374898	90.853	-125.0761
25.558775	90.887	-125.4040
25.743984	90.921	-125.7325
25.930536	90.956	-126.0612
26.118439	90.991	-126.3899
26.307704	91.026	-126.7185
26.498341	91.061	-127.0470
26.690359	91.097	-127.3753
26.883768	91.133	-127.7032
27.078579	91.169	-128.0307
27.274801	91.205	-128.3575
27.472446	91.242	-128.6833
27.671522	91.278	-129.0078
27.872042	91.314	-129.3309
28.074014	91.349	-129.6524
28.277450	91.385	-129.9722
28.482360	91.420	-130.2902
28.688755	91.455	-130.6064
28.896645	91.489	-130.9207
29.106042	91.523	-131.2330
29.316957	91.557	-131.5434
29.529400	91.590	-131.8518
29.743382	91.623	-132.1585
29.958915	91.655	-132.4637
30.176009	91.687	-132.7680
30.394677	91.719	-133.0716
30.614929	91.750	-133.3751
30.836778	91.781	-133.6788
31.060234	91.812	-133.9831
31.285309	91.842	-134.2882
31.512015	91.872	-134.5942
31.740364	91.901	-134.9013
31.970368	91.930	-135.2098
32.202039	91.958	-135.5199
32.435388	91.987	-135.8320
32.670428	92.015	-136.1465
32.907171	92.043	-136.4636
33.145630	92.071	-136.7835
33.385817	92.099	-137.1062
33.627745	92.126	-137.4315
33.871425	92.154	-137.7592
34.116871	92.181	-138.0888
34.364096	92.208	-138.4200
34.613113	92.234	-138.7522
34.863934	92.261	-139.0847
35.116572	92.287	-139.4170
35.371041	92.313	-139.7483
35.627354	92.338	-140.0781
35.885525	92.363	-140.4060
36.145566	92.389	-140.7317
36.407492	92.414	-141.0553
36.671316	92.439	-141.3771
36.937051	92.464	-141.6973
37.204712	92.489	-142.0162
37.474313	92.513	-142.3340
37.745867	92.537	-142.6506
38.019389	92.561	-142.9657
38.294893	92.585	-143.2792
38.572394	92.608	-143.5909
38.851905	92.631	-143.9012
39.133442	92.654	-144.2104
39.417019	92.677	-144.5195
39.702651	92.699	-144.8288
39.990353	92.721	-145.1388
40.280140	92.743	-145.4495
40.572026	92.764	-145.7604
40.866028	92.785	-146.0709
41.162160	92.806	-146.3807
41.460438	92.826	-146.6898
41.760877	92.846	-146.9987
42.063494	92.866	-147.3080
42.368303	92.886	-147.6185
42.675322	92.906	-147.9304
42.984565	92.925	-148.2435
43.296048	92.943	-148.5569
43.609789	92.961	-148.8695
43.925804	92.979	-149.1805
44.244108	92.997	-149.4894
44.564719	93.014	-149.7965
44.887654	93.031	-150.1024
45.212928	93.049	-150.4079
45.540560	93.066	-150.7134
45.870565	93.083	-151.0191
46.202962	93.100	-151.3248
46.537768	93.116	-151.6302
46.875000	93.133	-151.9352
47.214676	93.150	-152.2399
47.556813	93.166	-152.5448
47.901429	93.183	-152.8501
48.248542	93.199	-153.1560
48.598171	93.215	-153.4622
48.950334	93.232	-153.7683
49.305048	93.247	-154.0736
49.662333	93.263	-154.3778
50.022206	93.279	-154.6809
50.384688	93.294	-154.9830
50.749796	93.309	-155.2846
51.117550	93.324	-155.5856
51.487969	93.339	-155.8858
51.861072	93.353	-156.1844
52.236879	93.368	-156.4808
52.615409	93.381	-156.7746
52.996681	93.395	-157.0661
53.380717	93.409	-157.3558
53.767536	93.424	-157.6448
54.157158	93.438	-157.9336
54.549603	93.453	-158.2231
54.944892	93.467	-158.5138
55.343045	93.482	-158.8063
55.744084	93.498	-159.1017
56.148028	93.513	-159.4009
56.554900	93.528	-159.7046
56.964720	93.544	-160.0130
57.377510	93.559	-160.3260
57.793291	93.573	-160.6425
58.212085	93.587	-160.9614
58.633914	93.600	-161.2811
59.058799	93.612	-161.5999
59.486764	93.623	-161.9164
59.917829	93.634	-162.2302
60.352019	93.644	-162.5412
60.789354	93.654	-162.8502
61.229859	93.664	-163.1575
61.673556	93.672	-163.4631
62.120468	93.681	-163.7665
62.570618	93.688	-164.0675
63.024031	93.696	-164.3663
63.480729	93.703	-164.6639
63.940736	93.710	-164.9610
64.404077	93.717	-165.2580
64.870776	93.723	-165.5546
65.340856	93.729	-165.8502
65.814343	93.735	-166.1443
66.291261	93.740	-166.4366
66.771635	93.745	-166.7267
67.255489	93.750	-167.0138
67.742850	93.756	-167.2974
68.233743	93.761	-167.5776
68.728193	93.767	-167.8551
69.226226	93.773	-168.1308
69.727867	93.780	-168.4055
70.233144	93.787	-168.6799
70.742083	93.795	-168.9544
71.254709	93.802	-169.2295
71.771050	93.810	-169.5057
72.291132	93.817	-169.7828
72.814984	93.825	-170.0605
73.342631	93.832	-170.3383
73.874102	93.840	-170.6161
74.409424	93.848	-170.8942
74.948626	93.855	-171.1740
75.491734	93.864	-171.4570
76.038779	93.872	-171.7440
76.589787	93.880	-172.0350
77.144788	93.888	-172.3290
77.703811	93.895	-172.6258
78.266885	93.903	-172.9259
78.834039	93.911	-173.2303
79.405303	93.919	-173.5400
79.980706	93.927	-173.8553
80.560280	93.934	-174.1770
81.144053	93.941	-174.5056
81.732056	93.947	-174.8413
82.324320	93.952	-175.1834
82.920876	93.956	-175.5299
83.521755	93.958	-175.8779
84.126988	93.958	-176.2245
84.736607	93.956	-176.5666
85.350643	93.953	-176.9017
85.969129	93.950	-177.2281
86.592097	93.945	-177.5452
87.219579	93.941	-177.8535
87.851608	93.936	-178.1539
88.488217	93.932	-178.4478
89.129439	93.928	-178.7369
89.775308	93.925	-179.0224
90.425856	93.923	-179.3055
91.081119	93.920	-179.5871
91.741131	93.918	-179.8681
92.405925	93.916	179.8510
93.075536	93.915	179.5700
93.750000	93.913	179.2889
94.429351	93.911	179.0077
95.113625	93.909	178.7265
95.802858	93.906	178.4453
96.497085	93.904	178.1643
97.196342	93.901	177.8840
97.900667	93.897	177.6047
98.610096	93.893	177.3272
99.324665	93.889	177.0522
100.044413	93.885	176.7800
100.769376	93.881	176.5107
101.499592	93.876	176.2439
102.235100	93.872	175.9787
102.975938	93.868	175.7141
103.722144	93.864	175.4490
104.473757	93.860	175.1828
105.230817	93.857	174.9151
105.993363	93.854	174.6458
106.761435	93.851	174.3745
107.535072	93.848	174.1015
108.314315	93.845	173.8267
109.099206	93.842	173.5501
109.889783	93.839	173.2720
110.686090	93.836	172.9921
111.488167	93.832	172.7099
112.296056	93.826	172.4252
113.109800	93.820	172.1382
113.929440	93.812	171.8503
114.755020	93.803	171.5644
115.586582	93.793	171.2838
116.424170	93.781	171.0117
117.267827	93.770	170.7502
118.117598	93.760	170.5002
118.973527	93.751	170.2617
119.835658	93.744	170.0341
120.704037	93.739	169.8141
121.578708	93.736	169.5956
122.459718	93.736	169.3722
123.347111	93.736	169.1402
124.240935	93.736	168.8986
125.141236	93.736	168.6474
126.048061	93.735	168.3873
126.961458	93.734	168.1191
127.881473	93.732	167.8438
128.808154	93.729	167.5630
129.741551	93.726	167.2786
130.681712	93.722	166.9920
131.628686	93.717	166.7039
132.582521	93.712	166.4141
133.543269	93.706	166.1227
134.510979	93.699	165.8299
135.485701	93.692	165.5364
136.467486	93.684	165.2430
137.456386	93.675	164.9505
138.452451	93.666	164.6597
139.455735	93.656	164.3707
140.466288	93.647	164.0839
141.484165	93.637	163.7989
142.509418	93.627	163.5151
143.542100	93.616	163.2318
144.582265	93.606	162.9478
145.629968	93.595	162.6627
146.685262	93.584	162.3770
147.748204	93.572	162.0912
148.818849	93.559	161.8071
149.897251	93.545	161.5265
150.983469	93.530	161.2517
152.077557	93.514	160.9851
153.179574	93.497	160.7287
154.289576	93.480	160.4827
155.407622	93.465	160.2448
156.533770	93.450	160.0099
157.668078	93.437	159.7721
158.810606	93.425	159.5263
159.961413	93.414	159.2699
161.120559	93.402	159.0027
162.288105	93.390	158.7260
163.464112	93.376	158.4421
164.648640	93.362	158.1543
165.841752	93.345	157.8663
167.043510	93.328	157.5818
168.253976	93.309	157.3043
169.473213	93.289	157.0359
170.701286	93.270	156.7773
171.938258	93.251	156.5271
173.184194	93.234	156.2826
174.439158	93.217	156.0406
175.703216	93.201	155.7983
176.976434	93.185	155.5536
178.258878	93.170	155.3051
179.550615	93.156	155.0515
180.851713	93.141	154.7924
182.162239	93.126	154.5279
183.482262	93.110	154.2591
184.811850	93.095	153.9870
186.151073	93.079	153.7126
187.500000	93.062	153.4367
188.858702	93.045	153.1602
190.227250	93.027	152.8841
191.605715	93.009	152.6092
192.994169	92.990	152.3364
194.392685	92.971	152.0670
195.801334	92.952	151.8023
197.220191	92.932	151.5436
198.649330	92.911	151.2916
200.088825	92.891	151.0464
201.538751	92.870	150.8074
202.999184	92.850	150.5727
204.470200	92.831	150.3389
205.951875	92.812	150.1026
207.444287	92.793	149.8615
208.947514	92.774	149.6154
210.461634	92.753	149.3670
211.986726	92.730	149.1207
213.522869	92.704	148.8822
215.070144	92.678	148.6575
216.628631	92.649	148.4514
218.198411	92.622	148.2657
219.779567	92.595	148.0980
221.372180	92.570	147.9429
222.976334	92.548	147.7939
224.592112	92.529	147.6459
226.219600	92.511	147.4951
227.858880	92.496	147.3389
229.510039	92.482	147.1754
231.173164	92.470	147.0030
232.848340	92.459	146.8201
234.535655	92.449	146.6253
236.235197	92.439	146.4167
237.947054	92.429	146.1929
239.671317	92.418	145.9536
241.408074	92.406	145.7013
243.157416	92.391	145.4412
244.919435	92.375	145.1794
246.694223	92.356	144.9221
248.481871	92.336	144.6746
250.282473	92.315	144.4402
252.096123	92.294	144.2208
253.922915	92.275	144.0141
255.762945	92.258	143.8138
257.616309	92.244	143.6094
259.483103	92.231	143.3907
261.363424	92.219	143.1524
263.257372	92.206	142.8962
265.165043	92.192	142.6293
267.086538	92.174	142.3599
269.021957	92.155	142.0952
270.971401	92.135	141.8396
272.934972	92.115	141.5939
274.912771	92.094	141.3569
276.904902	92.075	141.1262
278.911469	92.056	140.8997
280.932577	92.039	140.6757
282.968330	92.024	140.4512
285.018835	92.010	140.2215
287.084199	91.997	139.9808
289.164530	91.985	139.7238
291.259935	91.972	139.4492
293.370525	91.956	139.1613
295.496408	91.937	138.8685
297.637697	91.914	138.5793
299.794503	91.889	138.2992
301.966937	91.862	138.0297
304.155114	91.834	137.7696
306.359147	91.806	137.5158
308.579152	91.778	137.2654
310.815244	91.750	137.0162
313.067539	91.721	136.7678
315.336156	91.692	136.5217
317.621211	91.662	136.2816
319.922826	91.631	136.0509
322.241118	91.600	135.8313
324.576210	91.569	135.6218
326.928223	91.539	135.4195
329.297280	91.510	135.2211
331.683504	91.482	135.0236
334.087019	91.455	134.8243
336.507952	91.428	134.6216
338.946427	91.400	134.4144
341.402572	91.372	134.2035
343.876516	91.343	133.9911
346.368387	91.314	133.7799
348.878315	91.283	133.5718
351.406431	91.252	133.3675
353.952867	91.222	133.1670
356.517756	91.191	132.9698
359.101230	91.160	132.7750
361.703426	91.129	132.5820
364.324478	91.098	132.3903
366.964523	91.067	132.2003
369.623699	91.035	132.0126
372.302145	91.004	131.8276
375.000000	90.973	131.6455
377.717405	90.941	131.4662
380.454501	90.910	131.2896
383.211431	90.879	131.1154
385.988339	90.848	130.9435
388.785369	90.817	130.7737
391.602668	90.787	130.6062
394.440383	90.756	130.4407
397.298660	90.726	130.2769
400.177650	90.696	130.1143
403.077502	90.666	129.9516
405.998368	90.636	129.7877
408.940400	90.607	129.6221
411.903750	90.577	129.4562
414.888575	90.546	129.2933
417.895028	90.514	129.1367
420.923268	90.483	128.9891
423.973452	90.451	128.8510
427.045738	90.421	128.7209
430.140287	90.392	128.5949
433.257261	90.365	128.4683
436.396822	90.339	128.3380
439.559133	90.315	128.2035
442.744360	90.291	128.0649
445.952668	90.268	127.9209
449.184225	90.247	127.7671
452.439199	90.225	127.5980
455.717760	90.203	127.4102
459.020079	90.178	127.2068
462.346327	90.149	126.9980
465.696680	90.118	126.7954
469.071310	90.085	126.6068
472.470394	90.050	126.4341
475.894109	90.015	126.2748
479.342634	89.981	126.1237
482.816148	89.947	125.9749
486.314833	89.912	125.8264
489.838871	89.877	125.6821
493.388445	89.841	125.5492
496.963741	89.805	125.4318
500.564945	89.770	125.3265
504.192245	89.737	125.2256
507.845830	89.705	125.1222
511.525890	89.674	125.0132
515.232618	89.642	124.8997
518.966206	89.610	124.7854
522.726849	89.577	124.6753
526.514743	89.543	124.5741
530.330086	89.509	124.4841
534.173076	89.476	124.4033
538.043915	89.445	124.3273
541.942803	89.414	124.2535
545.869944	89.383	124.1823
549.825542	89.354	124.1146
553.809805	89.325	124.0492
557.822939	89.296	123.9832
561.865154	89.268	123.9144
565.936660	89.240	123.8429
570.037671	89.212	123.7711
574.168399	89.183	123.7025
578.329060	89.153	123.6390
582.519870	89.124	123.5804
586.741049	89.094	123.5266
590.992817	89.065	123.4798
595.275394	89.036	123.4427
599.589005	89.007	123.4149
603.933874	88.980	123.3923
608.310228	88.954	123.3711
612.718295	88.928	123.3495
617.158304	88.902	123.3295
621.630488	88.876	123.3165
626.135079	88.850	123.3167
630.672311	88.825	123.3322
635.242423	88.803	123.3595
639.845651	88.783	123.3921
644.482237	88.765	123.4271
649.152421	88.749	123.4646
653.856447	88.736	123.5027
658.594560	88.726	123.5347
663.367008	88.719	123.5505
668.174039	88.712	123.5423
673.015903	88.705	123.5103
677.892854	88.697	123.4620
682.805145	88.685	123.4064
687.753032	88.672	123.3506
692.736774	88.656	123.3004
697.756631	88.639	123.2604
702.812863	88.622	123.2328
707.905735	88.605	123.2162
713.035511	88.589	123.2067
718.202461	88.574	123.2010
723.406852	88.560	123.1978
728.648956	88.545	123.1979
733.929047	88.531	123.2022
739.247399	88.517	123.2115
744.604290	88.503	123.2268
750.000000	88.490	123.2489
755.434809	88.477	123.2783
760.909001	88.466	123.3149
766.422861	88.455	123.3583
771.976677	88.445	123.4074
777.570739	88.436	123.4612
783.205337	88.429	123.5190
788.880766	88.422	123.5818
794.597321	88.416	123.6524
800.355301	88.413	123.7332
806.155005	88.412	123.8231
811.996736	88.414	123.9162
817.880799	88.421	124.0038
823.807501	88.431	124.0763
829.777150	88.443	124.1260
835.790057	88.456	124.1506
841.846536	88.468	124.1564
847.946903	88.478	124.1534
854.091476	88.486	124.1496
860.280575	88.494	124.1486
866.514523	88.501	124.1531
872.793644	88.508	124.1664
879.118267	88.516	124.1882
885.488720	88.526	124.2149
891.905336	88.537	124.2426
898.368450	88.550	124.2707
904.878398	88.564	124.3007
911.435520	88.580	124.3333
918.040157	88.598	124.3661
924.692655	88.618	124.3959
931.393359	88.641	124.4185
938.142619	88.666	124.4295
944.940787	88.693	124.4260
951.788218	88.721	124.4077
958.685268	88.751	124.3757
965.632296	88.781	124.3313
972.629666	88.812	124.2758
979.677741	88.844	124.2086
986.776890	88.876	124.1272
993.927482	88.908	124.0315
1001.129891	88.939	123.9249
1008.384491	88.969	123.8124
1015.691660	88.997	123.6962
1023.051781	89.025	123.5768
1030.465236	89.053	123.4552
1037.932411	89.079	123.3304
1045.453698	89.105	123.2023
1053.029486	89.128	123.0757
1060.660172	89.150	122.9613
1068.346153	89.172	122.8689
1076.087829	89.194	122.8035
1083.885605	89.220	122.7617
1091.739887	89.250	122.7334
1099.651084	89.286	122.7059
1107.619609	89.326	122.6685
1115.645878	89.370	122.6140
1123.730308	89.417	122.5391
1131.873321	89.467	122.4430
1140.075341	89.518	122.3269
1148.336797	89.569	122.1924
1156.658119	89.622	122.0418
1165.039741	89.675	121.8776
1173.482099	89.729	121.7028
1181.985634	89.785	121.5182
1190.550789	89.844	121.3191
1199.178011	89.905	121.0958
1207.867749	89.968	120.8377
1216.620457	90.031	120.5397
1225.436590	90.092	120.2059
1234.316609	90.150	119.8449
1243.260976	90.203	119.4662
1252.270157	90.254	119.0781
1261.344623	90.301	118.6854
1270.484846	90.346	118.2902
1279.691303	90.388	117.8947
1288.964474	90.429	117.5008
1298.304842	90.468	117.1091
1307.712894	90.506	116.7176
1317.189120	90.544	116.3236
1326.734016	90.580	115.9254
1336.348077	90.616	115.5242
1346.031806	90.650	115.1232
1355.785708	90.683	114.7269
1365.610290	90.716	114.3399
1375.506065	90.749	113.9677
1385.473549	90.783	113.6159
1395.513261	90.819	113.2870
1405.625726	90.857	112.9770
1415.811469	90.899	112.6754
1426.071023	90.944	112.3688
1436.404921	90.990	112.0482
1446.813703	91.036	111.7132
1457.297912	91.081	111.3687
1467.858093	91.124	111.0212
1478.494798	91.164	110.6753
1489.208581	91.202	110.3344
1500.000000	91.238	110.0019
1510.869618	91.269	109.6808
1521.818002	91.297	109.3740
1532.845723	91.322	109.0835
1543.953355	91.345	108.8106
1555.141477	91.366	108.5551
1566.410674	91.389	108.3126
1577.761531	91.415	108.0723
1589.194642	91.444	107.8200
1600.710601	91.475	107.5457
1612.310010	91.507	107.2476
1623.993473	91.539	106.9298
1635.761599	91.570	106.5989
1647.615002	91.601	106.2601
1659.554299	91.631	105.9176
1671.580114	91.661	105.5742
1683.693072	91.691	105.2303
1695.893807	91.723	104.8845
1708.182952	91.755	104.5344
1720.561150	91.787	104.1803
1733.029045	91.817	103.8248
1745.587288	91.847	103.4728
1758.236533	91.876	103.1300
1770.977440	91.907	102.8010
1783.810673	91.940	102.4840
1796.736900	91.978	102.1687
1809.756796	92.022	101.8392
1822.871040	92.069	101.4825
1836.080315	92.119	101.0930
1849.385310	92.170	100.6706
1862.786718	92.222	100.2179
1876.285239	92.275	99.7394
1889.881575	92.328	99.2409
1903.576436	92.382	98.7287
1917.370535	92.439	98.2088
1931.264593	92.499	97.6854
1945.259332	92.564	97.1583
1959.355483	92.635	96.6201
1973.553781	92.711	96.0581
1987.854965	92.789	95.4628
2002.259781	92.869	94.8310
2016.768981	92.946	94.1652
2031.383320	93.022	93.4700
2046.103561	93.095	92.7510
2060.930471	93.164	92.0126
2075.864823	93.230	91.2573
2090.907395	93.293	90.4862
2106.058972	93.352	89.7017
2121.320344	93.405	88.9095
2136.692305	93.454	88.1179
2152.175658	93.499	87.3356
2167.771210	93.542	86.5660
2183.479774	93.583	85.8038
2199.302169	93.624	85.0385
2215.239219	93.664	84.2610
2231.291755	93.703	83.4671
2247.460615	93.740	82.6569
2263.746641	93.773	81.8344
2280.150683	93.802	81.0067
2296.673595	93.828	80.1817
2313.316238	93.851	79.3664
2330.079481	93.874	78.5628
2346.964198	93.896	77.7647
2363.971268	93.919	76.9614
2381.101578	93.942	76.1438
2398.356022	93.964	75.3080
2415.735498	93.982	74.4547
2433.240913	93.998	73.5878
2450.873180	94.009	72.7112
2468.633217	94.016	71.8283
2486.521951	94.019	70.9427
2504.540314	94.016	70.0608
2522.689246	94.008	69.1928
2540.969692	93.995	68.3487
2559.382606	93.981	67.5323
2577.928947	93.965	66.7390
2596.609683	93.949	65.9605
2615.425787	93.933	65.1901
2634.378241	93.915	64.4251
2653.468031	93.894	63.6678
2672.696154	93.870	62.9246
2692.063613	93.844	62.2042
2711.571415	93.817	61.5122
2731.220579	93.789	60.8470
2751.012130	93.764	60.2000
2770.947098	93.739	59.5617
2791.026522	93.715	58.9258
2811.251451	93.691	58.2904
2831.622938	93.665	57.6562
2852.142045	93.638	57.0248
2872.809842	93.607	56.3996
2893.627406	93.574	55.7878
2914.595823	93.536	55.2006
2935.716186	93.497	54.6487
2956.989596	93.457	54.1356
2978.417161	93.418	53.6577
3000.000000	93.380	53.2092
3021.739237	93.344	52.7854
3043.636005	93.309	52.3861
3065.691446	93.276	52.0157
3087.906710	93.245	51.6806
3110.282955	93.218	51.3825
3132.821347	93.197	51.1141
3155.523062	93.182	50.8617
3178.389283	93.175	50.6100
3201.421202	93.175	50.3452
3224.620020	93.179	50.0561
3247.986946	93.186	49.7349
3271.523198	93.194	49.3799
3295.230004	93.200	48.9981
3319.108599	93.204	48.6019
3343.160228	93.205	48.2018
3367.386145	93.205	47.8037
3391.787613	93.202	47.4104
3416.365904	93.198	47.0256
3441.122300	93.191	46.6575
3466.058091	93.183	46.3184
3491.174576	93.173	46.0203
3516.473066	93.165	45.7685
3541.954880	93.160	45.5607
3567.621345	93.160	45.3903
3593.473800	93.165	45.2494
3619.513592	93.175	45.1302
3645.742080	93.191	45.0259
3672.160630	93.212	44.9337
3698.770620	93.238	44.8554
3725.573436	93.270	44.7913
3752.570477	93.309	44.7344
3779.763150	93.355	44.6722
3807.152872	93.407	44.5914
3834.741071	93.463	44.4846
3862.529185	93.523	44.3522
3890.518664	93.586	44.1972
3918.710966	93.651	44.0196
3947.107561	93.720	43.8157
3975.709929	93.792	43.5801
4004.519563	93.867	43.3075
4033.537962	93.943	42.9939
4062.766641	94.020	42.6410
4092.207123	94.095	42.2565
4121.860942	94.170	41.8487
4151.729646	94.244	41.4214
4181.814790	94.317	40.9745
4212.117944	94.389	40.5089
4242.640687	94.459	40.0305
4273.384610	94.528	39.5477
4304.351317	94.597	39.0652
4335.542421	94.668	38.5806
4366.959549	94.741	38.0856
4398.604338	94.818	37.5671
4430.478438	94.897	37.0120
4462.583511	94.978	36.4129
4494.921231	95.059	35.7683
4527.493283	95.140	35.0779
4560.301365	95.219	34.3404
4593.347189	95.296	33.5550
4626.632476	95.369	32.7266
4660.158962	95.437	31.8650
4693.928395	95.502	30.9790
4727.942535	95.563	30.0726
4762.203156	95.621	29.1434
4796.712043	95.678	28.1837
4831.470996	95.733	27.1854
4866.481826	95.783	26.1451
4901.746360	95.829	25.0633
4937.266434	95.868	23.9412
4973.043902	95.899	22.7798
5009.080628	95.921	21.5841
5045.378492	95.931	20.3655
5081.939384	95.929	19.1383
5118.765212	95.915	17.9149
5155.857894	95.889	16.7036
5193.219366	95.852	15.5079
5230.851574	95.802	14.3326
5268.756481	95.737	13.1893
5306.936062	95.656	12.0985
5345.392309	95.558	11.0879
5384.127225	95.443	10.1954
5423.142830	95.314	9.4705
5462.441159	95.178	8.9639
5502.024259	95.048	8.7034
5541.894195	94.941	8.6611
5582.053045	94.870	8.7333
5622.502902	94.838	8.7642
5663.245876	94.835	8.6132
5704.284090	94.840	8.2186
5745.619684	94.834	7.6089
5787.254813	94.803	6.8698
5829.191647	94.744	6.1015
5871.432373	94.658	5.3903
5913.979192	94.552	4.7950
5956.834323	94.433	4.3460
6000.000000	94.308	4.0498
6043.478473	94.183	3.8987
6087.272010	94.063	3.8779
6131.382892	93.950	3.9688
6175.813420	93.846	4.1520
6220.565910	93.750	4.4135
6265.642695	93.664	4.7465
6311.046124	93.586	5.1505
6356.778566	93.518	5.6251
6402.842404	93.461	6.1665
6449.240040	93.417	6.7689
6495.973891	93.386	7.4239
6543.046396	93.370	8.1196
6590.460007	93.369	8.8442
6638.217197	93.383	9.5900
6686.320456	93.411	10.3549
6734.772290	93.455	11.1391
6783.575226	93.515	11.9407
6832.731809	93.592	12.7545
6882.244600	93.688	13.5712
6932.116181	93.802	14.3755
6982.349153	93.937	15.1497
7032.946133	94.092	15.8774
7083.909760	94.269	16.5461
7135.242690	94.468	17.1423
7186.947600	94.692	17.6486
7239.027185	94.941	18.0408
7291.484160	95.218	18.2855
7344.321260	95.523	18.3396
7397.541239	95.852	18.1557
7451.146872	96.203	17.6873
7505.140954	96.572	16.8906
7559.526299	96.952	15.7224
7614.305743	97.336	14.1411
7669.482141	97.715	12.1083
7725.058371	98.077	9.5914
7781.037328	98.409	6.5724
7837.421932	98.695	3.0582
7894.215122	98.920	-0.9117
7951.419859	99.069	-5.2634
8009.039125	99.131	-9.8909
8067.075924	99.100	-14.6629
8125.533282	98.972	-19.4357
8184.414245	98.749	-24.0657
8243.721885	98.436	-28.4196
8303.459292	98.041	-32.3824
8363.629581	97.576	-35.8644
8424.235888	97.054	-38.8038
8485.281374	96.490	-41.1693
8546.769221	95.900	-42.9604
8608.702634	95.299	-44.2031
8671.084842	94.698	-44.9394
8733.919097	94.108	-45.2177
8797.208675	93.536	-45.0857
8860.956876	92.989	-44.5875
8925.167022	92.472	-43.7680
8989.842461	91.988	-42.6755
9054.986566	91.541	-41.3593
9120.602731	91.130	-39.8632
9186.694378	90.756	-38.2218
9253.264952	90.416	-36.4586
9320.317925	90.113	-34.5925
9387.856790	89.844	-32.6459
9455.885071	89.612	-30.6444
9524.406312	89.413	-28.6139
9593.424086	89.248	-26.5741
9662.941992	89.115	-24.5356
9732.963653	89.013	-22.5054
9803.492719	88.941	-20.4933
9874.532869	88.899	-18.5128
9946.087805	88.884	-16.5773
10018.161257	88.896	-14.6921
10090.756983	88.934	-12.8552
10163.878768	88.997	-11.0643
10237.530423	89.089	-9.3256
10311.715789	89.211	-7.6569
10386.438732	89.366	-6.0853
10461.703149	89.555	-4.6436
10537.512962	89.779	-3.3743
10613.872125	90.038	-2.3345
10690.784618	90.330	-1.5943
10768.254450	90.646	-1.2260
10846.285661	90.977	-1.2882
10924.882318	91.309	-1.8186
11004.048518	91.628	-2.8335
11083.788390	91.922	-4.3302
11164.106090	92.175	-6.2853
11245.005805	92.373	-8.6517
11326.491752	92.506	-11.3595
11408.568180	92.563	-14.3237
11491.239368	92.540	-17.4517
11574.509626	92.430	-20.6459
11658.383294	92.232	-23.8010
11742.864745	91.946	-26.8041
11827.958384	91.575	-29.5411
11913.668646	91.127	-31.9104
12000.000000	90.615	-33.8309
12086.956947	90.051	-35.2455
12174.544019	89.451	-36.1199
12262.765784	88.830	-36.4446
12351.626840	88.202	-36.2371
12441.131819	87.582	-35.5374
12531.285389	86.980	-34.3990
12622.092249	86.406	-32.8798
12713.557132	85.865	-31.0405
12805.684808	85.363	-28.9460
12898.480079	84.901	-26.6593
12991.947783	84.478	-24.2344
13086.092792	84.094	-21.7134
13180.920015	83.746	-19.1317
13276.434395	83.431	-16.5173
13372.640911	83.147	-13.8859
13469.544580	82.891	-11.2376
13567.150452	82.661	-8.5646
13665.463617	82.460	-5.8606
13764.489200	82.291	-3.1277
13864.232362	82.162	-0.3851
13964.698305	82.079	2.3145
14065.892266	82.051	4.8711
14167.819519	82.080	7.1416
14270.485380	82.159	8.9642
14373.895200	82.271	10.1925
14478.054370	82.390	10.7318
14582.968320	82.483	10.5715
14688.642520	82.515	9.8007
14795.082478	82.462	8.5920
14902.293745	82.310	7.1650
15010.281908	82.059	5.7372
15119.052599	81.724	4.4729
15228.611486	81.327	3.4434
15338.964283	80.888	2.6199
15450.116741	80.419	1.9178
15562.074656	79.913	1.2763
15674.843864	79.352	0.7413
15788.430244	78.714	0.5237
15902.839718	77.987	1.0200
16018.078250	77.187	2.7711
16134.151848	76.367	6.2874
16251.066563	75.623	11.6392
16368.828491	75.049	18.0114
16487.443769	74.677	23.9808
16606.918584	74.450	28.5945
16727.259161	74.274	31.8669
16848.471777	74.090	34.3107
16970.562748	73.878	36.3998
17093.538442	73.645	38.3737
17217.405268	73.401	40.2697
17342.169684	73.147	42.0299
17467.838194	72.871	43.6108
17594.417350	72.555	45.0550
17721.913751	72.181	46.5036
17850.334044	71.744	48.1545
17979.684923	71.253	50.2000
18109.973131	70.726	52.7692
18241.205462	70.189	55.8852
18373.388756	69.665	59.4579
18506.529905	69.171	63.3145
18640.635849	68.711	67.2520
18775.713581	68.281	71.0900
18911.770141	67.867	74.7120
19048.812624	67.452	78.0745
19186.848172	67.021	81.1914
19325.883983	66.566	84.1093
19465.927305	66.092	86.8714
19606.985439	65.621	89.4751
19749.065738	65.194	91.8243
19892.175609	64.865	93.6934
20036.322514	64.685	94.7598
