* Measurement data measured by REW V5.30.4
* Source: EXCL: Microphone (Realtek(R) Audio), MICROPHONE (Master Volume), L, volume: 1.000
* Format: 256k Log Swept Sine, 1 sweep at -19.0 dBFS with no timing reference
* Dated: Jan 15, 2024 12:15:39 AM
* REW Settings:
*  C-weighting compensation: Off
*  Target level: 75.0 dB
* Note: CVJ Seven
* Measurement: CVJ Seven V.Game
* Smoothing: 1/12 octave
* Frequency Step: 96 ppo
* Start Frequency: 0.36621094 Hz
*
* Freq(Hz) SPL(dB) Phase(degrees)
0.366211 73.938 -18.4144
0.368865 73.933 -18.4286
0.371538 73.927 -18.4501
0.374230 73.920 -18.4770
0.376942 73.911 -18.5082
0.379673 73.902 -18.5425
0.382424 73.892 -18.5794
0.385196 73.883 -18.6184
0.387987 73.873 -18.6593
0.390798 73.863 -18.7020
0.393630 73.852 -18.7464
0.396483 73.842 -18.7925
0.399356 73.832 -18.8403
0.402250 73.821 -18.8898
0.405165 73.811 -18.9410
0.408101 73.800 -18.9939
0.411058 73.789 -19.0485
0.414037 73.778 -19.1048
0.417037 73.768 -19.1628
0.420059 73.757 -19.2226
0.423103 73.746 -19.2842
0.426169 73.735 -19.3475
0.429257 73.723 -19.4126
0.432367 73.712 -19.4795
0.435501 73.701 -19.5481
0.438656 73.689 -19.6186
0.441835 73.678 -19.6908
0.445037 73.666 -19.7649
0.448262 73.655 -19.8408
0.451510 73.643 -19.9185
0.454782 73.631 -19.9980
0.458077 73.619 -20.0793
0.461397 73.607 -20.1624
0.464740 73.595 -20.2474
0.468108 73.583 -20.3342
0.471500 73.570 -20.4228
0.474917 73.558 -20.5132
0.478358 73.546 -20.6055
0.481825 73.533 -20.6995
0.485316 73.520 -20.7953
0.488833 73.508 -20.8930
0.492375 73.495 -20.9924
0.495943 73.482 -21.0936
0.499537 73.469 -21.1965
0.503157 73.456 -21.3012
0.506803 73.443 -21.4076
0.510475 73.429 -21.5157
0.514174 73.416 -21.6255
0.517900 73.402 -21.7370
0.521653 73.389 -21.8501
0.525433 73.375 -21.9649
0.529241 73.361 -22.0812
0.533076 73.348 -22.1990
0.536939 73.334 -22.3184
0.540830 73.319 -22.4393
0.544749 73.305 -22.5616
0.548696 73.291 -22.6854
0.552673 73.277 -22.8105
0.556677 73.262 -22.9369
0.560711 73.247 -23.0645
0.564774 73.233 -23.1934
0.568867 73.218 -23.3234
0.572989 73.203 -23.4545
0.577141 73.188 -23.5866
0.581324 73.173 -23.7196
0.585536 73.158 -23.8535
0.589779 73.142 -23.9882
0.594053 73.127 -24.1236
0.598358 73.111 -24.2596
0.602694 73.095 -24.3962
0.607061 73.080 -24.5332
0.611460 73.064 -24.6705
0.615891 73.048 -24.8080
0.620354 73.032 -24.9456
0.624849 73.015 -25.0832
0.629377 72.999 -25.2206
0.633938 72.982 -25.3578
0.638532 72.966 -25.4946
0.643159 72.949 -25.6307
0.647819 72.932 -25.7662
0.652514 72.915 -25.9007
0.657242 72.898 -26.0342
0.662005 72.881 -26.1665
0.666802 72.863 -26.2973
0.671634 72.846 -26.4266
0.676501 72.828 -26.5540
0.681403 72.811 -26.6794
0.686341 72.793 -26.8026
0.691314 72.775 -26.9233
0.696324 72.756 -27.0413
0.701369 72.738 -27.1564
0.706452 72.720 -27.2684
0.711571 72.701 -27.3772
0.716727 72.682 -27.4827
0.721921 72.662 -27.5849
0.727153 72.642 -27.6839
0.732422 72.621 -27.7803
0.737729 72.600 -27.8744
0.743075 72.577 -27.9669
0.748460 72.554 -28.0582
0.753883 72.530 -28.1487
0.759346 72.505 -28.2386
0.764849 72.479 -28.3280
0.770391 72.453 -28.4170
0.775974 72.426 -28.5055
0.781597 72.398 -28.5936
0.787261 72.370 -28.6812
0.792965 72.341 -28.7682
0.798712 72.312 -28.8546
0.804499 72.282 -28.9403
0.810329 72.251 -29.0252
0.816201 72.220 -29.1093
0.822116 72.189 -29.1924
0.828073 72.157 -29.2744
0.834073 72.124 -29.3553
0.840118 72.091 -29.4349
0.846205 72.058 -29.5132
0.852337 72.024 -29.5900
0.858514 71.990 -29.6651
0.864735 71.956 -29.7385
0.871001 71.921 -29.8100
0.877313 71.886 -29.8795
0.883670 71.851 -29.9467
0.890074 71.815 -30.0117
0.896523 71.779 -30.0741
0.903020 71.744 -30.1337
0.909564 71.708 -30.1905
0.916155 71.672 -30.2443
0.922793 71.636 -30.2947
0.929480 71.600 -30.3416
0.936216 71.564 -30.3848
0.943000 71.528 -30.4240
0.949833 71.492 -30.4589
0.956716 71.456 -30.4895
0.963649 71.421 -30.5152
0.970632 71.386 -30.5360
0.977666 71.351 -30.5514
0.984750 71.317 -30.5612
0.991886 71.284 -30.5652
0.999074 71.250 -30.5628
1.006313 71.218 -30.5539
1.013605 71.186 -30.5381
1.020950 71.155 -30.5151
1.028349 71.124 -30.4844
1.035801 71.095 -30.4456
1.043306 71.066 -30.3985
1.050867 71.039 -30.3426
1.058482 71.012 -30.2774
1.066152 70.987 -30.2025
1.073878 70.963 -30.1173
1.081659 70.940 -30.0211
1.089498 70.918 -29.9133
1.097393 70.898 -29.7929
1.105345 70.878 -29.6591
1.113355 70.859 -29.5108
1.121422 70.841 -29.3474
1.129549 70.824 -29.1685
1.137734 70.807 -28.9738
1.145978 70.791 -28.7631
1.154283 70.775 -28.5366
1.162647 70.760 -28.2945
1.171072 70.746 -28.0368
1.179558 70.732 -27.7640
1.188106 70.719 -27.4764
1.196715 70.706 -27.1743
1.205387 70.695 -26.8582
1.214122 70.684 -26.5286
1.222920 70.675 -26.1861
1.231781 70.666 -25.8311
1.240708 70.658 -25.4645
1.249698 70.651 -25.0869
1.258754 70.646 -24.6990
1.267875 70.642 -24.3016
1.277063 70.639 -23.8957
1.286317 70.637 -23.4822
1.295638 70.637 -23.0621
1.305027 70.638 -22.6363
1.314484 70.641 -22.2061
1.324009 70.645 -21.7726
1.333603 70.651 -21.3370
1.343267 70.659 -20.9006
1.353001 70.669 -20.4646
1.362805 70.680 -20.0305
1.372681 70.694 -19.5996
1.382628 70.710 -19.1734
1.392647 70.728 -18.7531
1.402739 70.749 -18.3403
1.412904 70.771 -17.9361
1.423142 70.797 -17.5416
1.433455 70.825 -17.1576
1.443842 70.856 -16.7842
1.454305 70.890 -16.4211
1.464843 70.928 -16.0671
1.475458 70.969 -15.7205
1.486150 71.014 -15.3794
1.496919 71.062 -15.0426
1.507766 71.115 -14.7091
1.518692 71.171 -14.3788
1.529697 71.231 -14.0518
1.540782 71.295 -13.7287
1.551947 71.363 -13.4100
1.563193 71.434 -13.0965
1.574521 71.508 -12.7890
1.585931 71.586 -12.4883
1.597423 71.666 -12.1953
1.608998 71.750 -11.9106
1.620658 71.836 -11.6351
1.632402 71.924 -11.3696
1.644231 72.015 -11.1148
1.656146 72.108 -10.8713
1.668147 72.203 -10.6400
1.680235 72.299 -10.4214
1.692410 72.397 -10.2163
1.704674 72.496 -10.0252
1.717027 72.595 -9.8487
1.729469 72.695 -9.6875
1.742002 72.796 -9.5421
1.754625 72.896 -9.4129
1.767340 72.997 -9.3005
1.780147 73.097 -9.2052
1.793046 73.196 -9.1273
1.806040 73.295 -9.0667
1.819127 73.393 -9.0234
1.832309 73.491 -8.9968
1.845587 73.589 -8.9862
1.858961 73.688 -8.9909
1.872431 73.788 -9.0101
1.886000 73.889 -9.0432
1.899666 73.991 -9.0895
1.913432 74.095 -9.1486
1.927298 74.199 -9.2202
1.941264 74.305 -9.3038
1.955331 74.412 -9.3990
1.969500 74.519 -9.5056
1.983772 74.627 -9.6232
1.998147 74.736 -9.7516
2.012626 74.845 -9.8904
2.027211 74.954 -10.0394
2.041901 75.063 -10.1984
2.056697 75.172 -10.3670
2.071601 75.281 -10.5452
2.086613 75.389 -10.7328
2.101733 75.496 -10.9296
2.116963 75.603 -11.1357
2.132303 75.708 -11.3510
2.147755 75.812 -11.5757
2.163318 75.915 -11.8103
2.178995 76.016 -12.0553
2.194785 76.116 -12.3113
2.210689 76.214 -12.5792
2.226709 76.311 -12.8596
2.242844 76.407 -13.1526
2.259097 76.502 -13.4582
2.275467 76.596 -13.7757
2.291956 76.688 -14.1043
2.308565 76.780 -14.4429
2.325294 76.871 -14.7906
2.342144 76.960 -15.1461
2.359116 77.049 -15.5082
2.376211 77.137 -15.8759
2.393430 77.223 -16.2480
2.410774 77.309 -16.6234
2.428243 77.394 -17.0009
2.445839 77.477 -17.3797
2.463562 77.560 -17.7587
2.481415 77.641 -18.1373
2.499396 77.722 -18.5150
2.517508 77.801 -18.8915
2.535750 77.880 -19.2673
2.554126 77.957 -19.6433
2.572634 78.032 -20.0208
2.591276 78.107 -20.4014
2.610054 78.179 -20.7865
2.628967 78.250 -21.1766
2.648018 78.320 -21.5717
2.667206 78.387 -21.9713
2.686534 78.454 -22.3745
2.706002 78.519 -22.7801
2.725610 78.582 -23.1868
2.745361 78.645 -23.5931
2.765255 78.706 -23.9974
2.785294 78.767 -24.3983
2.805477 78.826 -24.7943
2.825807 78.885 -25.1837
2.846284 78.944 -25.5653
2.866909 79.001 -25.9380
2.887684 79.058 -26.3010
2.908609 79.115 -26.6541
2.929686 79.171 -26.9977
2.950916 79.226 -27.3327
2.972299 79.280 -27.6603
2.993838 79.332 -27.9814
3.015532 79.384 -28.2966
3.037384 79.434 -28.6063
3.059394 79.484 -28.9102
3.081564 79.533 -29.2082
3.103894 79.581 -29.4997
3.126386 79.629 -29.7842
3.149041 79.677 -30.0611
3.171861 79.725 -30.3296
3.194845 79.773 -30.5888
3.217996 79.823 -30.8382
3.241315 79.873 -31.0767
3.264803 79.924 -31.3039
3.288461 79.975 -31.5190
3.312291 80.028 -31.7217
3.336293 80.081 -31.9120
3.360469 80.135 -32.0902
3.384820 80.189 -32.2570
3.409348 80.244 -32.4130
3.434054 80.300 -32.5594
3.458938 80.356 -32.6972
3.484003 80.414 -32.8274
3.509250 80.473 -32.9512
3.534679 80.533 -33.0695
3.560293 80.596 -33.1832
3.586092 80.660 -33.2928
3.612079 80.727 -33.3985
3.638253 80.796 -33.5001
3.664618 80.868 -33.5969
3.691173 80.942 -33.6880
3.717921 81.019 -33.7728
3.744862 81.098 -33.8516
3.771999 81.179 -33.9255
3.799332 81.263 -33.9960
3.826864 81.349 -34.0656
3.854595 81.437 -34.1365
3.882527 81.528 -34.2113
3.910661 81.620 -34.2923
3.938999 81.714 -34.3818
3.967543 81.811 -34.4812
3.996294 81.909 -34.5912
4.025252 82.010 -34.7118
4.054421 82.113 -34.8423
4.083801 82.218 -34.9817
4.113394 82.326 -35.1295
4.143201 82.436 -35.2859
4.173225 82.548 -35.4516
4.203466 82.661 -35.6279
4.233926 82.776 -35.8163
4.264606 82.892 -36.0183
4.295509 83.009 -36.2355
4.326636 83.127 -36.4689
4.357989 83.245 -36.7196
4.389569 83.363 -36.9876
4.421378 83.482 -37.2725
4.453417 83.601 -37.5737
4.485688 83.721 -37.8904
4.518193 83.841 -38.2217
4.550934 83.962 -38.5673
4.583912 84.082 -38.9267
4.617129 84.202 -39.2998
4.650587 84.322 -39.6867
4.684287 84.441 -40.0875
4.718231 84.559 -40.5026
4.752421 84.676 -40.9320
4.786859 84.791 -41.3759
4.821547 84.906 -41.8341
4.856485 85.019 -42.3060
4.891677 85.132 -42.7906
4.927125 85.243 -43.2865
4.962829 85.353 -43.7925
4.998791 85.461 -44.3074
5.035015 85.568 -44.8301
5.071500 85.673 -45.3603
5.108251 85.776 -45.8977
5.145267 85.878 -46.4424
5.182552 85.978 -46.9949
5.220107 86.075 -47.5549
5.257934 86.171 -48.1217
5.296035 86.265 -48.6940
5.334412 86.358 -49.2704
5.373067 86.448 -49.8495
5.412003 86.537 -50.4298
5.451221 86.623 -51.0108
5.490722 86.708 -51.5921
5.530510 86.791 -52.1739
5.570587 86.872 -52.7565
5.610953 86.951 -53.3396
5.651613 87.028 -53.9225
5.692567 87.103 -54.5038
5.733818 87.176 -55.0823
5.775367 87.247 -55.6567
5.817218 87.317 -56.2261
5.859372 87.384 -56.7902
5.901831 87.450 -57.3488
5.944598 87.514 -57.9022
5.987675 87.577 -58.4499
6.031065 87.637 -58.9910
6.074768 87.696 -59.5244
6.118788 87.753 -60.0488
6.163127 87.809 -60.5629
6.207788 87.863 -61.0659
6.252772 87.916 -61.5575
6.298082 87.967 -62.0376
6.343721 88.017 -62.5056
6.389690 88.065 -62.9609
6.435992 88.113 -63.4023
6.482630 88.159 -63.8285
6.529606 88.204 -64.2381
6.576922 88.249 -64.6301
6.624581 88.293 -65.0041
6.672585 88.336 -65.3595
6.720938 88.379 -65.6960
6.769640 88.422 -66.0132
6.818696 88.465 -66.3103
6.868107 88.508 -66.5865
6.917876 88.552 -66.8410
6.968006 88.597 -67.0732
7.018499 88.643 -67.2829
7.069358 88.691 -67.4706
7.120586 88.740 -67.6370
7.172184 88.792 -67.7833
7.224157 88.846 -67.9107
7.276506 88.904 -68.0200
7.329235 88.965 -68.1124
7.382345 89.029 -68.1888
7.435841 89.098 -68.2511
7.489724 89.170 -68.3022
7.543997 89.247 -68.3457
7.598664 89.328 -68.3854
7.653728 89.414 -68.4246
7.709189 89.505 -68.4663
7.765053 89.601 -68.5128
7.821322 89.701 -68.5671
7.877998 89.806 -68.6332
7.935086 89.915 -68.7153
7.992587 90.028 -68.8177
8.050504 90.145 -68.9438
8.108841 90.264 -69.0958
8.167601 90.386 -69.2751
8.226787 90.511 -69.4834
8.286402 90.636 -69.7223
8.346449 90.763 -69.9935
8.406931 90.889 -70.2984
8.467851 91.014 -70.6371
8.529212 91.139 -71.0090
8.591018 91.261 -71.4125
8.653272 91.381 -71.8455
8.715977 91.498 -72.3059
8.779137 91.611 -72.7919
8.842754 91.719 -73.3012
8.906833 91.823 -73.8311
8.971375 91.921 -74.3775
9.036386 92.014 -74.9354
9.101867 92.101 -75.5002
9.167823 92.182 -76.0676
9.234257 92.257 -76.6339
9.301172 92.325 -77.1947
9.368572 92.387 -77.7448
9.436460 92.444 -78.2784
9.504841 92.494 -78.7900
9.573717 92.540 -79.2751
9.643092 92.580 -79.7299
9.712970 92.616 -80.1506
9.783354 92.648 -80.5332
9.854248 92.678 -80.8738
9.925656 92.706 -81.1694
9.997581 92.733 -81.4185
10.070028 92.760 -81.6208
10.143000 92.788 -81.7766
10.216500 92.818 -81.8872
10.290533 92.851 -81.9543
10.365103 92.889 -81.9812
10.440212 92.932 -81.9727
10.515866 92.981 -81.9350
10.592069 93.036 -81.8752
10.668823 93.097 -81.7999
10.746134 93.166 -81.7164
10.824005 93.242 -81.6325
10.902440 93.325 -81.5564
10.981443 93.414 -81.4959
11.061020 93.508 -81.4576
11.141172 93.608 -81.4468
11.221906 93.711 -81.4682
11.303225 93.816 -81.5257
11.385133 93.924 -81.6219
11.467634 94.032 -81.7578
11.550734 94.139 -81.9328
11.634435 94.244 -82.1454
11.718742 94.347 -82.3933
11.803661 94.446 -82.6733
11.889195 94.541 -82.9810
11.975349 94.631 -83.3113
12.062128 94.715 -83.6583
12.149535 94.794 -84.0163
12.237576 94.866 -84.3795
12.326254 94.933 -84.7416
12.415575 94.994 -85.0962
12.505544 95.049 -85.4374
12.596164 95.100 -85.7599
12.687441 95.146 -86.0591
12.779379 95.189 -86.3307
12.871984 95.230 -86.5712
12.965260 95.268 -86.7788
13.059211 95.307 -86.9525
13.153843 95.345 -87.0929
13.249161 95.386 -87.2014
13.345170 95.429 -87.2810
13.441875 95.475 -87.3363
13.539280 95.525 -87.3729
13.637391 95.581 -87.3970
13.736214 95.641 -87.4156
13.835752 95.706 -87.4362
13.936011 95.776 -87.4663
14.036998 95.851 -87.5125
14.138716 95.929 -87.5807
14.241171 96.009 -87.6758
14.344368 96.092 -87.8014
14.448313 96.175 -87.9591
14.553011 96.258 -88.1489
14.658468 96.339 -88.3691
14.764689 96.418 -88.6164
14.871680 96.493 -88.8863
14.979446 96.565 -89.1726
15.087994 96.632 -89.4688
15.197328 96.695 -89.7679
15.307454 96.755 -90.0629
15.418378 96.810 -90.3473
15.530106 96.864 -90.6158
15.642643 96.916 -90.8646
15.755996 96.968 -91.0917
15.870171 97.021 -91.2973
15.985172 97.076 -91.4841
16.101007 97.135 -91.6572
16.217682 97.199 -91.8235
16.335201 97.268 -91.9915
16.453573 97.342 -92.1710
16.572803 97.421 -92.3715
16.692898 97.505 -92.6019
16.813862 97.591 -92.8694
16.935701 97.678 -93.1792
17.058424 97.765 -93.5333
17.182035 97.850 -93.9310
17.306543 97.931 -94.3684
17.431953 98.006 -94.8388
17.558273 98.075 -95.3330
17.685509 98.137 -95.8401
17.813665 98.192 -96.3485
17.942751 98.240 -96.8463
18.072771 98.281 -97.3225
18.203733 98.318 -97.7681
18.335646 98.351 -98.1762
18.468513 98.384 -98.5436
18.602345 98.417 -98.8705
18.737144 98.452 -99.1609
18.872921 98.492 -99.4218
19.009682 98.537 -99.6633
19.147434 98.587 -99.8967
19.286184 98.643 -100.1337
19.425940 98.703 -100.3850
19.566708 98.766 -100.6591
19.708496 98.832 -100.9613
19.851313 98.896 -101.2936
19.995163 98.959 -101.6540
20.140057 99.018 -102.0373
20.285999 99.073 -102.4357
20.433001 99.122 -102.8395
20.581066 99.165 -103.2381
20.730206 99.204 -103.6214
20.880424 99.238 -103.9808
21.031733 99.269 -104.3093
21.184137 99.299 -104.6033
21.337646 99.329 -104.8618
21.492268 99.360 -105.0872
21.648010 99.394 -105.2847
21.804880 99.432 -105.4612
21.962887 99.474 -105.6252
22.122040 99.520 -105.7854
22.282345 99.569 -105.9495
22.443811 99.621 -106.1238
22.606449 99.674 -106.3121
22.770266 99.729 -106.5157
22.935268 99.782 -106.7331
23.101467 99.834 -106.9604
23.268869 99.884 -107.1917
23.437485 99.932 -107.4200
23.607323 99.978 -107.6384
23.778391 100.023 -107.8409
23.950699 100.068 -108.0236
24.124256 100.114 -108.1860
24.299070 100.164 -108.3314
24.475151 100.218 -108.4668
24.652508 100.277 -108.6027
24.831150 100.342 -108.7514
25.011087 100.410 -108.9255
25.192327 100.482 -109.1353
25.374882 100.554 -109.3866
25.558758 100.623 -109.6792
25.743967 100.687 -110.0061
25.930519 100.745 -110.3530
26.118422 100.793 -110.7005
26.307686 100.833 -111.0257
26.498322 100.867 -111.3060
26.690340 100.896 -111.5226
26.883749 100.925 -111.6643
27.078560 100.960 -111.7312
27.274782 101.004 -111.7357
27.472427 101.063 -111.7028
27.671503 101.136 -111.6667
27.872023 101.225 -111.6657
28.073996 101.326 -111.7353
28.277431 101.434 -111.9025
28.482342 101.543 -112.1811
28.688736 101.647 -112.5693
28.896626 101.740 -113.0506
29.106022 101.817 -113.5965
29.316936 101.876 -114.1703
29.529379 101.916 -114.7327
29.743361 101.941 -115.2466
29.958893 101.954 -115.6826
30.175987 101.961 -116.0234
30.394655 101.968 -116.2663
30.614908 101.980 -116.4242
30.836756 102.001 -116.5229
31.060211 102.034 -116.5956
31.285286 102.077 -116.6760
31.511992 102.129 -116.7912
31.740341 102.185 -116.9562
31.970345 102.241 -117.1727
32.202015 102.293 -117.4305
32.435364 102.342 -117.7124
32.670403 102.386 -118.0007
32.907146 102.427 -118.2833
33.145607 102.470 -118.5582
33.385796 102.516 -118.8339
33.627724 102.565 -119.1268
33.871403 102.618 -119.4546
34.116848 102.670 -119.8295
34.364071 102.719 -120.2520
34.613087 102.762 -120.7093
34.863907 102.794 -121.1773
35.116547 102.818 -121.6268
35.371017 102.835 -122.0316
35.627331 102.850 -122.3764
35.885502 102.868 -122.6604
36.145542 102.891 -122.8971
36.407467 102.923 -123.1090
36.671291 102.962 -123.3181
36.937027 103.006 -123.5389
37.204689 103.052 -123.7737
37.474289 103.097 -124.0141
37.745842 103.142 -124.2467
38.019363 103.188 -124.4607
38.294868 103.235 -124.6540
38.572369 103.288 -124.8340
38.851879 103.345 -125.0157
39.133415 103.406 -125.2148
39.416992 103.469 -125.4421
39.702625 103.530 -125.6991
39.990326 103.588 -125.9787
40.280113 103.641 -126.2692
40.571999 103.690 -126.5590
40.866001 103.736 -126.8408
41.162132 103.780 -127.1124
41.460411 103.822 -127.3762
41.760849 103.864 -127.6361
42.063465 103.905 -127.8963
42.368275 103.947 -128.1603
42.675293 103.988 -128.4321
42.984535 104.029 -128.7161
43.296021 104.070 -129.0167
43.609760 104.109 -129.3354
43.925774 104.145 -129.6691
44.244080 104.178 -130.0088
44.564690 104.208 -130.3415
44.887623 104.236 -130.6550
45.212898 104.265 -130.9428
45.540531 104.297 -131.2073
45.870537 104.334 -131.4603
46.202934 104.377 -131.7186
46.537739 104.424 -131.9978
46.874969 104.474 -132.3065
47.214645 104.523 -132.6431
47.556782 104.569 -132.9966
47.901398 104.611 -133.3512
48.248512 104.650 -133.6926
48.598141 104.687 -134.0129
48.950302 104.725 -134.3125
49.305016 104.764 -134.5988
49.662300 104.804 -134.8815
50.022175 104.844 -135.1685
50.384655 104.884 -135.4627
50.749763 104.922 -135.7628
51.117516 104.957 -136.0664
51.487934 104.991 -136.3719
51.861038 105.022 -136.6794
52.236843 105.052 -136.9894
52.615372 105.079 -137.3008
52.996643 105.105 -137.6108
53.380680 105.130 -137.9165
53.767498 105.154 -138.2171
54.157120 105.180 -138.5144
54.549564 105.208 -138.8127
54.944855 105.237 -139.1166
55.343006 105.270 -139.4299
55.744045 105.304 -139.7551
56.147991 105.341 -140.0931
56.554863 105.379 -140.4433
56.964684 105.419 -140.8044
57.377472 105.459 -141.1756
57.793251 105.501 -141.5584
58.212044 105.543 -141.9555
58.633873 105.582 -142.3661
59.058758 105.618 -142.7818
59.486721 105.649 -143.1855
59.917786 105.675 -143.5574
60.351974 105.699 -143.8854
60.789310 105.725 -144.1717
61.229816 105.754 -144.4322
61.673512 105.786 -144.6870
62.120422 105.820 -144.9507
62.570572 105.853 -145.2276
63.023983 105.885 -145.5148
63.480682 105.915 -145.8074
63.940689 105.943 -146.1034
64.404030 105.971 -146.4044
64.870728 105.997 -146.7137
65.340805 106.023 -147.0332
65.814293 106.047 -147.3624
66.291214 106.071 -147.6994
66.771591 106.094 -148.0431
67.255447 106.117 -148.3943
67.742805 106.139 -148.7536
68.233696 106.161 -149.1184
68.728142 106.181 -149.4819
69.226173 106.200 -149.8367
69.727814 106.221 -150.1790
70.233093 106.242 -150.5112
70.742035 106.266 -150.8395
71.254662 106.292 -151.1700
71.771004 106.318 -151.5063
72.291084 106.345 -151.8498
72.814934 106.372 -152.2003
73.342583 106.397 -152.5564
73.874054 106.421 -152.9149
74.409378 106.444 -153.2711
74.948578 106.465 -153.6209
75.491684 106.486 -153.9636
76.038727 106.508 -154.3021
76.589737 106.530 -154.6412
77.144737 106.553 -154.9848
77.703758 106.576 -155.3342
78.266830 106.599 -155.6888
78.833984 106.622 -156.0482
79.405251 106.645 -156.4124
79.980652 106.668 -156.7829
80.560226 106.690 -157.1620
81.143997 106.712 -157.5513
81.732002 106.732 -157.9508
82.324265 106.750 -158.3582
82.920822 106.765 -158.7691
83.521698 106.778 -159.1782
84.126930 106.788 -159.5803
84.736549 106.796 -159.9720
85.350586 106.804 -160.3524
85.969070 106.810 -160.7226
86.592041 106.816 -161.0848
87.219521 106.822 -161.4407
87.851547 106.828 -161.7912
88.488159 106.834 -162.1367
89.129379 106.841 -162.4774
89.775246 106.847 -162.8141
90.425797 106.855 -163.1485
91.081062 106.864 -163.4829
91.741074 106.874 -163.8203
92.405869 106.884 -164.1634
93.075478 106.896 -164.5134
93.749939 106.907 -164.8705
94.429291 106.917 -165.2328
95.113564 106.926 -165.5965
95.802795 106.933 -165.9568
96.497025 106.940 -166.3101
97.196281 106.945 -166.6553
97.900604 106.951 -166.9937
98.610031 106.956 -167.3278
99.324600 106.961 -167.6598
100.044350 106.966 -167.9906
100.769310 106.971 -168.3206
101.499527 106.975 -168.6512
102.235031 106.981 -168.9843
102.975868 106.986 -169.3208
103.722076 106.991 -169.6613
104.473686 106.996 -170.0059
105.230743 107.000 -170.3536
105.993286 107.005 -170.7025
106.761360 107.009 -171.0503
107.534996 107.013 -171.3953
108.314240 107.017 -171.7364
109.099129 107.023 -172.0739
109.889709 107.029 -172.4094
110.686012 107.037 -172.7455
111.488091 107.046 -173.0858
112.295982 107.055 -173.4337
113.109726 107.065 -173.7917
113.929367 107.075 -174.1620
114.754944 107.084 -174.5468
115.586502 107.092 -174.9478
116.424088 107.099 -175.3657
117.267746 107.104 -175.8002
118.117516 107.107 -176.2505
118.973442 107.107 -176.7147
119.835571 107.104 -177.1891
120.703949 107.097 -177.6676
121.578621 107.085 -178.1413
122.459633 107.069 -178.5994
123.347023 107.050 -179.0327
124.240845 107.028 -179.4372
125.141144 107.006 -179.8141
126.047966 106.984 179.8317
126.961365 106.963 179.4944
127.881378 106.943 179.1700
128.808060 106.925 178.8555
129.741455 106.907 178.5484
130.681610 106.891 178.2449
131.628586 106.875 177.9404
132.582428 106.860 177.6315
133.543182 106.846 177.3160
134.510895 106.831 176.9942
135.485611 106.815 176.6685
136.467392 106.800 176.3425
137.456284 106.784 176.0195
138.452347 106.768 175.7012
139.455627 106.753 175.3875
140.466187 106.737 175.0768
141.484070 106.722 174.7669
142.509323 106.707 174.4557
143.542007 106.690 174.1421
144.582169 106.673 173.8260
145.629868 106.654 173.5090
146.685165 106.634 173.1936
147.748108 106.613 172.8813
148.818756 106.591 172.5724
149.897156 106.570 172.2665
150.983368 106.547 171.9657
152.077454 106.524 171.6730
153.179474 106.501 171.3902
154.289474 106.479 171.1161
155.407516 106.458 170.8475
156.533661 106.437 170.5805
157.667969 106.418 170.3123
158.810501 106.400 170.0408
159.961304 106.382 169.7642
161.120453 106.364 169.4813
162.287994 106.345 169.1920
163.464005 106.325 168.8957
164.648529 106.305 168.5929
165.841644 106.282 168.2866
167.043396 106.259 167.9820
168.253860 106.235 167.6842
169.473099 106.211 167.3962
170.701172 106.188 167.1170
171.938141 106.165 166.8426
173.184082 106.143 166.5688
174.439041 106.122 166.2931
175.703094 106.102 166.0164
176.976318 106.083 165.7430
178.258759 106.063 165.4788
179.550491 106.043 165.2288
180.851593 106.021 164.9924
182.162125 105.998 164.7612
183.482147 105.973 164.5217
184.811737 105.948 164.2653
186.150955 105.923 163.9948
187.499878 105.898 163.7198
188.858582 105.873 163.4495
190.227127 105.849 163.1882
191.605591 105.823 162.9338
192.994049 105.794 162.6821
194.392563 105.761 162.4301
195.801208 105.724 162.1756
197.220062 105.687 161.9195
198.649200 105.650 161.6670
200.088699 105.615 161.4245
201.538620 105.582 161.1942
202.999054 105.552 160.9711
204.470062 105.524 160.7453
205.951736 105.496 160.5091
207.444153 105.467 160.2604
208.947372 105.438 160.0026
210.461487 105.406 159.7435
211.986572 105.374 159.4904
213.522720 105.340 159.2489
215.069992 105.305 159.0219
216.628479 105.269 158.8112
218.198257 105.233 158.6158
219.779419 105.197 158.4327
221.372025 105.163 158.2567
222.976181 105.129 158.0832
224.591965 105.098 157.9092
226.219452 105.067 157.7330
227.858734 105.037 157.5542
229.509888 105.006 157.3725
231.173004 104.974 157.1876
232.848175 104.942 156.9996
234.535492 104.909 156.8093
236.235031 104.875 156.6172
237.946884 104.840 156.4238
239.671143 104.805 156.2294
241.407898 104.768 156.0349
243.157242 104.730 155.8423
244.919266 104.692 155.6544
246.694046 104.652 155.4727
248.481689 104.611 155.2999
250.282288 104.569 155.1396
252.095932 104.525 154.9937
253.922729 104.483 154.8581
255.762756 104.442 154.7236
257.616119 104.405 154.5811
259.482910 104.370 154.4262
261.363220 104.336 154.2606
263.257172 104.303 154.0877
265.164856 104.269 153.9095
267.086365 104.236 153.7275
269.021790 104.203 153.5472
270.971222 104.170 153.3772
272.934784 104.138 153.2246
274.912567 104.105 153.0932
276.904694 104.070 152.9809
278.911255 104.035 152.8826
280.932373 103.999 152.7969
282.968140 103.965 152.7255
285.018646 103.934 152.6661
287.084015 103.907 152.6072
289.164337 103.880 152.5344
291.259735 103.852 152.4396
293.370331 103.821 152.3246
295.496216 103.786 152.1995
297.637512 103.749 152.0752
299.794312 103.712 151.9576
301.966736 103.676 151.8499
304.154907 103.643 151.7563
306.358948 103.611 151.6805
308.578949 103.581 151.6205
310.815033 103.551 151.5682
313.067322 103.520 151.5136
315.335938 103.488 151.4482
317.621002 103.458 151.3663
319.922607 103.428 151.2679
322.240906 103.401 151.1580
324.575989 103.375 151.0425
326.928009 103.350 150.9265
329.297058 103.325 150.8135
331.683289 103.302 150.7037
334.086792 103.280 150.5941
336.507721 103.260 150.4805
338.946198 103.241 150.3591
341.402344 103.222 150.2272
343.876282 103.203 150.0825
346.368164 103.181 149.9244
348.878082 103.159 149.7545
351.406189 103.136 149.5767
353.952637 103.112 149.3936
356.517517 103.087 149.2048
359.100983 103.061 149.0082
361.703186 103.034 148.8022
364.324249 103.005 148.5885
366.964294 102.974 148.3714
369.623474 102.941 148.1554
372.301910 102.906 147.9438
374.999756 102.870 147.7378
377.717163 102.831 147.5374
380.454254 102.791 147.3427
383.211182 102.749 147.1534
385.988098 102.705 146.9681
388.785126 102.660 146.7867
391.602417 102.615 146.6118
394.440125 102.569 146.4474
397.298401 102.523 146.2961
400.177399 102.475 146.1576
403.077240 102.428 146.0284
405.998108 102.380 145.9044
408.940125 102.331 145.7841
411.903473 102.283 145.6679
414.888306 102.234 145.5590
417.894745 102.185 145.4637
420.922974 102.138 145.3889
423.973145 102.093 145.3357
427.045441 102.052 145.2967
430.139984 102.013 145.2578
433.256958 101.976 145.2062
436.396515 101.940 145.1384
439.558838 101.904 145.0612
442.744049 101.867 144.9831
445.952362 101.829 144.9064
449.183929 101.790 144.8247
452.438904 101.751 144.7261
455.717468 101.711 144.6020
459.019775 101.669 144.4536
462.346008 101.624 144.2921
465.696350 101.576 144.1314
469.070984 101.528 143.9835
472.470062 101.480 143.8537
475.893768 101.434 143.7383
479.342285 101.388 143.6283
482.815796 101.342 143.5167
486.314484 101.293 143.4057
489.838531 101.242 143.3063
493.388092 101.191 143.2281
496.963379 101.141 143.1712
500.564575 101.095 143.1301
504.191864 101.052 143.0992
507.845459 101.013 143.0717
511.525513 100.973 143.0397
515.232239 100.929 142.9986
518.965820 100.881 142.9489
522.726440 100.828 142.8929
526.514343 100.772 142.8342
530.329712 100.715 142.7753
534.172729 100.660 142.7178
538.043579 100.608 142.6623
541.942444 100.557 142.6107
545.869568 100.509 142.5660
549.825134 100.461 142.5281
553.809387 100.414 142.4902
557.822510 100.367 142.4422
561.864746 100.319 142.3781
565.936279 100.270 142.3013
570.037292 100.220 142.2219
574.168030 100.169 142.1505
578.328674 100.117 142.0932
582.519470 100.066 142.0501
586.740662 100.015 142.0176
590.992432 99.965 141.9908
595.275024 99.913 141.9661
599.588623 99.861 141.9412
603.933472 99.808 141.9095
608.309814 99.755 141.8660
612.717896 99.701 141.8145
617.157898 99.647 141.7640
621.630066 99.592 141.7241
626.134644 99.535 141.7021
630.671875 99.478 141.6995
635.242004 99.421 141.7125
639.845215 99.366 141.7365
644.481812 99.311 141.7683
649.151978 99.258 141.8055
653.856018 99.208 141.8451
658.594116 99.159 141.8809
663.366577 99.113 141.9019
668.173584 99.066 141.8982
673.015442 99.017 141.8676
677.892395 98.965 141.8154
682.804688 98.908 141.7512
687.752563 98.847 141.6853
692.736328 98.784 141.6281
697.756165 98.719 141.5876
702.812378 98.652 141.5673
707.905273 98.585 141.5638
713.035034 98.517 141.5688
718.201965 98.449 141.5741
723.406372 98.380 141.5769
728.648499 98.308 141.5793
733.928589 98.235 141.5855
739.246948 98.160 141.5996
744.603821 98.085 141.6243
749.999512 98.010 141.6605
755.434326 97.935 141.7083
760.908508 97.860 141.7675
766.422363 97.784 141.8373
771.976196 97.709 141.9172
777.570251 97.633 142.0071
783.204834 97.557 142.1082
788.880249 97.479 142.2224
794.596802 97.400 142.3528
800.354797 97.321 142.5018
806.154480 97.241 142.6688
811.996216 97.163 142.8484
817.880249 97.086 143.0336
823.806946 97.011 143.2162
829.776611 96.936 143.3889
835.789490 96.860 143.5486
841.845947 96.782 143.6991
847.946289 96.701 143.8477
854.090881 96.618 143.9993
860.279968 96.531 144.1569
866.513916 96.441 144.3264
872.793030 96.349 144.5182
879.117676 96.256 144.7415
885.488098 96.163 144.9993
891.904724 96.070 145.2891
898.367859 95.976 145.6046
904.877808 95.882 145.9385
911.434937 95.789 146.2863
918.039551 95.697 146.6465
924.692017 95.607 147.0209
931.392700 95.519 147.4120
938.141968 95.431 147.8202
944.940125 95.342 148.2437
951.787537 95.253 148.6811
958.684570 95.162 149.1324
965.631592 95.069 149.5996
972.628967 94.977 150.0865
979.677063 94.884 150.5966
986.776184 94.793 151.1313
993.926758 94.704 151.6909
1001.129150 94.616 152.2788
1008.383728 94.530 152.9003
1015.690918 94.447 153.5571
1023.051025 94.366 154.2446
1030.464478 94.290 154.9540
1037.931641 94.218 155.6720
1045.452881 94.149 156.3864
1053.028687 94.083 157.0938
1060.659424 94.017 157.8011
1068.345459 93.951 158.5176
1076.087158 93.885 159.2510
1083.884888 93.818 160.0054
1091.739136 93.752 160.7816
1099.650269 93.686 161.5791
1107.618774 93.621 162.3984
1115.645020 93.559 163.2408
1123.729492 93.498 164.1084
1131.872559 93.439 165.0045
1140.074585 93.384 165.9324
1148.336060 93.332 166.8953
1156.657349 93.284 167.8949
1165.038940 93.239 168.9335
1173.481323 93.200 170.0117
1181.984863 93.166 171.1266
1190.550049 93.139 172.2695
1199.177246 93.121 173.4276
1207.866943 93.110 174.5888
1216.619629 93.106 175.7462
1225.435791 93.108 176.9012
1234.315796 93.114 178.0604
1243.260132 93.124 179.2319
1252.269287 93.140 -179.5785
1261.343750 93.162 -178.3714
1270.484009 93.191 -177.1524
1279.690430 93.228 -175.9257
1288.963623 93.271 -174.6923
1298.303955 93.321 -173.4528
1307.712036 93.379 -172.2086
1317.188232 93.447 -170.9639
1326.733154 93.523 -169.7248
1336.347168 93.609 -168.4960
1346.030884 93.703 -167.2799
1355.784790 93.805 -166.0776
1365.609375 93.916 -164.8891
1375.505127 94.035 -163.7135
1385.472656 94.163 -162.5504
1395.512329 94.301 -161.4034
1405.624756 94.449 -160.2822
1415.810547 94.609 -159.2031
1426.070068 94.780 -158.1853
1436.403931 94.959 -157.2417
1446.812744 95.145 -156.3749
1457.296997 95.336 -155.5803
1467.857178 95.530 -154.8516
1478.493896 95.728 -154.1836
1489.207642 95.929 -153.5727
1499.999023 96.133 -153.0162
1510.868652 96.339 -152.5117
1521.817017 96.549 -152.0571
1532.844727 96.760 -151.6519
1543.952393 96.975 -151.2975
1555.140503 97.194 -150.9959
1566.409668 97.418 -150.7536
1577.760498 97.646 -150.5829
1589.193604 97.879 -150.4977
1600.709595 98.114 -150.5066
1612.308960 98.350 -150.6092
1623.992432 98.583 -150.7997
1635.760498 98.812 -151.0706
1647.613892 99.038 -151.4162
1659.553223 99.260 -151.8331
1671.578979 99.478 -152.3193
1683.691895 99.692 -152.8751
1695.892578 99.901 -153.5018
1708.181763 100.106 -154.2003
1720.559937 100.304 -154.9693
1733.027832 100.495 -155.8051
1745.586060 100.678 -156.7025
1758.235352 100.853 -157.6535
1770.976196 101.021 -158.6511
1783.809448 101.183 -159.6940
1796.735718 101.340 -160.7892
1809.755615 101.489 -161.9482
1822.869873 101.630 -163.1781
1836.079102 101.760 -164.4779
1849.384033 101.877 -165.8408
1862.785400 101.980 -167.2575
1876.283936 102.067 -168.7176
1889.880249 102.139 -170.2099
1903.575073 102.196 -171.7219
1917.369141 102.237 -173.2406
1931.263184 102.263 -174.7544
1945.257935 102.276 -176.2566
1959.354126 102.277 -177.7477
1973.552368 102.266 -179.2329
1987.853516 102.243 179.2849
2002.258301 102.206 177.8086
2016.767456 102.154 176.3458
2031.381836 102.088 174.9059
2046.102051 102.007 173.4991
2060.928955 101.913 172.1360
2075.863281 101.805 170.8248
2090.905762 101.684 169.5721
2106.057373 101.552 168.3843
2121.318848 101.408 167.2691
2136.690918 101.254 166.2360
2152.174316 101.091 165.2946
2167.769775 100.922 164.4481
2183.478271 100.749 163.6902
2199.300537 100.574 163.0096
2215.237549 100.398 162.3959
2231.290039 100.221 161.8431
2247.458984 100.042 161.3496
2263.745117 99.860 160.9174
2280.149170 99.677 160.5512
2296.672119 99.492 160.2565
2313.314697 99.306 160.0367
2330.077881 99.120 159.8907
2346.962646 98.938 159.8088
2363.969727 98.758 159.7770
2381.100098 98.582 159.7835
2398.354492 98.408 159.8227
2415.733887 98.234 159.8946
2433.239258 98.060 160.0030
2450.871582 97.886 160.1517
2468.631592 97.710 160.3443
2486.520264 97.533 160.5850
2504.538574 97.353 160.8815
2522.687500 97.172 161.2438
2540.968018 96.990 161.6812
2559.380859 96.811 162.1962
2577.927246 96.635 162.7826
2596.607910 96.463 163.4300
2615.424072 96.297 164.1306
2634.376465 96.135 164.8810
2653.466309 95.976 165.6819
2672.694336 95.821 166.5378
2692.061768 95.669 167.4558
2711.569580 95.522 168.4413
2731.218750 95.382 169.4927
2751.010254 95.251 170.6008
2770.945312 95.129 171.7542
2791.024658 95.016 172.9435
2811.249512 94.912 174.1646
2831.621094 94.815 175.4165
2852.140137 94.726 176.6998
2872.807861 94.644 178.0168
2893.625488 94.568 179.3731
2914.593994 94.497 -179.2221
2935.714355 94.434 -177.7621
2956.987793 94.380 -176.2507
2978.415283 94.336 -174.7001
2999.998047 94.304 -173.1222
3021.737305 94.283 -171.5231
3043.634033 94.275 -169.9012
3065.689453 94.278 -168.2511
3087.904785 94.293 -166.5685
3110.281006 94.323 -164.8545
3132.819336 94.369 -163.1189
3155.520996 94.431 -161.3782
3178.387207 94.511 -159.6497
3201.419189 94.606 -157.9463
3224.617920 94.717 -156.2768
3247.984863 94.842 -154.6475
3271.520996 94.979 -153.0615
3295.227783 95.129 -151.5157
3319.106445 95.291 -150.0045
3343.157959 95.466 -148.5270
3367.383789 95.654 -147.0910
3391.785156 95.856 -145.7088
3416.363525 96.069 -144.3908
3441.119873 96.293 -143.1407
3466.055664 96.528 -141.9564
3491.172119 96.774 -140.8364
3516.470703 97.033 -139.7865
3541.952393 97.305 -138.8195
3567.618896 97.590 -137.9513
3593.471436 97.887 -137.1976
3619.511230 98.193 -136.5718
3645.739746 98.507 -136.0829
3672.158203 98.824 -135.7333
3698.768066 99.143 -135.5199
3725.570801 99.463 -135.4408
3752.567871 99.782 -135.4984
3779.760498 100.099 -135.6965
3807.150146 100.413 -136.0361
3834.738281 100.719 -136.5131
3862.526367 101.018 -137.1188
3890.515869 101.307 -137.8450
3918.708252 101.587 -138.6877
3947.104736 101.856 -139.6461
3975.707031 102.113 -140.7202
4004.516602 102.357 -141.9091
4033.534912 102.583 -143.2081
4062.763672 102.789 -144.6047
4092.204102 102.972 -146.0785
4121.857910 103.132 -147.6070
4151.726562 103.268 -149.1700
4181.811523 103.381 -150.7496
4212.114746 103.469 -152.3263
4242.637695 103.533 -153.8753
4273.381836 103.574 -155.3709
4304.348633 103.597 -156.7925
4335.539551 103.604 -158.1282
4366.956543 103.599 -159.3739
4398.601074 103.584 -160.5317
4430.475098 103.560 -161.6053
4462.580078 103.530 -162.5954
4494.917969 103.493 -163.4992
4527.490234 103.452 -164.3147
4560.298340 103.409 -165.0439
4593.344238 103.364 -165.6896
4626.629395 103.318 -166.2504
4660.155762 103.273 -166.7207
4693.925293 103.231 -167.0964
4727.939453 103.194 -167.3791
4762.200195 103.167 -167.5789
4796.708984 103.152 -167.7133
4831.467773 103.148 -167.8012
4866.478516 103.157 -167.8568
4901.743164 103.178 -167.8908
4937.263184 103.211 -167.9148
4973.040527 103.256 -167.9412
5009.077148 103.312 -167.9779
5045.375000 103.378 -168.0254
5081.936035 103.455 -168.0819
5118.761719 103.544 -168.1499
5155.854492 103.648 -168.2402
5193.215820 103.767 -168.3718
5230.848145 103.901 -168.5666
5268.752930 104.050 -168.8439
5306.932617 104.213 -169.2214
5345.388672 104.387 -169.7178
5384.123535 104.571 -170.3506
5423.139160 104.762 -171.1309
5462.437500 104.956 -172.0637
5502.020508 105.153 -173.1526
5541.890625 105.350 -174.4044
5582.049316 105.547 -175.8309
5622.499023 105.738 -177.4457
5663.242188 105.922 -179.2588
5704.280273 106.093 178.7242
5745.615723 106.245 176.5013
5787.250977 106.373 174.0771
5829.187988 106.471 171.4679
5871.428711 106.532 168.7014
5913.975586 106.553 165.8134
5956.830566 106.531 162.8436
5999.996094 106.464 159.8315
6043.474609 106.351 156.8179
6087.268066 106.193 153.8430
6131.378906 105.991 150.9434
6175.809570 105.748 148.1512
6220.562012 105.466 145.4976
6265.638672 105.147 143.0131
6311.041992 104.795 140.7261
6356.774414 104.416 138.6588
6402.838379 104.015 136.8244
6449.235840 103.596 135.2285
6495.969727 103.166 133.8693
6543.041992 102.730 132.7379
6590.455566 102.290 131.8213
6638.212891 101.850 131.1077
6686.315918 101.411 130.5887
6734.767578 100.977 130.2571
6783.570312 100.547 130.1049
6832.727051 100.126 130.1214
6882.239746 99.715 130.2928
6932.111328 99.315 130.6013
6982.344238 98.929 131.0265
7032.941406 98.555 131.5516
7083.904785 98.194 132.1656
7135.237793 97.842 132.8627
7186.942871 97.502 133.6402
7239.022461 97.171 134.4967
7291.479492 96.851 135.4285
7344.316406 96.541 136.4270
7397.536133 96.243 137.4823
7451.141602 95.955 138.5887
7505.135742 95.675 139.7469
7559.520996 95.405 140.9609
7614.300293 95.143 142.2350
7669.476562 94.892 143.5698
7725.052734 94.652 144.9581
7781.031738 94.423 146.3867
7837.416504 94.206 147.8439
7894.209473 93.999 149.3247
7951.414062 93.801 150.8314
8009.033203 93.612 152.3708
8067.069824 93.433 153.9482
8125.527344 93.265 155.5611
8184.408203 93.108 157.1994
8243.715820 92.963 158.8527
8303.453125 92.828 160.5158
8363.623047 92.701 162.1902
8424.229492 92.584 163.8825
8485.275391 92.476 165.5983
8546.763672 92.379 167.3359
8608.697266 92.293 169.0865
8671.079102 92.219 170.8413
8733.913086 92.155 172.5961
8797.202148 92.102 174.3539
8860.950195 92.058 176.1215
8925.160156 92.025 177.9005
8989.835938 92.005 179.6845
9054.980469 91.998 -178.5365
9120.596680 92.003 -176.7707
9186.688477 92.020 -175.0216
9253.258789 92.048 -173.2871
9320.311523 92.088 -171.5646
9387.850586 92.142 -169.8572
9455.878906 92.210 -168.1735
9524.400391 92.293 -166.5245
9593.417969 92.388 -164.9182
9662.935547 92.497 -163.3569
9732.957031 92.619 -161.8421
9803.486328 92.756 -160.3803
9874.526367 92.907 -158.9828
9946.081055 93.073 -157.6610
10018.154297 93.253 -156.4217
10090.750000 93.445 -155.2665
10163.872070 93.651 -154.1983
10237.523438 93.870 -153.2254
10311.708984 94.102 -152.3598
10386.431641 94.347 -151.6125
10461.696289 94.604 -150.9883
10537.505859 94.874 -150.4907
10613.865234 95.157 -150.1294
10690.777344 95.455 -149.9230
10768.247070 95.767 -149.8964
10846.278320 96.094 -150.0741
10924.875000 96.434 -150.4799
11004.041016 96.788 -151.1423
11083.781250 97.153 -152.0988
11164.098633 97.525 -153.3941
11244.998047 97.896 -155.0710
11326.484375 98.258 -157.1642
11408.560547 98.601 -159.6987
11491.231445 98.911 -162.6884
11574.501953 99.173 -166.1308
11658.375977 99.372 -169.9978
11742.857422 99.492 -174.2306
11827.951172 99.518 -178.7421
11913.661133 99.442 176.5763
11999.992188 99.255 171.8459
12086.949219 98.956 167.1965
12174.536133 98.547 162.7593
12262.757812 98.035 158.6575
12351.619141 97.431 154.9951
12441.124023 96.750 151.8510
12531.277344 96.006 149.2802
12622.083984 95.215 147.3173
12713.548828 94.392 145.9763
12805.676758 93.554 145.2504
12898.471680 92.713 145.1157
12991.939453 91.881 145.5392
13086.083984 91.068 146.4829
13180.911133 90.284 147.9016
13276.425781 89.534 149.7426
13372.631836 88.825 151.9524
13469.535156 88.159 154.4849
13567.140625 87.539 157.2993
13665.454102 86.968 160.3572
13764.479492 86.447 163.6234
13864.222656 85.975 167.0702
13964.688477 85.555 170.6742
14065.882812 85.188 174.4104
14167.809570 84.875 178.2513
14270.475586 84.618 -177.8310
14373.885742 84.418 -173.8700
14478.044922 84.277 -169.9087
14582.958984 84.197 -165.9951
14688.632812 84.179 -162.1758
14795.072266 84.223 -158.5000
14902.283203 84.330 -155.0273
15010.271484 84.499 -151.8249
15119.041992 84.725 -148.9612
15228.600586 85.004 -146.5058
15338.953125 85.328 -144.5276
15450.105469 85.686 -143.0889
15562.063477 86.067 -142.2398
15674.833008 86.454 -142.0170
15788.418945 86.831 -142.4404
15902.828125 87.179 -143.5065
16018.066406 87.480 -145.1818
16134.139648 87.716 -147.4031
16251.054688 87.872 -150.0813
16368.816406 87.937 -153.1056
16487.431641 87.904 -156.3537
16606.906250 87.770 -159.7040
16727.246094 87.537 -163.0428
16848.458984 87.208 -166.2680
16970.550781 86.792 -169.2933
17093.527344 86.294 -172.0480
17217.394531 85.725 -174.4707
17342.158203 85.094 -176.5069
17467.826172 84.410 -178.1116
17594.404297 83.685 -179.2526
17721.900391 82.933 -179.9141
17850.320312 82.165 179.8889
17979.671875 81.394 -179.9001
18109.960938 80.626 -179.3753
18241.193359 79.864 -178.6462
18373.376953 79.105 -177.7964
18506.517578 78.343 -176.8556
18640.623047 77.571 -175.7978
18775.701172 76.782 -174.5503
18911.757812 75.970 -173.0094
19048.800781 75.135 -171.0617
19186.835938 74.283 -168.6094
19325.871094 73.431 -165.6019
19465.914062 72.602 -162.0784
19606.972656 71.833 -158.2204
19749.052734 71.174 -154.4062
19892.162109 70.683 -151.2284
20036.308594 70.419 -149.3846
