* Measurement data measured by REW V5.31
* Source: EXCL: Microphone (USB Sound Device        ), MICROPHONE (Master Volume), L, volume: 0.390
* Format: 256k Log Swept Sine, 1 sweep at -15.0 dBFS with no timing reference
* Dated: Nov 10, 2024 11:34:29 PM
* REW Settings:
*  C-weighting compensation: Off
*  Target level: 75.0 dB
* Note: DUNU DK3001BD R
* Measurement: R DUNU DK3001BD
* Smoothing: 1/12 octave
* Frequency Step: 96 ppo
* Start Frequency: 0.36621094 Hz
*
* Freq(Hz)	SPL(dB)	Phase(degrees)
0.366211	80.409	168.7242
0.368865	80.402	168.7112
0.371538	80.393	168.6918
0.374230	80.381	168.6675
0.376942	80.368	168.6394
0.379673	80.353	168.6086
0.382424	80.338	168.5756
0.385196	80.323	168.5408
0.387987	80.307	168.5043
0.390798	80.292	168.4665
0.393630	80.276	168.4272
0.396483	80.260	168.3864
0.399356	80.243	168.3443
0.402250	80.227	168.3008
0.405165	80.211	168.2559
0.408101	80.194	168.2095
0.411058	80.177	168.1618
0.414037	80.161	168.1125
0.417037	80.144	168.0619
0.420059	80.127	168.0097
0.423103	80.109	167.9561
0.426169	80.092	167.9009
0.429257	80.075	167.8443
0.432368	80.057	167.7861
0.435501	80.039	167.7264
0.438656	80.022	167.6652
0.441835	80.004	167.6024
0.445037	79.986	167.5380
0.448262	79.967	167.4720
0.451510	79.949	167.4044
0.454782	79.931	167.3353
0.458077	79.912	167.2645
0.461397	79.893	167.1921
0.464740	79.874	167.1181
0.468108	79.855	167.0424
0.471500	79.836	166.9651
0.474917	79.817	166.8860
0.478358	79.797	166.8054
0.481825	79.778	166.7231
0.485316	79.758	166.6390
0.488833	79.738	166.5533
0.492375	79.718	166.4659
0.495943	79.698	166.3768
0.499537	79.678	166.2860
0.503157	79.657	166.1934
0.506803	79.637	166.0992
0.510475	79.616	166.0032
0.514175	79.595	165.9055
0.517900	79.574	165.8061
0.521653	79.553	165.7050
0.525434	79.532	165.6022
0.529241	79.510	165.4976
0.533076	79.489	165.3914
0.536939	79.467	165.2834
0.540830	79.445	165.1737
0.544749	79.423	165.0624
0.548696	79.400	164.9493
0.552673	79.378	164.8346
0.556677	79.355	164.7181
0.560711	79.333	164.6001
0.564774	79.310	164.4804
0.568867	79.287	164.3590
0.572989	79.263	164.2361
0.577141	79.240	164.1115
0.581324	79.216	163.9854
0.585536	79.192	163.8577
0.589779	79.168	163.7285
0.594053	79.144	163.5978
0.598358	79.120	163.4656
0.602694	79.096	163.3320
0.607061	79.071	163.1970
0.611460	79.046	163.0606
0.615891	79.021	162.9229
0.620354	78.996	162.7838
0.624849	78.971	162.6436
0.629377	78.945	162.5021
0.633938	78.919	162.3595
0.638532	78.893	162.2158
0.643159	78.867	162.0711
0.647819	78.841	161.9254
0.652514	78.814	161.7787
0.657242	78.788	161.6313
0.662005	78.761	161.4831
0.666802	78.734	161.3342
0.671634	78.706	161.1848
0.676501	78.679	161.0348
0.681403	78.651	160.8844
0.686341	78.623	160.7337
0.691314	78.595	160.5827
0.696324	78.567	160.4317
0.701370	78.538	160.2805
0.706452	78.509	160.1294
0.711571	78.478	159.9784
0.716728	78.447	159.8273
0.721921	78.414	159.6760
0.727153	78.379	159.5241
0.732422	78.341	159.3712
0.737729	78.300	159.2166
0.743075	78.257	159.0595
0.748460	78.211	158.8994
0.753883	78.163	158.7357
0.759346	78.115	158.5682
0.764849	78.066	158.3966
0.770391	78.017	158.2207
0.775974	77.968	158.0405
0.781597	77.918	157.8557
0.787261	77.868	157.6664
0.792966	77.818	157.4725
0.798712	77.768	157.2739
0.804500	77.717	157.0705
0.810329	77.666	156.8624
0.816201	77.614	156.6493
0.822116	77.562	156.4314
0.828073	77.508	156.2085
0.834074	77.455	155.9806
0.840118	77.400	155.7475
0.846206	77.344	155.5094
0.852338	77.287	155.2660
0.858514	77.229	155.0175
0.864735	77.170	154.7636
0.871001	77.109	154.5044
0.877313	77.047	154.2399
0.883670	76.983	153.9699
0.890074	76.917	153.6945
0.896524	76.850	153.4136
0.903020	76.780	153.1273
0.909564	76.708	152.8354
0.916155	76.634	152.5379
0.922794	76.557	152.2349
0.929481	76.478	151.9263
0.936216	76.395	151.6122
0.943000	76.310	151.2924
0.949834	76.222	150.9672
0.956717	76.130	150.6365
0.963649	76.034	150.3002
0.970632	75.935	149.9586
0.977666	75.832	149.6115
0.984750	75.725	149.2592
0.991886	75.614	148.9016
0.999074	75.497	148.5390
1.006314	75.376	148.1714
1.013606	75.250	147.7990
1.020951	75.119	147.4219
1.028349	74.982	147.0403
1.035801	74.840	146.6544
1.043307	74.691	146.2645
1.050867	74.536	145.8707
1.058482	74.374	145.4733
1.066152	74.205	145.0724
1.073878	74.027	144.6679
1.081660	73.841	144.2597
1.089498	73.645	143.8471
1.097393	73.437	143.4290
1.105345	73.215	143.0038
1.113355	72.978	142.5698
1.121423	72.724	142.1250
1.129549	72.451	141.6675
1.137734	72.160	141.1954
1.145979	71.850	140.7072
1.154283	71.522	140.2009
1.162647	71.176	139.6749
1.171072	70.814	139.1270
1.179558	70.435	138.5550
1.188106	70.041	137.9565
1.196715	69.633	137.3286
1.205387	69.212	136.6682
1.214122	68.779	135.9714
1.222920	68.336	135.2340
1.231782	67.884	134.4512
1.240708	67.424	133.6170
1.249699	66.958	132.7248
1.258754	66.487	131.7665
1.267876	66.014	130.7327
1.277063	65.539	129.6118
1.286318	65.065	128.3904
1.295639	64.593	127.0517
1.305027	64.126	125.5753
1.314484	63.667	123.9363
1.324009	63.216	122.1034
1.333604	62.777	120.0376
1.343268	62.353	117.6898
1.353002	61.945	114.9977
1.362806	61.558	111.8824
1.372681	61.193	108.2441
1.382628	60.855	103.9587
1.392647	60.547	98.8766
1.402739	60.272	92.8300
1.412904	60.035	85.6580
1.423142	59.839	77.2630
1.433455	59.689	67.7016
1.443843	59.587	57.2778
1.454305	59.539	46.5477
1.464844	59.546	36.1712
1.475459	59.610	26.6857
1.486150	59.733	18.3727
1.496920	59.913	11.2744
1.507767	60.150	5.2873
1.518693	60.441	0.2505
1.529698	60.783	-4.0020
1.540783	61.175	-7.6179
1.551948	61.612	-10.7197
1.563194	62.091	-13.4060
1.574521	62.608	-15.7552
1.585931	63.160	-17.8290
1.597423	63.744	-19.6763
1.608999	64.354	-21.3361
1.620658	64.987	-22.8395
1.632402	65.640	-24.2116
1.644232	66.307	-25.4727
1.656146	66.984	-26.6397
1.668147	67.668	-27.7263
1.680235	68.354	-28.7440
1.692411	69.037	-29.7025
1.704675	69.714	-30.6098
1.717028	70.379	-31.4730
1.729470	71.028	-32.2979
1.742003	71.658	-33.0898
1.754626	72.264	-33.8531
1.767341	72.841	-34.5916
1.780147	73.389	-35.3089
1.793047	73.903	-36.0081
1.806040	74.383	-36.6918
1.819128	74.829	-37.3626
1.832310	75.244	-38.0224
1.845587	75.630	-38.6730
1.858961	75.992	-39.3154
1.872432	76.332	-39.9504
1.886001	76.653	-40.5783
1.899667	76.957	-41.1993
1.913433	77.244	-41.8134
1.927299	77.517	-42.4204
1.941265	77.776	-43.0204
1.955332	78.022	-43.6132
1.969501	78.256	-44.1989
1.983773	78.479	-44.7775
1.998148	78.692	-45.3490
2.012627	78.896	-45.9136
2.027212	79.092	-46.4712
2.041902	79.282	-47.0221
2.056698	79.466	-47.5664
2.071602	79.646	-48.1042
2.086614	79.824	-48.6359
2.101734	79.999	-49.1617
2.116964	80.175	-49.6820
2.132304	80.351	-50.1972
2.147756	80.528	-50.7080
2.163320	80.708	-51.2151
2.178996	80.890	-51.7196
2.194786	81.073	-52.2229
2.210690	81.256	-52.7262
2.226710	81.438	-53.2308
2.242845	81.616	-53.7375
2.259098	81.792	-54.2465
2.275468	81.963	-54.7576
2.291957	82.129	-55.2705
2.308566	82.291	-55.7845
2.325295	82.449	-56.2991
2.342145	82.603	-56.8135
2.359117	82.754	-57.3271
2.376212	82.900	-57.8392
2.393431	83.044	-58.3491
2.410775	83.185	-58.8563
2.428244	83.323	-59.3603
2.445840	83.460	-59.8606
2.463564	83.594	-60.3569
2.481416	83.727	-60.8488
2.499397	83.859	-61.3363
2.517509	83.990	-61.8198
2.535752	84.121	-62.2997
2.554127	84.249	-62.7771
2.572635	84.377	-63.2533
2.591277	84.503	-63.7297
2.610055	84.626	-64.2074
2.628968	84.747	-64.6870
2.648019	84.865	-65.1686
2.667208	84.981	-65.6519
2.686535	85.093	-66.1365
2.706003	85.204	-66.6216
2.725612	85.312	-67.1064
2.745363	85.418	-67.5900
2.765257	85.521	-68.0716
2.785295	85.623	-68.5505
2.805478	85.723	-69.0256
2.825808	85.822	-69.4964
2.846285	85.919	-69.9622
2.866910	86.015	-70.4227
2.887685	86.110	-70.8779
2.908611	86.204	-71.3281
2.929688	86.296	-71.7741
2.950917	86.387	-72.2172
2.972301	86.476	-72.6584
2.993839	86.563	-73.0986
3.015534	86.648	-73.5381
3.037386	86.731	-73.9770
3.059396	86.813	-74.4149
3.081565	86.892	-74.8512
3.103896	86.969	-75.2852
3.126388	87.046	-75.7162
3.149043	87.120	-76.1432
3.171862	87.194	-76.5655
3.194847	87.266	-76.9822
3.217998	87.338	-77.3926
3.241317	87.408	-77.7963
3.264805	87.478	-78.1930
3.288463	87.547	-78.5828
3.312293	87.615	-78.9662
3.336295	87.682	-79.3440
3.360471	87.747	-79.7167
3.384822	87.811	-80.0849
3.409350	87.874	-80.4489
3.434056	87.936	-80.8088
3.458940	87.996	-81.1647
3.484005	88.056	-81.5165
3.509252	88.114	-81.8639
3.534681	88.172	-82.2067
3.560295	88.230	-82.5447
3.586094	88.287	-82.8776
3.612081	88.344	-83.2050
3.638255	88.401	-83.5269
3.664620	88.458	-83.8429
3.691175	88.514	-84.1533
3.717923	88.570	-84.4581
3.744864	88.626	-84.7576
3.772001	88.681	-85.0523
3.799335	88.735	-85.3426
3.826866	88.790	-85.6290
3.854597	88.844	-85.9121
3.882529	88.897	-86.1922
3.910664	88.951	-86.4700
3.939002	89.006	-86.7456
3.967546	89.060	-87.0194
3.996296	89.114	-87.2913
4.025255	89.169	-87.5612
4.054423	89.225	-87.8289
4.083804	89.280	-88.0944
4.113396	89.336	-88.3576
4.143204	89.392	-88.6189
4.173227	89.448	-88.8790
4.203468	89.504	-89.1386
4.233928	89.561	-89.3986
4.264609	89.617	-89.6599
4.295512	89.674	-89.9233
4.326639	89.731	-90.1895
4.357992	89.789	-90.4590
4.389572	89.846	-90.7319
4.421380	89.904	-91.0083
4.453419	89.962	-91.2880
4.485691	90.021	-91.5709
4.518196	90.079	-91.8570
4.550936	90.138	-92.1466
4.583914	90.197	-92.4400
4.617131	90.256	-92.7377
4.650589	90.314	-93.0401
4.684289	90.373	-93.3478
4.718233	90.431	-93.6612
4.752424	90.489	-93.9807
4.786862	90.546	-94.3063
4.821549	90.603	-94.6381
4.856488	90.660	-94.9760
4.891680	90.717	-95.3196
4.927127	90.773	-95.6686
4.962831	90.829	-96.0227
4.998794	90.884	-96.3817
5.035017	90.938	-96.7453
5.071503	90.992	-97.1135
5.108253	91.045	-97.4864
5.145270	91.097	-97.8641
5.182555	91.148	-98.2467
5.220110	91.198	-98.6343
5.257937	91.248	-99.0264
5.296038	91.296	-99.4223
5.334415	91.344	-99.8215
5.373071	91.390	-100.2231
5.412006	91.436	-100.6263
5.451224	91.481	-101.0309
5.490725	91.525	-101.4364
5.530514	91.568	-101.8430
5.570590	91.610	-102.2508
5.610957	91.651	-102.6596
5.651616	91.691	-103.0691
5.692570	91.731	-103.4787
5.733821	91.769	-103.8878
5.775370	91.808	-104.2957
5.817221	91.845	-104.7018
5.859375	91.882	-105.1059
5.901834	91.918	-105.5077
5.944602	91.954	-105.9075
5.987679	91.989	-106.3053
6.031068	92.024	-106.7011
6.074771	92.059	-107.0950
6.118792	92.094	-107.4869
6.163131	92.128	-107.8765
6.207792	92.163	-108.2639
6.252776	92.197	-108.6490
6.298086	92.232	-109.0317
6.343725	92.267	-109.4125
6.389694	92.302	-109.7916
6.435996	92.338	-110.1696
6.482634	92.374	-110.5469
6.529610	92.410	-110.9240
6.576926	92.446	-111.3012
6.624585	92.483	-111.6787
6.672590	92.521	-112.0566
6.720942	92.559	-112.4352
6.769645	92.597	-112.8149
6.818700	92.636	-113.1963
6.868111	92.675	-113.5799
6.917881	92.715	-113.9661
6.968010	92.755	-114.3554
7.018504	92.795	-114.7478
7.069362	92.835	-115.1435
7.120590	92.876	-115.5424
7.172189	92.917	-115.9446
7.224161	92.958	-116.3501
7.276511	92.999	-116.7590
7.329239	93.039	-117.1713
7.382350	93.080	-117.5870
7.435845	93.120	-118.0059
7.489729	93.160	-118.4277
7.544002	93.200	-118.8519
7.598669	93.240	-119.2779
7.653732	93.279	-119.7054
7.709194	93.317	-120.1340
7.765058	93.355	-120.5634
7.821327	93.393	-120.9933
7.878004	93.430	-121.4232
7.935091	93.467	-121.8523
7.992592	93.503	-122.2802
8.050510	93.539	-122.7062
8.108847	93.574	-123.1300
8.167607	93.609	-123.5514
8.226793	93.644	-123.9702
8.286408	93.679	-124.3860
8.346454	93.713	-124.7986
8.406936	93.747	-125.2078
8.467856	93.781	-125.6133
8.529218	93.816	-126.0153
8.591024	93.850	-126.4138
8.653278	93.884	-126.8090
8.715983	93.918	-127.2012
8.779143	93.953	-127.5904
8.842760	93.988	-127.9770
8.906839	94.023	-128.3612
8.971381	94.058	-128.7433
9.036392	94.093	-129.1236
9.101873	94.129	-129.5027
9.167829	94.165	-129.8807
9.234263	94.200	-130.2580
9.301178	94.236	-130.6348
9.368578	94.272	-131.0111
9.436467	94.308	-131.3872
9.504847	94.343	-131.7633
9.573723	94.378	-132.1392
9.643099	94.412	-132.5151
9.712976	94.445	-132.8907
9.783361	94.476	-133.2659
9.854255	94.505	-133.6403
9.925663	94.530	-134.0138
9.997588	94.554	-134.3861
10.070035	94.574	-134.7569
10.143007	94.592	-135.1259
10.216507	94.607	-135.4926
10.290540	94.621	-135.8568
10.365109	94.633	-136.2183
10.440219	94.643	-136.5768
10.515873	94.653	-136.9322
10.592076	94.661	-137.2845
10.668830	94.669	-137.6335
10.746141	94.676	-137.9794
10.824012	94.683	-138.3222
10.902447	94.690	-138.6622
10.981451	94.696	-138.9996
11.061027	94.702	-139.3348
11.141180	94.708	-139.6680
11.221913	94.713	-139.9996
11.303232	94.718	-140.3299
11.385140	94.723	-140.6594
11.467641	94.728	-140.9884
11.550741	94.732	-141.3171
11.634442	94.737	-141.6458
11.718750	94.741	-141.9746
11.803669	94.745	-142.3038
11.889203	94.749	-142.6335
11.975357	94.753	-142.9635
12.062136	94.757	-143.2940
12.149543	94.760	-143.6249
12.237583	94.764	-143.9561
12.326262	94.767	-144.2875
12.415583	94.769	-144.6190
12.505552	94.771	-144.9507
12.596172	94.773	-145.2824
12.687449	94.774	-145.6142
12.779387	94.774	-145.9461
12.871992	94.775	-146.2782
12.965268	94.774	-146.6107
13.059220	94.774	-146.9438
13.153852	94.774	-147.2776
13.249170	94.773	-147.6125
13.345179	94.773	-147.9485
13.441884	94.773	-148.2861
13.539289	94.772	-148.6253
13.637401	94.772	-148.9663
13.736223	94.772	-149.3092
13.835761	94.771	-149.6541
13.936021	94.771	-150.0010
14.037007	94.770	-150.3498
14.138725	94.769	-150.7003
14.241180	94.767	-151.0525
14.344377	94.765	-151.4061
14.448323	94.763	-151.7610
14.553021	94.760	-152.1170
14.658478	94.758	-152.4738
14.764700	94.755	-152.8315
14.871691	94.752	-153.1897
14.979457	94.750	-153.5486
15.088005	94.747	-153.9080
15.197339	94.745	-154.2679
15.307465	94.743	-154.6284
15.418389	94.741	-154.9894
15.530117	94.739	-155.3510
15.642655	94.737	-155.7131
15.756008	94.736	-156.0757
15.870182	94.734	-156.4387
15.985184	94.733	-156.8019
16.101019	94.731	-157.1652
16.217694	94.730	-157.5283
16.335214	94.728	-157.8910
16.453586	94.727	-158.2531
16.572815	94.726	-158.6142
16.692909	94.726	-158.9743
16.813872	94.725	-159.3331
16.935713	94.726	-159.6906
17.058436	94.726	-160.0466
17.182048	94.727	-160.4011
17.306556	94.728	-160.7541
17.431967	94.730	-161.1056
17.558286	94.731	-161.4555
17.685521	94.732	-161.8039
17.813677	94.734	-162.1506
17.942762	94.735	-162.4955
18.072783	94.736	-162.8384
18.203746	94.736	-163.1792
18.335658	94.737	-163.5177
18.468526	94.737	-163.8536
18.602356	94.737	-164.1867
18.737156	94.737	-164.5170
18.872934	94.737	-164.8444
19.009695	94.737	-165.1689
19.147447	94.737	-165.4906
19.286197	94.737	-165.8098
19.425953	94.737	-166.1267
19.566721	94.736	-166.4416
19.708510	94.735	-166.7548
19.851326	94.734	-167.0667
19.995177	94.733	-167.3774
20.140070	94.731	-167.6872
20.286013	94.728	-167.9963
20.433014	94.725	-168.3048
20.581080	94.722	-168.6128
20.730219	94.718	-168.9204
20.880439	94.713	-169.2278
21.031747	94.709	-169.5350
21.184152	94.704	-169.8424
21.337661	94.699	-170.1502
21.492282	94.693	-170.4586
21.648024	94.688	-170.7679
21.804895	94.682	-171.0783
21.962902	94.676	-171.3901
22.122054	94.670	-171.7034
22.282360	94.663	-172.0182
22.443827	94.656	-172.3345
22.606464	94.648	-172.6521
22.770280	94.640	-172.9710
22.935283	94.632	-173.2907
23.101481	94.623	-173.6113
23.268884	94.614	-173.9323
23.437500	94.604	-174.2538
23.607338	94.595	-174.5755
23.778406	94.585	-174.8974
23.950714	94.575	-175.2195
24.124271	94.565	-175.5417
24.299086	94.554	-175.8639
24.475167	94.544	-176.1862
24.652524	94.534	-176.5086
24.831166	94.524	-176.8308
25.011103	94.514	-177.1528
25.192344	94.504	-177.4743
25.374898	94.494	-177.7953
25.558775	94.484	-178.1153
25.743984	94.474	-178.4341
25.930536	94.464	-178.7513
26.118439	94.454	-179.0667
26.307704	94.443	-179.3799
26.498341	94.433	-179.6908
26.690359	94.423	-179.9994
26.883768	94.413	179.6945
27.078579	94.403	179.3906
27.274801	94.392	179.0886
27.472446	94.382	178.7884
27.671522	94.371	178.4897
27.872042	94.360	178.1923
28.074014	94.349	177.8960
28.277450	94.337	177.6009
28.482360	94.324	177.3070
28.688755	94.312	177.0145
28.896645	94.298	176.7234
29.106042	94.284	176.4335
29.316957	94.270	176.1448
29.529400	94.256	175.8568
29.743382	94.241	175.5690
29.958915	94.226	175.2807
30.176009	94.211	174.9914
30.394677	94.196	174.7007
30.614929	94.180	174.4081
30.836778	94.164	174.1139
31.060234	94.148	173.8181
31.285309	94.131	173.5211
31.512015	94.113	173.2235
31.740364	94.095	172.9257
31.970368	94.077	172.6282
32.202039	94.059	172.3311
32.435388	94.040	172.0342
32.670428	94.021	171.7376
32.907171	94.003	171.4407
33.145630	93.984	171.1434
33.385817	93.966	170.8454
33.627745	93.947	170.5471
33.871425	93.928	170.2490
34.116871	93.909	169.9520
34.364096	93.889	169.6571
34.613113	93.869	169.3654
34.863934	93.849	169.0773
35.116572	93.829	168.7932
35.371041	93.810	168.5125
35.627354	93.790	168.2343
35.885525	93.771	167.9573
36.145566	93.752	167.6805
36.407492	93.733	167.4026
36.671316	93.714	167.1235
36.937051	93.694	166.8430
37.204712	93.674	166.5616
37.474313	93.653	166.2801
37.745867	93.631	165.9991
38.019389	93.609	165.7191
38.294893	93.586	165.4401
38.572394	93.563	165.1620
38.851905	93.539	164.8846
39.133442	93.515	164.6078
39.417019	93.490	164.3320
39.702651	93.464	164.0576
39.990353	93.438	163.7851
40.280140	93.412	163.5148
40.572026	93.385	163.2468
40.866028	93.359	162.9805
41.162160	93.332	162.7153
41.460438	93.305	162.4506
41.760877	93.278	162.1861
42.063494	93.251	161.9218
42.368303	93.223	161.6583
42.675322	93.195	161.3959
42.984565	93.167	161.1349
43.296048	93.138	160.8752
43.609789	93.109	160.6163
43.925804	93.080	160.3579
44.244108	93.050	160.0999
44.564719	93.020	159.8427
44.887654	92.988	159.5866
45.212928	92.957	159.3323
45.540560	92.925	159.0799
45.870565	92.892	158.8289
46.202962	92.859	158.5790
46.537768	92.826	158.3299
46.875000	92.792	158.0817
47.214676	92.758	157.8350
47.556813	92.723	157.5904
47.901429	92.688	157.3484
48.248542	92.653	157.1089
48.598171	92.619	156.8718
48.950334	92.584	156.6367
49.305048	92.549	156.4039
49.662333	92.514	156.1738
50.022206	92.479	155.9468
50.384688	92.445	155.7225
50.749796	92.411	155.4998
51.117550	92.377	155.2763
51.487969	92.344	155.0504
51.861072	92.310	154.8209
52.236879	92.276	154.5893
52.615409	92.240	154.3586
52.996681	92.203	154.1335
53.380717	92.165	153.9180
53.767536	92.126	153.7144
54.157158	92.088	153.5224
54.549603	92.051	153.3388
54.944892	92.015	153.1592
55.343045	91.980	152.9790
55.744084	91.946	152.7947
56.148028	91.912	152.6046
56.554900	91.879	152.4078
56.964720	91.844	152.2049
57.377510	91.808	151.9973
57.793291	91.772	151.7871
58.212085	91.733	151.5769
58.633914	91.694	151.3689
59.058799	91.654	151.1637
59.486764	91.613	150.9605
59.917829	91.571	150.7579
60.352019	91.529	150.5549
60.789354	91.485	150.3524
61.229859	91.440	150.1527
61.673556	91.393	149.9587
62.120468	91.346	149.7722
62.570618	91.299	149.5934
63.024031	91.252	149.4214
63.480729	91.205	149.2545
63.940736	91.158	149.0909
64.404077	91.112	148.9293
64.870776	91.066	148.7684
65.340856	91.020	148.6078
65.814343	90.973	148.4479
66.291261	90.926	148.2894
66.771635	90.878	148.1341
67.255489	90.829	147.9834
67.742850	90.780	147.8385
68.233743	90.730	147.6998
68.728193	90.680	147.5670
69.226226	90.630	147.4394
69.727867	90.579	147.3162
70.233144	90.529	147.1964
70.742083	90.479	147.0795
71.254709	90.429	146.9649
71.771050	90.379	146.8525
72.291132	90.329	146.7422
72.814984	90.280	146.6337
73.342631	90.232	146.5269
73.874102	90.183	146.4219
74.409424	90.135	146.3188
74.948626	90.088	146.2167
75.491734	90.040	146.1142
76.038779	89.992	146.0116
76.589787	89.944	145.9116
77.144788	89.894	145.8175
77.703811	89.845	145.7308
78.266885	89.795	145.6499
78.834039	89.746	145.5710
79.405303	89.697	145.4907
79.980706	89.647	145.4068
80.560280	89.597	145.3186
81.144053	89.546	145.2264
81.732056	89.494	145.1310
82.324320	89.440	145.0338
82.920876	89.385	144.9368
83.521755	89.328	144.8425
84.126988	89.270	144.7534
84.736607	89.211	144.6722
85.350643	89.150	144.6009
85.969129	89.089	144.5409
86.592097	89.027	144.4932
87.219579	88.965	144.4580
87.851608	88.904	144.4351
88.488217	88.842	144.4236
89.129439	88.780	144.4220
89.775308	88.719	144.4286
90.425856	88.658	144.4428
91.081119	88.597	144.4645
91.741131	88.537	144.4944
92.405925	88.476	144.5322
93.075536	88.417	144.5765
93.750000	88.358	144.6245
94.429351	88.300	144.6739
95.113625	88.242	144.7238
95.802858	88.184	144.7770
96.497085	88.125	144.8379
97.196342	88.065	144.9098
97.900667	88.006	144.9939
98.610096	87.947	145.0896
99.324665	87.888	145.1958
100.044413	87.829	145.3116
100.769376	87.771	145.4363
101.499592	87.714	145.5688
102.235100	87.658	145.7072
102.975938	87.603	145.8498
103.722144	87.549	145.9951
104.473757	87.496	146.1419
105.230817	87.445	146.2901
105.993363	87.394	146.4395
106.761435	87.344	146.5900
107.535072	87.294	146.7410
108.314315	87.245	146.8916
109.099206	87.195	147.0405
109.889783	87.146	147.1867
110.686090	87.096	147.3295
111.488167	87.045	147.4690
112.296056	86.993	147.6069
113.109800	86.941	147.7472
113.929440	86.887	147.8959
114.755020	86.833	148.0592
115.586582	86.779	148.2422
116.424170	86.726	148.4478
117.267827	86.673	148.6763
118.117598	86.622	148.9250
118.973527	86.572	149.1891
119.835658	86.523	149.4646
120.704037	86.474	149.7501
121.578708	86.426	150.0440
122.459718	86.380	150.3425
123.347111	86.336	150.6411
124.240935	86.294	150.9370
125.141236	86.254	151.2295
126.048061	86.216	151.5197
126.961458	86.180	151.8099
127.881473	86.145	152.1028
128.808154	86.112	152.4005
129.741551	86.079	152.7035
130.681712	86.047	153.0100
131.628686	86.017	153.3169
132.582521	85.986	153.6206
133.543269	85.956	153.9186
134.510979	85.927	154.2111
135.485701	85.897	154.5003
136.467486	85.869	154.7896
137.456386	85.841	155.0817
138.452451	85.815	155.3780
139.455735	85.791	155.6791
140.466288	85.767	155.9847
141.484165	85.745	156.2944
142.509418	85.723	156.6073
143.542100	85.702	156.9219
144.582265	85.681	157.2362
145.629968	85.660	157.5482
146.685262	85.639	157.8571
147.748204	85.619	158.1642
148.818849	85.600	158.4733
149.897251	85.580	158.7900
150.983469	85.562	159.1201
152.077557	85.545	159.4668
153.179574	85.530	159.8284
154.289576	85.517	160.1995
155.407622	85.507	160.5724
156.533770	85.501	160.9384
157.668078	85.499	161.2902
158.810606	85.500	161.6255
159.961413	85.504	161.9469
161.120559	85.509	162.2585
162.288105	85.514	162.5654
163.464112	85.518	162.8701
164.648640	85.518	163.1724
165.841752	85.516	163.4705
167.043510	85.511	163.7629
168.253976	85.504	164.0513
169.473213	85.498	164.3401
170.701286	85.493	164.6343
171.938258	85.492	164.9357
173.184194	85.495	165.2405
174.439158	85.502	165.5433
175.703216	85.511	165.8398
176.976434	85.521	166.1267
178.258878	85.532	166.4034
179.550615	85.544	166.6708
180.851713	85.556	166.9302
182.162239	85.569	167.1830
183.482262	85.582	167.4296
184.811850	85.596	167.6685
186.151073	85.611	167.8982
187.500000	85.626	168.1182
188.858702	85.641	168.3289
190.227250	85.657	168.5331
191.605715	85.674	168.7336
192.994169	85.690	168.9330
194.392685	85.707	169.1334
195.801334	85.724	169.3358
197.220191	85.741	169.5387
198.649330	85.760	169.7405
200.088825	85.779	169.9401
201.538751	85.799	170.1359
202.999184	85.821	170.3250
204.470200	85.845	170.5050
205.951875	85.870	170.6743
207.444287	85.895	170.8323
208.947514	85.920	170.9788
210.461634	85.944	171.1147
211.986726	85.966	171.2419
213.522869	85.986	171.3636
215.070144	86.004	171.4855
216.628631	86.020	171.6133
218.198411	86.037	171.7493
219.779567	86.054	171.8900
221.372180	86.071	172.0292
222.976334	86.090	172.1624
224.592112	86.111	172.2870
226.219600	86.133	172.4012
227.858880	86.156	172.5046
229.510039	86.180	172.5989
231.173164	86.204	172.6858
232.848340	86.228	172.7657
234.535655	86.251	172.8380
236.235197	86.273	172.9027
237.947054	86.294	172.9608
239.671317	86.314	173.0147
241.408074	86.333	173.0665
243.157416	86.351	173.1172
244.919435	86.368	173.1674
246.694223	86.383	173.2188
248.481871	86.397	173.2752
250.282473	86.412	173.3417
252.096123	86.427	173.4206
253.922915	86.444	173.5092
255.762945	86.464	173.5995
257.616309	86.487	173.6817
259.483103	86.511	173.7486
261.363424	86.535	173.7984
263.257372	86.558	173.8343
265.165043	86.579	173.8612
267.086538	86.599	173.8840
269.021957	86.617	173.9070
270.971401	86.635	173.9337
272.934972	86.652	173.9664
274.912771	86.671	174.0055
276.904902	86.691	174.0494
278.911469	86.713	174.0950
280.932577	86.737	174.1386
282.968330	86.762	174.1759
285.018835	86.789	174.2018
287.084199	86.817	174.2108
289.164530	86.845	174.1986
291.259935	86.872	174.1648
293.370525	86.896	174.1143
295.496408	86.917	174.0558
297.637697	86.935	173.9985
299.794503	86.950	173.9485
301.966937	86.964	173.9080
304.155114	86.977	173.8759
306.359147	86.991	173.8503
308.579152	87.005	173.8286
310.815244	87.020	173.8082
313.067539	87.034	173.7870
315.336156	87.048	173.7649
317.621211	87.061	173.7440
319.922826	87.073	173.7274
322.241118	87.086	173.7164
324.576210	87.100	173.7098
326.928223	87.115	173.7043
329.297280	87.131	173.6960
331.683504	87.149	173.6810
334.087019	87.168	173.6557
336.507952	87.188	173.6166
338.946427	87.208	173.5616
341.402572	87.227	173.4911
343.876516	87.244	173.4079
346.368387	87.260	173.3162
348.878315	87.274	173.2197
351.406431	87.287	173.1204
353.952867	87.297	173.0199
356.517756	87.306	172.9196
359.101230	87.314	172.8210
361.703426	87.320	172.7256
364.324478	87.325	172.6341
366.964523	87.329	172.5468
369.623699	87.333	172.4636
372.302145	87.336	172.3842
375.000000	87.339	172.3083
377.717405	87.341	172.2356
380.454501	87.343	172.1660
383.211431	87.346	172.0991
385.988339	87.347	172.0350
388.785369	87.349	171.9738
391.602668	87.351	171.9152
394.440383	87.353	171.8588
397.298660	87.354	171.8040
400.177650	87.357	171.7495
403.077502	87.359	171.6942
405.998368	87.361	171.6371
408.940400	87.363	171.5783
411.903750	87.364	171.5191
414.888575	87.364	171.4622
417.895028	87.364	171.4107
420.923268	87.363	171.3671
423.973452	87.362	171.3326
427.045738	87.362	171.3064
430.140287	87.364	171.2850
433.257261	87.368	171.2632
436.396822	87.372	171.2374
439.559133	87.378	171.2068
442.744360	87.384	171.1710
445.952668	87.391	171.1282
449.184225	87.399	171.0742
452.439199	87.407	171.0029
455.717760	87.414	170.9114
459.020079	87.419	170.8030
462.346327	87.420	170.6882
465.696680	87.419	170.5787
469.071310	87.415	170.4822
472.470394	87.410	170.4000
475.894109	87.405	170.3289
479.342634	87.400	170.2633
482.816148	87.394	170.1979
486.314833	87.389	170.1309
489.838871	87.382	170.0666
493.388445	87.374	170.0125
496.963741	87.366	169.9725
500.564945	87.359	169.9427
504.192245	87.353	169.9151
507.845830	87.349	169.8828
511.525890	87.344	169.8430
515.232618	87.339	169.7971
518.966206	87.333	169.7486
522.726849	87.326	169.7022
526.514743	87.318	169.6624
530.330086	87.310	169.6316
534.173076	87.303	169.6079
538.043915	87.295	169.5873
541.942803	87.289	169.5676
545.869944	87.282	169.5495
549.825542	87.276	169.5337
553.809805	87.270	169.5182
557.822939	87.265	169.4999
561.865154	87.259	169.4769
565.936660	87.253	169.4499
570.037671	87.245	169.4224
574.168399	87.237	169.3986
578.329060	87.228	169.3810
582.519870	87.218	169.3692
586.741049	87.208	169.3630
590.992817	87.197	169.3640
595.275394	87.186	169.3746
599.589005	87.175	169.3937
603.933874	87.165	169.4172
608.310228	87.156	169.4411
612.718295	87.146	169.4638
617.158304	87.136	169.4878
621.630488	87.125	169.5188
626.135079	87.113	169.5634
630.672311	87.103	169.6240
635.242423	87.094	169.6970
639.845651	87.087	169.7765
644.482237	87.081	169.8601
649.152421	87.077	169.9481
653.856447	87.075	170.0391
658.594560	87.076	170.1266
663.367008	87.078	170.2004
668.174039	87.082	170.2526
673.015903	87.085	170.2835
677.892854	87.086	170.3011
682.805145	87.084	170.3148
687.753032	87.080	170.3320
692.736774	87.073	170.3578
697.756631	87.066	170.3964
702.812863	87.058	170.4492
707.905735	87.051	170.5139
713.035511	87.044	170.5859
718.202461	87.038	170.6617
723.406852	87.033	170.7405
728.648956	87.027	170.8230
733.929047	87.022	170.9106
739.247399	87.016	171.0040
744.604290	87.011	171.1038
750.000000	87.007	171.2099
755.434809	87.003	171.3221
760.909001	86.999	171.4400
766.422861	86.996	171.5637
771.976677	86.994	171.6927
777.570739	86.993	171.8264
783.205337	86.992	171.9641
788.880766	86.992	172.1069
794.597321	86.993	172.2580
800.355301	86.996	172.4201
806.155005	87.001	172.5924
811.996736	87.010	172.7685
817.880799	87.021	172.9389
823.807501	87.036	173.0934
829.777150	87.053	173.2233
835.790057	87.070	173.3269
841.846536	87.085	173.4113
847.946903	87.097	173.4876
854.091476	87.108	173.5645
860.280575	87.117	173.6467
866.514523	87.125	173.7372
872.793644	87.132	173.8390
879.118267	87.140	173.9510
885.488720	87.149	174.0686
891.905336	87.158	174.1876
898.368450	87.168	174.3076
904.878398	87.179	174.4312
911.435520	87.191	174.5599
918.040157	87.204	174.6920
924.692655	87.219	174.8247
931.393359	87.236	174.9542
938.142619	87.255	175.0765
944.940787	87.275	175.1896
951.788218	87.295	175.2948
958.685268	87.316	175.3942
965.632296	87.337	175.4904
972.629666	87.358	175.5858
979.677741	87.379	175.6812
986.776890	87.402	175.7768
993.927482	87.424	175.8740
1001.129891	87.447	175.9772
1008.384491	87.471	176.0895
1015.691660	87.497	176.2096
1023.051781	87.526	176.3320
1030.465236	87.559	176.4488
1037.932411	87.596	176.5482
1045.453698	87.636	176.6180
1053.029486	87.677	176.6527
1060.660172	87.717	176.6564
1068.346153	87.755	176.6382
1076.087829	87.791	176.6080
1083.885605	87.825	176.5728
1091.739887	87.857	176.5348
1099.651084	87.888	176.4935
1107.619609	87.917	176.4488
1115.645878	87.945	176.4016
1123.730308	87.972	176.3534
1131.873321	87.997	176.3057
1140.075341	88.022	176.2596
1148.336797	88.047	176.2162
1156.658119	88.071	176.1765
1165.039741	88.095	176.1416
1173.482099	88.120	176.1132
1181.985634	88.147	176.0911
1190.550789	88.175	176.0695
1199.178011	88.207	176.0372
1207.867749	88.241	175.9819
1216.620457	88.274	175.8979
1225.436590	88.306	175.7891
1234.316609	88.335	175.6648
1243.260976	88.361	175.5346
1252.270157	88.383	175.4068
1261.344623	88.402	175.2859
1270.484846	88.419	175.1735
1279.691303	88.434	175.0707
1288.964474	88.447	174.9790
1298.304842	88.460	174.8977
1307.712894	88.473	174.8243
1317.189120	88.485	174.7557
1326.734016	88.498	174.6899
1336.348077	88.510	174.6280
1346.031806	88.523	174.5728
1355.785708	88.535	174.5280
1365.610290	88.548	174.4977
1375.506065	88.562	174.4871
1385.473549	88.577	174.5015
1395.513261	88.595	174.5422
1405.625726	88.617	174.6039
1415.811469	88.644	174.6747
1426.071023	88.674	174.7394
1436.404921	88.707	174.7887
1446.813703	88.740	174.8216
1457.297912	88.772	174.8438
1467.858093	88.802	174.8619
1478.494798	88.831	174.8808
1489.208581	88.857	174.9044
1500.000000	88.880	174.9362
1510.869618	88.900	174.9796
1521.818002	88.915	175.0378
1532.845723	88.927	175.1133
1543.953355	88.936	175.2078
1555.141477	88.944	175.3218
1566.410674	88.953	175.4510
1577.761531	88.964	175.5844
1589.194642	88.978	175.7077
1600.710601	88.995	175.8116
1612.310010	89.011	175.8953
1623.993473	89.027	175.9645
1635.761599	89.042	176.0270
1647.615002	89.056	176.0889
1659.554299	89.069	176.1546
1671.580114	89.081	176.2268
1683.693072	89.094	176.3055
1695.893807	89.108	176.3891
1708.182952	89.122	176.4756
1720.561150	89.135	176.5655
1733.029045	89.148	176.6618
1745.587288	89.159	176.7700
1758.236533	89.169	176.8964
1770.977440	89.180	177.0463
1783.810673	89.194	177.2186
1796.736900	89.212	177.4037
1809.756796	89.235	177.5866
1822.871040	89.262	177.7560
1836.080315	89.291	177.9075
1849.385310	89.323	178.0425
1862.786718	89.356	178.1647
1876.285239	89.390	178.2792
1889.881575	89.427	178.3918
1903.576436	89.466	178.5082
1917.370535	89.509	178.6337
1931.264593	89.558	178.7715
1945.259332	89.615	178.9199
1959.355483	89.679	179.0698
1973.553781	89.750	179.2068
1987.854965	89.827	179.3194
2002.259781	89.907	179.4039
2016.768981	89.989	179.4625
2031.383320	90.071	179.5002
2046.103561	90.152	179.5225
2060.930471	90.233	179.5334
2075.864823	90.314	179.5343
2090.907395	90.394	179.5252
2106.058972	90.473	179.5077
2121.320344	90.551	179.4867
2136.692305	90.627	179.4699
2152.175658	90.702	179.4655
2167.771210	90.779	179.4752
2183.479774	90.859	179.4913
2199.302169	90.942	179.5004
2215.239219	91.028	179.4915
2231.291755	91.116	179.4592
2247.460615	91.205	179.4031
2263.746641	91.294	179.3266
2280.150683	91.383	179.2360
2296.673595	91.472	179.1384
2313.316238	91.563	179.0394
2330.079481	91.656	178.9386
2346.964198	91.754	178.8269
2363.971268	91.855	178.6905
2381.101578	91.959	178.5180
2398.356022	92.066	178.3043
2415.735498	92.172	178.0492
2433.240913	92.278	177.7556
2450.873180	92.383	177.4263
2468.633217	92.485	177.0632
2486.521951	92.586	176.6684
2504.540314	92.683	176.2470
2522.689246	92.778	175.8075
2540.969692	92.870	175.3581
2559.382606	92.961	174.9006
2577.928947	93.053	174.4286
2596.609683	93.145	173.9321
2615.425787	93.236	173.4034
2634.378241	93.326	172.8392
2653.468031	93.413	172.2411
2672.696154	93.496	171.6152
2692.063613	93.576	170.9694
2711.571415	93.653	170.3087
2731.220579	93.729	169.6305
2751.012130	93.803	168.9262
2770.947098	93.875	168.1867
2791.026522	93.944	167.4069
2811.251451	94.008	166.5862
2831.622938	94.065	165.7277
2852.142045	94.115	164.8364
2872.809842	94.156	163.9196
2893.627406	94.188	162.9883
2914.595823	94.209	162.0580
2935.716186	94.221	161.1430
2956.989596	94.225	160.2507
2978.417161	94.224	159.3819
3000.000000	94.216	158.5349
3021.739237	94.203	157.7089
3043.636005	94.185	156.9070
3065.691446	94.161	156.1367
3087.906710	94.132	155.4071
3110.282955	94.100	154.7227
3132.821347	94.067	154.0805
3155.523062	94.034	153.4722
3178.389283	94.001	152.8887
3201.421202	93.967	152.3232
3224.620020	93.933	151.7715
3247.986946	93.898	151.2311
3271.523198	93.859	150.7042
3295.230004	93.818	150.1985
3319.108599	93.773	149.7244
3343.160228	93.727	149.2881
3367.386145	93.682	148.8888
3391.787613	93.637	148.5217
3416.365904	93.593	148.1819
3441.122300	93.550	147.8687
3466.058091	93.508	147.5868
3491.174576	93.468	147.3409
3516.473066	93.430	147.1296
3541.954880	93.397	146.9453
3567.621345	93.368	146.7764
3593.473800	93.343	146.6119
3619.513592	93.321	146.4423
3645.742080	93.301	146.2615
3672.160630	93.280	146.0703
3698.770620	93.257	145.8764
3725.573436	93.233	145.6892
3752.570477	93.206	145.5134
3779.763150	93.178	145.3491
3807.152872	93.148	145.1962
3834.741071	93.114	145.0589
3862.529185	93.077	144.9470
3890.518664	93.037	144.8701
3918.710966	92.997	144.8311
3947.107561	92.959	144.8260
3975.709929	92.923	144.8464
4004.519563	92.890	144.8814
4033.537962	92.859	144.9214
4062.766641	92.830	144.9627
4092.207123	92.802	145.0094
4121.860942	92.774	145.0670
4151.729646	92.746	145.1382
4181.814790	92.718	145.2222
4212.117944	92.690	145.3205
4242.640687	92.660	145.4409
4273.384610	92.631	145.5939
4304.351317	92.602	145.7861
4335.542421	92.575	146.0163
4366.959549	92.553	146.2766
4398.604338	92.537	146.5541
4430.478438	92.526	146.8357
4462.583511	92.519	147.1144
4494.921231	92.516	147.3897
4527.493283	92.517	147.6621
4560.301365	92.520	147.9297
4593.347189	92.526	148.1912
4626.632476	92.533	148.4507
4660.158962	92.541	148.7177
4693.928395	92.552	149.0007
4727.942535	92.567	149.3016
4762.203156	92.588	149.6147
4796.712043	92.615	149.9280
4831.470996	92.650	150.2281
4866.481826	92.690	150.5070
4901.746360	92.736	150.7613
4937.266434	92.785	150.9874
4973.043902	92.837	151.1810
5009.080628	92.891	151.3427
5045.378492	92.944	151.4798
5081.939384	92.998	151.6028
5118.765212	93.051	151.7193
5155.857894	93.107	151.8306
5193.219366	93.165	151.9305
5230.851574	93.226	152.0106
5268.756481	93.289	152.0651
5306.936062	93.353	152.0908
5345.392309	93.418	152.0834
5384.127225	93.481	152.0400
5423.142830	93.541	151.9638
5462.441159	93.597	151.8647
5502.024259	93.649	151.7542
5541.894195	93.698	151.6407
5582.053045	93.747	151.5248
5622.502902	93.795	151.4028
5663.245876	93.844	151.2698
5704.284090	93.894	151.1210
5745.619684	93.945	150.9491
5787.254813	93.996	150.7474
5829.191647	94.047	150.5138
5871.432373	94.097	150.2512
5913.979192	94.146	149.9635
5956.834323	94.194	149.6505
6000.000000	94.242	149.3057
6043.478473	94.291	148.9193
6087.272010	94.339	148.4805
6131.382892	94.384	147.9781
6175.813420	94.426	147.4025
6220.565910	94.458	146.7514
6265.642695	94.479	146.0328
6311.046124	94.486	145.2630
6356.778566	94.475	144.4630
6402.842404	94.446	143.6550
6449.240040	94.398	142.8630
6495.973891	94.331	142.1116
6543.046396	94.247	141.4234
6590.460007	94.147	140.8203
6638.217197	94.032	140.3258
6686.320456	93.906	139.9640
6734.772290	93.771	139.7562
6783.575226	93.633	139.7159
6832.731809	93.498	139.8474
6882.244600	93.369	140.1452
6932.116181	93.251	140.5928
6982.349153	93.149	141.1667
7032.946133	93.065	141.8413
7083.909760	93.001	142.5929
7135.242690	92.961	143.3977
7186.947600	92.947	144.2299
7239.027185	92.961	145.0593
7291.484160	93.004	145.8496
7344.321260	93.078	146.5571
7397.541239	93.181	147.1355
7451.146872	93.309	147.5423
7505.140954	93.461	147.7406
7559.526299	93.631	147.6970
7614.305743	93.815	147.3797
7669.482141	94.008	146.7567
7725.058371	94.201	145.7949
7781.037328	94.385	144.4674
7837.421932	94.546	142.7656
7894.215122	94.672	140.7075
7951.419859	94.751	138.3366
8009.039125	94.770	135.7191
8067.075924	94.724	132.9366
8125.533282	94.608	130.0780
8184.414245	94.419	127.2334
8243.721885	94.157	124.4933
8303.459292	93.826	121.9459
8363.629581	93.431	119.6722
8424.235888	92.978	117.7428
8485.281374	92.477	116.2123
8546.769221	91.940	115.1143
8608.702634	91.377	114.4631
8671.084842	90.799	114.2621
8733.919097	90.213	114.5110
8797.208675	89.629	115.2113
8860.956876	89.055	116.3659
8925.167022	88.503	117.9669
8989.842461	87.984	119.9783
9054.986566	87.513	122.3221
9120.602731	87.097	124.8729
9186.694378	86.740	127.4778
9253.264952	86.433	130.0068
9320.317925	86.159	132.4036
9387.856790	85.901	134.6997
9455.885071	85.649	136.9819
9524.406312	85.400	139.3451
9593.424086	85.156	141.8611
9662.941992	84.925	144.5714
9732.963653	84.716	147.4856
9803.492719	84.537	150.5854
9874.532869	84.393	153.8340
9946.087805	84.290	157.1876
10018.161257	84.228	160.6067
10090.756983	84.208	164.0589
10163.878768	84.232	167.5112
10237.530423	84.299	170.9237
10311.715789	84.410	174.2515
10386.438732	84.560	177.4533
10461.703149	84.748	-179.4992
10537.512962	84.968	-176.6248
10613.872125	85.220	-173.9410
10690.784618	85.501	-171.4705
10768.254450	85.808	-169.2402
10846.285661	86.136	-167.2765
10924.882318	86.483	-165.6062
11004.048518	86.843	-164.2614
11083.788390	87.209	-163.2795
11164.106090	87.573	-162.6931
11245.005805	87.922	-162.5159
11326.491752	88.244	-162.7349
11408.568180	88.527	-163.3128
11491.239368	88.763	-164.1949
11574.509626	88.942	-165.3145
11658.383294	89.059	-166.5935
11742.864745	89.112	-167.9467
11827.958384	89.101	-169.2895
11913.668646	89.027	-170.5456
12000.000000	88.896	-171.6491
12086.956947	88.711	-172.5392
12174.544019	88.477	-173.1567
12262.765784	88.201	-173.4467
12351.626840	87.891	-173.3642
12441.131819	87.557	-172.8750
12531.285389	87.207	-171.9514
12622.092249	86.852	-170.5714
12713.557132	86.503	-168.7220
12805.684808	86.172	-166.4046
12898.480079	85.870	-163.6308
12991.947783	85.609	-160.4179
13086.092792	85.402	-156.7899
13180.920015	85.261	-152.7864
13276.434395	85.201	-148.4675
13372.640911	85.234	-143.9136
13469.544580	85.372	-139.2288
13567.150452	85.624	-134.5515
13665.463617	85.994	-130.0568
13764.489200	86.479	-125.9433
13864.232362	87.067	-122.4121
13964.698305	87.739	-119.6489
14065.892266	88.465	-117.8042
14167.819519	89.215	-116.9706
14270.485380	89.953	-117.1690
14373.895200	90.647	-118.3508
14478.054370	91.272	-120.4085
14582.968320	91.807	-123.1890
14688.642520	92.244	-126.5151
14795.082478	92.584	-130.2179
14902.293745	92.836	-134.1678
15010.281908	93.011	-138.2895
15119.052599	93.116	-142.5575
15228.611486	93.155	-146.9747
15338.964283	93.118	-151.5394
15450.116741	92.994	-156.2096
15562.074656	92.767	-160.8836
15674.843864	92.425	-165.4039
15788.430244	91.966	-169.5796
15902.839718	91.395	-173.2174
16018.078250	90.730	-176.1501
16134.151848	89.996	-178.2607
16251.066563	89.224	-179.4966
16368.828491	88.447	-179.8743
16487.443769	87.696	-179.4778
16606.918584	87.001	-178.4527
16727.259161	86.381	-176.9863
16848.471777	85.848	-175.2771
16970.562748	85.401	-173.5071
17093.538442	85.032	-171.8193
17217.405268	84.730	-170.3031
17342.169684	84.478	-168.9972
17467.838194	84.265	-167.9063
17594.417350	84.082	-167.0200
17721.913751	83.923	-166.3340
17850.334044	83.787	-165.8710
17979.684923	83.673	-165.6874
18109.973131	83.574	-165.8632
18241.205462	83.481	-166.4819
18373.388756	83.374	-167.6048
18506.529905	83.232	-169.2488
18640.635849	83.033	-171.3814
18775.713581	82.752	-173.9247
18911.770141	82.369	-176.7593
19048.812624	81.868	-179.7240
19186.848172	81.237	177.3871
19325.883983	80.472	174.8245
19465.927305	79.592	172.8553
19606.985439	78.647	171.6876
19749.065738	77.729	171.3489
19892.175609	76.978	171.5831
20036.322514	76.548	171.9059
