* Measurement data measured by REW V5.31.3
* Source: EXCL: Microphone (USB Sound Device        ), no input selected, R, volume: 0.390
* Format: 256k Log Swept Sine, 1 sweep at -12.0 dBFS with no timing reference
* Dated: May 4, 2025 12:14:50 AM
* REW Settings:
*  C-weighting compensation: Off
*  Target level: 75.0 dB
* Note: EarAcoustic STA Pro L
* Measurement: L EarAcoustic STA Pro
* Smoothing: 1/12 octave
* Frequency Step: 96 ppo
* Start Frequency: 0.36621094 Hz
*
* Freq(Hz) SPL(dB) Phase(degrees)
0.366211 94.095 158.5872
0.368865 94.089 158.5648
0.371538 94.081 158.5312
0.374230 94.070 158.4890
0.376942 94.059 158.4404
0.379673 94.046 158.3870
0.382424 94.033 158.3298
0.385196 94.019 158.2695
0.387987 94.006 158.2065
0.390798 93.992 158.1409
0.393630 93.978 158.0729
0.396483 93.963 158.0024
0.399356 93.949 157.9296
0.402250 93.935 157.8542
0.405165 93.920 157.7765
0.408101 93.906 157.6963
0.411058 93.891 157.6136
0.414037 93.876 157.5285
0.417037 93.861 157.4408
0.420059 93.846 157.3505
0.423103 93.831 157.2577
0.426169 93.816 157.1622
0.429257 93.800 157.0642
0.432368 93.785 156.9635
0.435501 93.769 156.8602
0.438656 93.754 156.7541
0.441835 93.738 156.6454
0.445037 93.722 156.5339
0.448262 93.706 156.4197
0.451510 93.690 156.3027
0.454782 93.673 156.1829
0.458077 93.657 156.0603
0.461397 93.640 155.9350
0.464740 93.624 155.8067
0.468108 93.607 155.6756
0.471500 93.590 155.5416
0.474917 93.573 155.4048
0.478358 93.556 155.2650
0.481825 93.539 155.1223
0.485316 93.521 154.9767
0.488833 93.504 154.8282
0.492375 93.486 154.6767
0.495943 93.469 154.5223
0.499537 93.451 154.3649
0.503157 93.433 154.2045
0.506803 93.414 154.0412
0.510475 93.396 153.8749
0.514175 93.378 153.7056
0.517900 93.359 153.5333
0.521653 93.341 153.3581
0.525434 93.322 153.1800
0.529241 93.303 152.9988
0.533076 93.284 152.8148
0.536939 93.265 152.6277
0.540830 93.245 152.4378
0.544749 93.226 152.2450
0.548696 93.206 152.0493
0.552673 93.186 151.8507
0.556677 93.166 151.6493
0.560711 93.146 151.4451
0.564774 93.126 151.2381
0.568867 93.106 151.0283
0.572989 93.085 150.8159
0.577141 93.064 150.6008
0.581324 93.044 150.3831
0.585536 93.023 150.1628
0.589779 93.002 149.9400
0.594053 92.980 149.7147
0.598358 92.959 149.4870
0.602694 92.937 149.2570
0.607061 92.916 149.0248
0.611460 92.894 148.7904
0.615891 92.872 148.5539
0.620354 92.849 148.3154
0.624849 92.827 148.0749
0.629377 92.805 147.8327
0.633938 92.782 147.5887
0.638532 92.759 147.3432
0.643159 92.736 147.0962
0.647819 92.713 146.8478
0.652514 92.689 146.5983
0.657242 92.666 146.3476
0.662005 92.642 146.0961
0.666802 92.618 145.8437
0.671634 92.594 145.5908
0.676501 92.570 145.3375
0.681403 92.546 145.0839
0.686341 92.521 144.8303
0.691314 92.496 144.5768
0.696324 92.471 144.3236
0.701370 92.446 144.0710
0.706452 92.420 143.8189
0.711571 92.394 143.5676
0.716728 92.367 143.3170
0.721921 92.339 143.0669
0.727153 92.310 142.8168
0.732422 92.278 142.5660
0.737729 92.245 142.3136
0.743075 92.210 142.0585
0.748460 92.173 141.8000
0.753883 92.135 141.5373
0.759346 92.096 141.2700
0.764849 92.056 140.9978
0.770391 92.016 140.7204
0.775974 91.974 140.4377
0.781597 91.933 140.1496
0.787261 91.891 139.8560
0.792966 91.848 139.5569
0.798712 91.805 139.2521
0.804500 91.761 138.9417
0.810329 91.716 138.6256
0.816201 91.671 138.3038
0.822116 91.625 137.9762
0.828073 91.579 137.6427
0.834074 91.532 137.3035
0.840118 91.484 136.9584
0.846206 91.435 136.6075
0.852338 91.386 136.2507
0.858514 91.336 135.8880
0.864735 91.285 135.5195
0.871001 91.233 135.1452
0.877313 91.180 134.7652
0.883670 91.126 134.3793
0.890074 91.071 133.9878
0.896524 91.016 133.5907
0.903020 90.959 133.1880
0.909564 90.901 132.7798
0.916155 90.842 132.3663
0.922794 90.782 131.9476
0.929481 90.721 131.5238
0.936216 90.658 131.0952
0.943000 90.594 130.6618
0.949834 90.529 130.2238
0.956717 90.463 129.7816
0.963649 90.395 129.3354
0.970632 90.325 128.8854
0.977666 90.254 128.4320
0.984750 90.182 127.9755
0.991886 90.108 127.5163
0.999074 90.032 127.0548
1.006314 89.954 126.5914
1.013606 89.875 126.1266
1.020951 89.794 125.6610
1.028349 89.711 125.1951
1.035801 89.626 124.7295
1.043307 89.538 124.2649
1.050867 89.449 123.8020
1.058482 89.358 123.3414
1.066152 89.265 122.8838
1.073878 89.169 122.4298
1.081660 89.072 121.9800
1.089498 88.973 121.5346
1.097393 88.873 121.0936
1.105345 88.771 120.6567
1.113355 88.670 120.2234
1.121423 88.568 119.7930
1.129549 88.466 119.3650
1.137734 88.364 118.9388
1.145979 88.262 118.5141
1.154283 88.161 118.0904
1.162647 88.059 117.6673
1.171072 87.957 117.2446
1.179558 87.854 116.8219
1.188106 87.750 116.3988
1.196715 87.645 115.9750
1.205387 87.538 115.5500
1.214122 87.430 115.1237
1.222920 87.319 114.6954
1.231782 87.206 114.2649
1.240708 87.090 113.8317
1.249699 86.971 113.3952
1.258754 86.848 112.9551
1.267876 86.721 112.5108
1.277063 86.590 112.0619
1.286318 86.454 111.6077
1.295639 86.313 111.1476
1.305027 86.166 110.6811
1.314484 86.013 110.2075
1.324009 85.854 109.7262
1.333604 85.687 109.2365
1.343268 85.512 108.7376
1.353002 85.330 108.2289
1.362806 85.138 107.7095
1.372681 84.937 107.1787
1.382628 84.727 106.6358
1.392647 84.505 106.0799
1.402739 84.273 105.5105
1.412904 84.028 104.9269
1.423142 83.770 104.3286
1.433455 83.498 103.7154
1.443843 83.211 103.0874
1.454305 82.905 102.4452
1.464844 82.580 101.7896
1.475459 82.231 101.1218
1.486150 81.856 100.4428
1.496920 81.453 99.7531
1.507767 81.021 99.0527
1.518693 80.559 98.3406
1.529698 80.069 97.6158
1.540783 79.550 96.8765
1.551948 79.006 96.1205
1.563194 78.437 95.3452
1.574521 77.846 94.5476
1.585931 77.236 93.7241
1.597423 76.607 92.8705
1.608999 75.965 91.9819
1.620658 75.310 91.0525
1.632402 74.647 90.0755
1.644232 73.979 89.0425
1.656146 73.309 87.9438
1.668147 72.641 86.7672
1.680235 71.979 85.4982
1.692411 71.328 84.1187
1.704675 70.692 82.6063
1.717028 70.077 80.9329
1.729470 69.487 79.0629
1.742003 68.928 76.9511
1.754626 68.408 74.5393
1.767341 67.932 71.7522
1.780147 67.508 68.4919
1.793047 67.142 64.6309
1.806040 66.842 60.0032
1.819128 66.614 54.3954
1.832310 66.462 47.5413
1.845587 66.390 39.1372
1.858961 66.397 28.9157
1.872432 66.483 16.8345
1.886001 66.644 3.3520
1.899667 66.875 -10.4840
1.913433 67.171 -23.4409
1.927299 67.526 -34.7007
1.941265 67.934 -44.0526
1.955332 68.387 -51.6785
1.969501 68.880 -57.8920
1.983773 69.405 -62.9974
1.998148 69.956 -67.2434
2.012627 70.527 -70.8204
2.027212 71.109 -73.8702
2.041902 71.697 -76.4983
2.056698 72.284 -78.7832
2.071602 72.863 -80.7842
2.086614 73.429 -82.5462
2.101734 73.974 -84.1043
2.116964 74.493 -85.4864
2.132304 74.981 -86.7155
2.147756 75.434 -87.8121
2.163320 75.850 -88.7956
2.178996 76.228 -89.6859
2.194786 76.570 -90.5042
2.210690 76.879 -91.2718
2.226710 77.159 -92.0082
2.242845 77.415 -92.7277
2.259098 77.650 -93.4393
2.275468 77.866 -94.1475
2.291957 78.066 -94.8533
2.308566 78.250 -95.5552
2.325295 78.420 -96.2508
2.342145 78.576 -96.9365
2.359117 78.720 -97.6081
2.376212 78.853 -98.2613
2.393431 78.974 -98.8913
2.410775 79.086 -99.4932
2.428244 79.189 -100.0618
2.445840 79.284 -100.5919
2.463564 79.372 -101.0784
2.481416 79.452 -101.5165
2.499397 79.525 -101.9021
2.517509 79.591 -102.2323
2.535752 79.647 -102.5062
2.554127 79.692 -102.7253
2.572635 79.724 -102.8938
2.591277 79.744 -103.0173
2.610055 79.754 -103.1012
2.628968 79.754 -103.1495
2.648019 79.749 -103.1642
2.667208 79.738 -103.1457
2.686535 79.725 -103.0930
2.706003 79.709 -103.0045
2.725612 79.692 -102.8774
2.745363 79.674 -102.7088
2.765257 79.655 -102.4954
2.785295 79.637 -102.2335
2.805478 79.620 -101.9193
2.825808 79.604 -101.5491
2.846285 79.590 -101.1190
2.866910 79.579 -100.6250
2.887685 79.570 -100.0634
2.908611 79.564 -99.4303
2.929688 79.561 -98.7222
2.950917 79.561 -97.9358
2.972301 79.563 -97.0692
2.993839 79.568 -96.1222
3.015534 79.574 -95.0967
3.037386 79.583 -93.9968
3.059396 79.595 -92.8286
3.081565 79.611 -91.5996
3.103896 79.631 -90.3193
3.126388 79.658 -88.9981
3.149043 79.692 -87.6479
3.171862 79.735 -86.2810
3.194847 79.788 -84.9098
3.217998 79.853 -83.5458
3.241317 79.930 -82.1988
3.264805 80.022 -80.8758
3.288463 80.129 -79.5803
3.312293 80.252 -78.3125
3.336295 80.392 -77.0717
3.360471 80.548 -75.8589
3.384822 80.718 -74.6776
3.409350 80.903 -73.5340
3.434056 81.099 -72.4356
3.458940 81.304 -71.3906
3.484005 81.516 -70.4070
3.509252 81.733 -69.4921
3.534681 81.953 -68.6520
3.560295 82.172 -67.8916
3.586094 82.391 -67.2142
3.612081 82.606 -66.6213
3.638255 82.818 -66.1124
3.664620 83.027 -65.6851
3.691175 83.233 -65.3347
3.717923 83.437 -65.0557
3.744864 83.639 -64.8420
3.772001 83.841 -64.6878
3.799335 84.041 -64.5873
3.826866 84.238 -64.5354
3.854597 84.433 -64.5274
3.882529 84.624 -64.5591
3.910664 84.810 -64.6271
3.939002 84.991 -64.7287
3.967546 85.165 -64.8621
3.996296 85.332 -65.0267
4.025255 85.492 -65.2228
4.054423 85.645 -65.4512
4.083804 85.790 -65.7120
4.113396 85.928 -66.0039
4.143204 86.059 -66.3239
4.173227 86.183 -66.6676
4.203468 86.301 -67.0301
4.233928 86.412 -67.4058
4.264609 86.518 -67.7896
4.295512 86.618 -68.1770
4.326639 86.711 -68.5648
4.357992 86.799 -68.9512
4.389572 86.881 -69.3365
4.421380 86.956 -69.7221
4.453419 87.024 -70.1100
4.485691 87.087 -70.5009
4.518196 87.142 -70.8939
4.550936 87.192 -71.2862
4.583914 87.236 -71.6741
4.617131 87.275 -72.0528
4.650589 87.310 -72.4175
4.684289 87.341 -72.7640
4.718233 87.369 -73.0885
4.752424 87.392 -73.3892
4.786862 87.412 -73.6656
4.821549 87.428 -73.9184
4.856488 87.441 -74.1486
4.891680 87.449 -74.3572
4.927127 87.455 -74.5444
4.962831 87.459 -74.7101
4.998794 87.462 -74.8536
5.035017 87.465 -74.9739
5.071503 87.468 -75.0695
5.108253 87.472 -75.1390
5.145270 87.477 -75.1812
5.182555 87.483 -75.1958
5.220110 87.491 -75.1839
5.257937 87.500 -75.1480
5.296038 87.511 -75.0923
5.334415 87.524 -75.0212
5.373071 87.540 -74.9397
5.412006 87.560 -74.8522
5.451224 87.584 -74.7619
5.490725 87.613 -74.6710
5.530514 87.646 -74.5802
5.570590 87.684 -74.4905
5.610957 87.727 -74.4041
5.651616 87.774 -74.3247
5.692570 87.824 -74.2572
5.733821 87.878 -74.2072
5.775370 87.936 -74.1799
5.817221 87.996 -74.1796
5.859375 88.059 -74.2091
5.901834 88.124 -74.2696
5.944602 88.192 -74.3610
5.987679 88.262 -74.4833
6.031068 88.334 -74.6366
6.074771 88.407 -74.8214
6.118792 88.479 -75.0388
6.163131 88.551 -75.2897
6.207792 88.622 -75.5751
6.252776 88.692 -75.8954
6.298086 88.760 -76.2500
6.343725 88.826 -76.6371
6.389694 88.889 -77.0538
6.435996 88.951 -77.4966
6.482634 89.010 -77.9620
6.529610 89.066 -78.4471
6.576926 89.119 -78.9502
6.624585 89.168 -79.4701
6.672590 89.214 -80.0059
6.720942 89.256 -80.5558
6.769645 89.295 -81.1166
6.818700 89.331 -81.6845
6.868111 89.364 -82.2553
6.917881 89.394 -82.8255
6.968010 89.422 -83.3928
7.018504 89.447 -83.9559
7.069362 89.470 -84.5140
7.120590 89.491 -85.0658
7.172189 89.511 -85.6096
7.224161 89.529 -86.1433
7.276511 89.548 -86.6647
7.329239 89.567 -87.1722
7.382350 89.586 -87.6651
7.435845 89.607 -88.1436
7.489729 89.628 -88.6086
7.544002 89.651 -89.0614
7.598669 89.676 -89.5034
7.653732 89.704 -89.9355
7.709194 89.735 -90.3585
7.765058 89.770 -90.7735
7.821327 89.808 -91.1820
7.878004 89.849 -91.5864
7.935091 89.894 -91.9897
7.992592 89.943 -92.3947
8.050510 89.995 -92.8038
8.108847 90.050 -93.2186
8.167607 90.109 -93.6401
8.226793 90.172 -94.0696
8.286408 90.237 -94.5086
8.346454 90.304 -94.9583
8.406936 90.373 -95.4200
8.467856 90.444 -95.8942
8.529218 90.516 -96.3807
8.591024 90.590 -96.8786
8.653278 90.664 -97.3866
8.715983 90.738 -97.9036
8.779143 90.812 -98.4284
8.842760 90.885 -98.9598
8.906839 90.958 -99.4961
8.971381 91.030 -100.0352
9.036392 91.101 -100.5748
9.101873 91.172 -101.1121
9.167829 91.241 -101.6452
9.234263 91.309 -102.1724
9.301178 91.376 -102.6920
9.368578 91.442 -103.2024
9.436467 91.507 -103.7017
9.504847 91.572 -104.1884
9.573723 91.636 -104.6615
9.643099 91.700 -105.1204
9.712976 91.764 -105.5648
9.783361 91.828 -105.9949
9.854255 91.892 -106.4107
9.925663 91.956 -106.8126
9.997588 92.021 -107.2010
10.070035 92.087 -107.5770
10.143007 92.153 -107.9419
10.216507 92.220 -108.2968
10.290540 92.287 -108.6429
10.365109 92.355 -108.9813
10.440219 92.423 -109.3132
10.515873 92.492 -109.6395
10.592076 92.561 -109.9613
10.668830 92.629 -110.2795
10.746141 92.697 -110.5945
10.824012 92.765 -110.9066
10.902447 92.831 -111.2161
10.981451 92.897 -111.5231
11.061027 92.962 -111.8275
11.141180 93.026 -112.1291
11.221913 93.088 -112.4276
11.303232 93.149 -112.7228
11.385140 93.209 -113.0142
11.467641 93.267 -113.3018
11.550741 93.323 -113.5852
11.634442 93.378 -113.8646
11.718750 93.432 -114.1398
11.803669 93.484 -114.4110
11.889203 93.535 -114.6785
11.975357 93.585 -114.9427
12.062136 93.633 -115.2042
12.149543 93.680 -115.4634
12.237583 93.725 -115.7209
12.326262 93.770 -115.9774
12.415583 93.812 -116.2334
12.505552 93.854 -116.4895
12.596172 93.894 -116.7461
12.687449 93.933 -117.0035
12.779387 93.970 -117.2620
12.871992 94.005 -117.5219
12.965268 94.040 -117.7832
13.059220 94.072 -118.0460
13.153852 94.103 -118.3104
13.249170 94.133 -118.5765
13.345179 94.162 -118.8444
13.441884 94.189 -119.1145
13.539289 94.215 -119.3870
13.637401 94.241 -119.6624
13.736223 94.265 -119.9413
13.835761 94.289 -120.2245
13.936021 94.313 -120.5128
14.037007 94.336 -120.8070
14.138725 94.358 -121.1080
14.241180 94.380 -121.4167
14.344377 94.401 -121.7336
14.448323 94.422 -122.0594
14.553021 94.443 -122.3943
14.658478 94.463 -122.7386
14.764700 94.482 -123.0920
14.871691 94.501 -123.4542
14.979457 94.520 -123.8246
15.088005 94.537 -124.2025
15.197339 94.555 -124.5869
15.307465 94.572 -124.9771
15.418389 94.588 -125.3721
15.530117 94.605 -125.7711
15.642655 94.622 -126.1734
15.756008 94.639 -126.5786
15.870182 94.656 -126.9864
15.985184 94.675 -127.3966
16.101019 94.694 -127.8092
16.217694 94.714 -128.2243
16.335214 94.735 -128.6421
16.453586 94.757 -129.0627
16.572815 94.780 -129.4861
16.692909 94.804 -129.9120
16.813872 94.828 -130.3403
16.935713 94.854 -130.7701
17.058436 94.880 -131.2008
17.182048 94.906 -131.6312
17.306556 94.934 -132.0604
17.431967 94.961 -132.4869
17.558286 94.989 -132.9098
17.685521 95.017 -133.3278
17.813677 95.045 -133.7399
17.942762 95.074 -134.1455
18.072783 95.104 -134.5440
18.203746 95.133 -134.9351
18.335658 95.163 -135.3186
18.468526 95.194 -135.6945
18.602356 95.224 -136.0631
18.737156 95.255 -136.4245
18.872934 95.286 -136.7789
19.009695 95.316 -137.1265
19.147447 95.347 -137.4676
19.286197 95.377 -137.8021
19.425953 95.406 -138.1303
19.566721 95.435 -138.4523
19.708510 95.463 -138.7684
19.851326 95.491 -139.0788
19.995177 95.517 -139.3839
20.140070 95.543 -139.6841
20.286013 95.567 -139.9799
20.433014 95.590 -140.2720
20.581080 95.612 -140.5608
20.730219 95.633 -140.8468
20.880439 95.652 -141.1306
21.031747 95.670 -141.4125
21.184152 95.687 -141.6929
21.337661 95.702 -141.9724
21.492282 95.716 -142.2513
21.648024 95.729 -142.5302
21.804895 95.740 -142.8097
21.962902 95.751 -143.0908
22.122054 95.760 -143.3742
22.282360 95.769 -143.6608
22.443827 95.777 -143.9516
22.606464 95.784 -144.2474
22.770280 95.790 -144.5485
22.935283 95.796 -144.8555
23.101481 95.801 -145.1683
23.268884 95.805 -145.4867
23.437500 95.809 -145.8105
23.607338 95.812 -146.1393
23.778406 95.815 -146.4725
23.950714 95.819 -146.8097
24.124271 95.822 -147.1507
24.299086 95.826 -147.4953
24.475167 95.830 -147.8431
24.652524 95.835 -148.1941
24.831166 95.840 -148.5480
25.011103 95.846 -148.9043
25.192344 95.852 -149.2625
25.374898 95.859 -149.6218
25.558775 95.867 -149.9814
25.743984 95.876 -150.3404
25.930536 95.885 -150.6978
26.118439 95.894 -151.0529
26.307704 95.905 -151.4050
26.498341 95.915 -151.7534
26.690359 95.926 -152.0977
26.883768 95.938 -152.4374
27.078579 95.949 -152.7722
27.274801 95.961 -153.1016
27.472446 95.973 -153.4252
27.671522 95.984 -153.7429
27.872042 95.995 -154.0542
28.074014 96.006 -154.3592
28.277450 96.016 -154.6579
28.482360 96.026 -154.9505
28.688755 96.035 -155.2375
28.896645 96.043 -155.5192
29.106042 96.050 -155.7966
29.316957 96.057 -156.0702
29.529400 96.063 -156.3409
29.743382 96.068 -156.6097
29.958915 96.072 -156.8775
30.176009 96.076 -157.1452
30.394677 96.078 -157.4138
30.614929 96.080 -157.6840
30.836778 96.081 -157.9564
31.060234 96.081 -158.2315
31.285309 96.080 -158.5096
31.512015 96.079 -158.7908
31.740364 96.077 -159.0751
31.970368 96.075 -159.3627
32.202039 96.072 -159.6537
32.435388 96.070 -159.9481
32.670428 96.067 -160.2461
32.907171 96.065 -160.5476
33.145630 96.063 -160.8524
33.385817 96.061 -161.1601
33.627745 96.059 -161.4700
33.871425 96.057 -161.7812
34.116871 96.056 -162.0930
34.364096 96.055 -162.4044
34.613113 96.054 -162.7147
34.863934 96.054 -163.0232
35.116572 96.054 -163.3295
35.371041 96.054 -163.6331
35.627354 96.054 -163.9335
35.885525 96.054 -164.2304
36.145566 96.054 -164.5232
36.407492 96.053 -164.8113
36.671316 96.052 -165.0942
36.937051 96.051 -165.3719
37.204712 96.050 -165.6444
37.474313 96.048 -165.9124
37.745867 96.046 -166.1766
38.019389 96.043 -166.4382
38.294893 96.040 -166.6981
38.572394 96.037 -166.9571
38.851905 96.033 -167.2154
39.133442 96.028 -167.4730
39.417019 96.023 -167.7299
39.702651 96.017 -167.9861
39.990353 96.011 -168.2421
40.280140 96.005 -168.4986
40.572026 95.999 -168.7564
40.866028 95.992 -169.0159
41.162160 95.986 -169.2769
41.460438 95.979 -169.5389
41.760877 95.972 -169.8007
42.063494 95.965 -170.0618
42.368303 95.959 -170.3219
42.675322 95.952 -170.5817
42.984565 95.946 -170.8421
43.296048 95.941 -171.1039
43.609789 95.935 -171.3669
43.925804 95.929 -171.6305
44.244108 95.922 -171.8929
44.564719 95.916 -172.1528
44.887654 95.908 -172.4091
45.212928 95.901 -172.6617
45.540560 95.894 -172.9115
45.870565 95.886 -173.1598
46.202962 95.879 -173.4081
46.537768 95.871 -173.6574
46.875000 95.864 -173.9081
47.214676 95.855 -174.1599
47.556813 95.847 -174.4121
47.901429 95.838 -174.6638
48.248542 95.828 -174.9142
48.598171 95.818 -175.1626
48.950334 95.808 -175.4087
49.305048 95.798 -175.6525
49.662333 95.788 -175.8943
50.022206 95.778 -176.1345
50.384688 95.768 -176.3733
50.749796 95.759 -176.6104
51.117550 95.749 -176.8454
51.487969 95.739 -177.0777
51.861072 95.729 -177.3070
52.236879 95.718 -177.5331
52.615409 95.708 -177.7562
52.996681 95.698 -177.9768
53.380717 95.688 -178.1953
53.767536 95.677 -178.4123
54.157158 95.667 -178.6284
54.549603 95.657 -178.8449
54.944892 95.648 -179.0628
55.343045 95.638 -179.2833
55.744084 95.629 -179.5071
56.148028 95.619 -179.7341
56.554900 95.610 -179.9640
56.964720 95.600 179.8036
57.377510 95.591 179.5688
57.793291 95.581 179.3319
58.212085 95.571 179.0932
58.633914 95.561 178.8540
59.058799 95.550 178.6155
59.486764 95.540 178.3789
59.917829 95.528 178.1443
60.352019 95.517 177.9112
60.789354 95.505 177.6789
61.229859 95.493 177.4472
61.673556 95.480 177.2166
62.120468 95.466 176.9878
62.570618 95.452 176.7610
63.024031 95.438 176.5360
63.480729 95.423 176.3123
63.940736 95.409 176.0894
64.404077 95.394 175.8668
64.870776 95.378 175.6447
65.340856 95.363 175.4233
65.814343 95.348 175.2027
66.291261 95.333 174.9832
66.771635 95.318 174.7647
67.255489 95.303 174.5471
67.742850 95.288 174.3303
68.233743 95.273 174.1147
68.728193 95.258 173.9008
69.226226 95.242 173.6893
69.727867 95.226 173.4805
70.233144 95.210 173.2741
70.742083 95.194 173.0699
71.254709 95.178 172.8675
71.771050 95.162 172.6661
72.291132 95.146 172.4651
72.814984 95.131 172.2638
73.342631 95.115 172.0621
73.874102 95.100 171.8601
74.409424 95.085 171.6581
74.948626 95.070 171.4560
75.491734 95.055 171.2538
76.038779 95.041 171.0516
76.589787 95.026 170.8493
77.144788 95.012 170.6465
77.703811 94.997 170.4426
78.266885 94.983 170.2370
78.834039 94.969 170.0287
79.405303 94.954 169.8172
79.980706 94.940 169.6017
80.560280 94.924 169.3818
81.144053 94.908 169.1574
81.732056 94.891 168.9288
82.324320 94.873 168.6970
82.920876 94.854 168.4632
83.521755 94.833 168.2284
84.126988 94.811 167.9929
84.736607 94.787 167.7577
85.350643 94.763 167.5250
85.969129 94.737 167.2975
86.592097 94.710 167.0775
87.219579 94.683 166.8658
87.851608 94.657 166.6625
88.488217 94.630 166.4670
89.129439 94.605 166.2784
89.775308 94.580 166.0955
90.425856 94.556 165.9173
91.081119 94.532 165.7428
91.741131 94.508 165.5705
92.405925 94.485 165.3996
93.075536 94.461 165.2295
93.750000 94.437 165.0599
94.429351 94.413 164.8904
95.113625 94.388 164.7209
95.802858 94.363 164.5513
96.497085 94.337 164.3821
97.196342 94.312 164.2138
97.900667 94.286 164.0472
98.610096 94.260 163.8827
99.324665 94.234 163.7212
100.044413 94.209 163.5635
100.769376 94.183 163.4103
101.499592 94.157 163.2617
102.235100 94.131 163.1164
102.975938 94.106 162.9723
103.722144 94.082 162.8267
104.473757 94.058 162.6777
105.230817 94.035 162.5243
105.993363 94.012 162.3667
106.761435 93.990 162.2056
107.535072 93.968 162.0415
108.314315 93.946 161.8745
109.099206 93.924 161.7039
109.889783 93.902 161.5284
110.686090 93.879 161.3469
111.488167 93.855 161.1603
112.296056 93.828 160.9718
113.109800 93.798 160.7863
113.929440 93.765 160.6081
114.755020 93.731 160.4402
115.586582 93.695 160.2847
116.424170 93.658 160.1439
117.267827 93.621 160.0193
118.117598 93.585 159.9103
118.973527 93.550 159.8132
119.835658 93.516 159.7229
120.704037 93.484 159.6350
121.578708 93.453 159.5470
122.459718 93.423 159.4572
123.347111 93.394 159.3645
124.240935 93.364 159.2684
125.141236 93.335 159.1699
126.048061 93.307 159.0699
126.961458 93.278 158.9702
127.881473 93.250 158.8720
128.808154 93.222 158.7766
129.741551 93.194 158.6841
130.681712 93.167 158.5940
131.628686 93.139 158.5051
132.582521 93.112 158.4158
133.543269 93.085 158.3252
134.510979 93.057 158.2329
135.485701 93.030 158.1393
136.467486 93.002 158.0449
137.456386 92.974 157.9507
138.452451 92.946 157.8573
139.455735 92.918 157.7643
140.466288 92.891 157.6709
141.484165 92.864 157.5760
142.509418 92.836 157.4786
143.542100 92.808 157.3784
144.582265 92.780 157.2756
145.629968 92.752 157.1705
146.685262 92.723 157.0634
147.748204 92.694 156.9547
148.818849 92.663 156.8464
149.897251 92.632 156.7414
150.983469 92.599 156.6429
152.077557 92.566 156.5540
153.179574 92.532 156.4761
154.289576 92.499 156.4091
155.407622 92.466 156.3503
156.533770 92.435 156.2951
157.668078 92.405 156.2380
158.810606 92.377 156.1744
159.961413 92.349 156.1012
161.120559 92.320 156.0181
162.288105 92.291 155.9265
163.464112 92.261 155.8297
164.648640 92.230 155.7315
165.841752 92.198 155.6361
167.043510 92.164 155.5472
168.253976 92.129 155.4673
169.473213 92.093 155.3972
170.701286 92.058 155.3362
171.938258 92.023 155.2834
173.184194 91.989 155.2379
174.439158 91.956 155.1980
175.703216 91.923 155.1615
176.976434 91.891 155.1257
178.258878 91.859 155.0879
179.550615 91.827 155.0463
180.851713 91.796 154.9999
182.162239 91.763 154.9484
183.482262 91.731 154.8926
184.811850 91.698 154.8340
186.151073 91.664 154.7749
187.500000 91.630 154.7173
188.858702 91.595 154.6617
190.227250 91.560 154.6077
191.605715 91.524 154.5551
192.994169 91.487 154.5048
194.392685 91.450 154.4583
195.801334 91.413 154.4174
197.220191 91.375 154.3837
198.649330 91.337 154.3578
200.088825 91.299 154.3400
201.538751 91.261 154.3292
202.999184 91.224 154.3231
204.470200 91.187 154.3176
205.951875 91.152 154.3081
207.444287 91.117 154.2914
208.947514 91.081 154.2672
210.461634 91.044 154.2376
211.986726 91.005 154.2069
213.522869 90.965 154.1809
215.070144 90.924 154.1656
216.628631 90.881 154.1656
218.198411 90.839 154.1819
219.779567 90.797 154.2117
221.372180 90.757 154.2487
222.976334 90.719 154.2866
224.592112 90.681 154.3214
226.219600 90.644 154.3525
227.858880 90.607 154.3815
229.510039 90.570 154.4107
231.173164 90.533 154.4420
232.848340 90.495 154.4760
234.535655 90.456 154.5126
236.235197 90.417 154.5515
237.947054 90.377 154.5919
239.671317 90.337 154.6335
241.408074 90.295 154.6761
243.157416 90.253 154.7209
244.919435 90.210 154.7710
246.694223 90.167 154.8325
248.481871 90.123 154.9122
250.282473 90.079 155.0151
252.096123 90.037 155.1422
253.922915 89.997 155.2902
255.762945 89.960 155.4511
257.616309 89.928 155.6135
259.483103 89.899 155.7656
261.363424 89.873 155.8997
263.257372 89.847 156.0146
265.165043 89.823 156.1140
267.086538 89.797 156.2031
269.021957 89.771 156.2863
270.971401 89.744 156.3662
272.934972 89.717 156.4437
274.912771 89.689 156.5188
276.904902 89.662 156.5920
278.911469 89.634 156.6644
280.932577 89.606 156.7366
282.968330 89.579 156.8076
285.018835 89.553 156.8734
287.084199 89.528 156.9282
289.164530 89.502 156.9669
291.259935 89.475 156.9882
293.370525 89.445 156.9971
295.496408 89.411 157.0037
297.637697 89.375 157.0177
299.794503 89.336 157.0455
301.966937 89.296 157.0892
304.155114 89.255 157.1472
306.359147 89.214 157.2164
308.579152 89.173 157.2932
310.815244 89.132 157.3745
313.067539 89.091 157.4588
315.336156 89.050 157.5476
317.621211 89.008 157.6447
319.922826 88.965 157.7545
322.241118 88.923 157.8787
324.576210 88.881 158.0155
326.928223 88.840 158.1609
329.297280 88.801 158.3105
331.683504 88.763 158.4610
334.087019 88.725 158.6100
336.507952 88.688 158.7564
338.946427 88.652 158.9004
341.402572 88.614 159.0435
343.876516 88.577 159.1885
346.368387 88.538 159.3380
348.878315 88.500 159.4935
351.406431 88.461 159.6553
353.952867 88.422 159.8223
356.517756 88.384 159.9932
359.101230 88.345 160.1668
361.703426 88.308 160.3427
364.324478 88.270 160.5214
366.964523 88.232 160.7036
369.623699 88.195 160.8900
372.302145 88.157 161.0807
375.000000 88.120 161.2760
377.717405 88.084 161.4757
380.454501 88.047 161.6794
383.211431 88.011 161.8866
385.988339 87.975 162.0972
388.785369 87.940 162.3114
391.602668 87.904 162.5300
394.440383 87.868 162.7535
397.298660 87.833 162.9815
400.177650 87.798 163.2128
403.077502 87.764 163.4452
405.998368 87.730 163.6769
408.940400 87.696 163.9077
411.903750 87.662 164.1395
414.888575 87.627 164.3757
417.895028 87.592 164.6197
420.923268 87.557 164.8739
423.973452 87.522 165.1390
427.045738 87.489 165.4139
430.140287 87.457 165.6949
433.257261 87.427 165.9775
436.396822 87.398 166.2585
439.559133 87.370 166.5377
442.744360 87.344 166.8151
445.952668 87.318 167.0889
449.184225 87.294 167.3545
452.439199 87.270 167.6058
455.717760 87.245 167.8397
459.020079 87.219 168.0594
462.346327 87.189 168.2759
465.696680 87.156 168.5009
469.071310 87.122 168.7419
472.470394 87.087 168.9997
475.894109 87.052 169.2710
479.342634 87.018 169.5506
482.816148 86.984 169.8334
486.314833 86.950 170.1184
489.838871 86.915 170.4101
493.388445 86.880 170.7161
496.963741 86.845 171.0402
500.564945 86.812 171.3788
504.192245 86.781 171.7238
507.845830 86.751 172.0682
511.525890 86.721 172.4089
515.232618 86.692 172.7469
518.966206 86.662 173.0859
522.726849 86.631 173.4308
526.514743 86.600 173.7861
530.330086 86.569 174.1535
534.173076 86.540 174.5306
538.043915 86.511 174.9127
541.942803 86.484 175.2969
545.869944 86.457 175.6843
549.825542 86.431 176.0758
553.809805 86.406 176.4704
557.822939 86.382 176.8653
561.865154 86.358 177.2585
565.936660 86.335 177.6502
570.037671 86.311 178.0433
574.168399 86.287 178.4409
578.329060 86.263 178.8446
582.519870 86.238 179.2542
586.741049 86.214 179.6700
590.992817 86.190 -179.9057
595.275394 86.166 -179.4707
599.589005 86.144 -179.0264
603.933874 86.122 -178.5773
608.310228 86.102 -178.1275
612.718295 86.082 -177.6781
617.158304 86.062 -177.2266
621.630488 86.043 -176.7677
626.135079 86.023 -176.2958
630.672311 86.005 -175.8098
635.242423 85.989 -175.3145
639.845651 85.976 -174.8170
644.482237 85.964 -174.3207
649.152421 85.955 -173.8261
653.856447 85.948 -173.3360
658.594560 85.944 -172.8582
663.367008 85.941 -172.4033
668.174039 85.938 -171.9794
673.015903 85.932 -171.5851
677.892854 85.922 -171.2103
682.805145 85.907 -170.8419
687.753032 85.887 -170.4676
692.736774 85.862 -170.0756
697.756631 85.833 -169.6549
702.812863 85.801 -169.1984
707.905735 85.769 -168.7048
713.035511 85.736 -168.1773
718.202461 85.705 -167.6195
723.406852 85.674 -167.0329
728.648956 85.645 -166.4167
733.929047 85.618 -165.7691
739.247399 85.593 -165.0881
744.604290 85.572 -164.3729
750.000000 85.556 -163.6256
755.434809 85.546 -162.8530
760.909001 85.543 -162.0665
766.422861 85.548 -161.2815
771.976677 85.559 -160.5127
777.570739 85.576 -159.7711
783.205337 85.594 -159.0603
788.880766 85.614 -158.3763
794.597321 85.634 -157.7090
800.355301 85.654 -157.0476
806.155005 85.674 -156.3861
811.996736 85.696 -155.7251
817.880799 85.721 -155.0696
823.807501 85.747 -154.4270
829.777150 85.775 -153.8038
835.790057 85.803 -153.2008
841.846536 85.828 -152.6105
847.946903 85.852 -152.0219
854.091476 85.874 -151.4271
860.280575 85.895 -150.8224
866.514523 85.916 -150.2055
872.793644 85.937 -149.5733
879.118267 85.959 -148.9266
885.488720 85.982 -148.2698
891.905336 86.007 -147.6069
898.368450 86.034 -146.9384
904.878398 86.062 -146.2621
911.435520 86.093 -145.5767
918.040157 86.125 -144.8836
924.692655 86.161 -144.1853
931.393359 86.199 -143.4852
938.142619 86.240 -142.7876
944.940787 86.283 -142.0947
951.788218 86.328 -141.4057
958.685268 86.373 -140.7181
965.632296 86.420 -140.0295
972.629666 86.469 -139.3378
979.677741 86.519 -138.6427
986.776890 86.571 -137.9451
993.927482 86.626 -137.2440
1001.129891 86.683 -136.5349
1008.384491 86.743 -135.8142
1015.691660 86.807 -135.0837
1023.051781 86.877 -134.3497
1030.465236 86.952 -133.6218
1037.932411 87.033 -132.9132
1045.453698 87.119 -132.2375
1053.029486 87.208 -131.6008
1060.660172 87.298 -131.0002
1068.346153 87.388 -130.4277
1076.087829 87.477 -129.8749
1083.885605 87.567 -129.3364
1091.739887 87.657 -128.8107
1099.651084 87.748 -128.2987
1107.619609 87.839 -127.8008
1115.645878 87.931 -127.3169
1123.730308 88.024 -126.8467
1131.873321 88.117 -126.3898
1140.075341 88.210 -125.9456
1148.336797 88.304 -125.5135
1156.658119 88.398 -125.0930
1165.039741 88.494 -124.6829
1173.482099 88.590 -124.2818
1181.985634 88.687 -123.8904
1190.550789 88.787 -123.5151
1199.178011 88.889 -123.1668
1207.867749 88.993 -122.8563
1216.620457 89.095 -122.5880
1225.436590 89.195 -122.3567
1234.316609 89.290 -122.1529
1243.260976 89.382 -121.9662
1252.270157 89.469 -121.7881
1261.344623 89.552 -121.6129
1270.484846 89.632 -121.4378
1279.691303 89.710 -121.2598
1288.964474 89.786 -121.0762
1298.304842 89.859 -120.8865
1307.712894 89.932 -120.6921
1317.189120 90.004 -120.4956
1326.734016 90.075 -120.2986
1336.348077 90.145 -120.1003
1346.031806 90.212 -119.8976
1355.785708 90.279 -119.6866
1365.610290 90.343 -119.4635
1375.506065 90.407 -119.2236
1385.473549 90.471 -118.9620
1395.513261 90.537 -118.6778
1405.625726 90.606 -118.3765
1415.811469 90.679 -118.0702
1426.071023 90.755 -117.7737
1436.404921 90.833 -117.4961
1446.813703 90.912 -117.2378
1457.297912 90.991 -116.9934
1467.858093 91.068 -116.7569
1478.494798 91.145 -116.5240
1489.208581 91.220 -116.2916
1500.000000 91.296 -116.0567
1510.869618 91.370 -115.8160
1521.818002 91.445 -115.5668
1532.845723 91.521 -115.3068
1543.953355 91.598 -115.0345
1555.141477 91.678 -114.7499
1566.410674 91.761 -114.4575
1577.761531 91.849 -114.1689
1589.194642 91.941 -113.8983
1600.710601 92.036 -113.6551
1612.310010 92.131 -113.4400
1623.993473 92.226 -113.2481
1635.761599 92.320 -113.0726
1647.615002 92.413 -112.9082
1659.554299 92.506 -112.7506
1671.580114 92.598 -112.5969
1683.693072 92.691 -112.4467
1695.893807 92.784 -112.3025
1708.182952 92.878 -112.1665
1720.561150 92.972 -112.0391
1733.029045 93.065 -111.9176
1745.587288 93.158 -111.7970
1758.236533 93.251 -111.6710
1770.977440 93.346 -111.5350
1783.810673 93.444 -111.3909
1796.736900 93.547 -111.2492
1809.756796 93.654 -111.1250
1822.871040 93.765 -111.0297
1836.080315 93.877 -110.9677
1849.385310 93.991 -110.9379
1862.786718 94.104 -110.9373
1876.285239 94.216 -110.9617
1889.881575 94.328 -111.0062
1903.576436 94.439 -111.0657
1917.370535 94.550 -111.1360
1931.264593 94.663 -111.2151
1945.259332 94.777 -111.3058
1959.355483 94.896 -111.4186
1973.553781 95.017 -111.5683
1987.854965 95.140 -111.7666
2002.259781 95.263 -112.0182
2016.768981 95.385 -112.3219
2031.383320 95.503 -112.6739
2046.103561 95.618 -113.0690
2060.930471 95.729 -113.5031
2075.864823 95.837 -113.9741
2090.907395 95.940 -114.4809
2106.058972 96.038 -115.0207
2121.320344 96.131 -115.5877
2136.692305 96.218 -116.1733
2152.175658 96.301 -116.7688
2167.771210 96.380 -117.3711
2183.479774 96.457 -117.9857
2199.302169 96.532 -118.6224
2215.239219 96.604 -119.2888
2231.291755 96.672 -119.9875
2247.460615 96.734 -120.7168
2263.746641 96.791 -121.4714
2280.150683 96.840 -122.2431
2296.673595 96.882 -123.0223
2313.316238 96.919 -123.8003
2330.079481 96.951 -124.5734
2346.964198 96.980 -125.3458
2363.971268 97.006 -126.1266
2381.101578 97.029 -126.9228
2398.356022 97.046 -127.7367
2415.735498 97.057 -128.5659
2433.240913 97.062 -129.4056
2450.873180 97.060 -130.2504
2468.633217 97.050 -131.0958
2486.521951 97.034 -131.9372
2504.540314 97.009 -132.7668
2522.689246 96.977 -133.5739
2540.969692 96.938 -134.3475
2559.382606 96.894 -135.0830
2577.928947 96.846 -135.7842
2596.609683 96.797 -136.4584
2615.425787 96.744 -137.1117
2634.378241 96.687 -137.7465
2653.468031 96.626 -138.3603
2672.696154 96.560 -138.9462
2692.063613 96.489 -139.4951
2711.571415 96.416 -140.0007
2731.220579 96.341 -140.4646
2751.012130 96.266 -140.8947
2770.947098 96.191 -141.3001
2791.026522 96.115 -141.6871
2811.251451 96.037 -142.0579
2831.622938 95.957 -142.4123
2852.142045 95.874 -142.7491
2872.809842 95.787 -143.0651
2893.627406 95.696 -143.3530
2914.595823 95.601 -143.6015
2935.716186 95.502 -143.7998
2956.989596 95.403 -143.9448
2978.417161 95.303 -144.0402
3000.000000 95.203 -144.0924
3021.739237 95.104 -144.1060
3043.636005 95.004 -144.0806
3065.691446 94.905 -144.0107
3087.906710 94.805 -143.8880
3110.282955 94.708 -143.7091
3132.821347 94.615 -143.4787
3155.523062 94.526 -143.2068
3178.389283 94.442 -142.9040
3201.421202 94.363 -142.5785
3224.620020 94.289 -142.2364
3247.986946 94.218 -141.8814
3271.523198 94.149 -141.5132
3295.230004 94.082 -141.1254
3319.108599 94.016 -140.7085
3343.160228 93.954 -140.2576
3367.386145 93.895 -139.7747
3391.787613 93.842 -139.2657
3416.365904 93.793 -138.7364
3441.122300 93.749 -138.1870
3466.058091 93.709 -137.6125
3491.174576 93.674 -137.0069
3516.473066 93.645 -136.3706
3541.954880 93.625 -135.7110
3567.621345 93.614 -135.0396
3593.473800 93.611 -134.3678
3619.513592 93.617 -133.7063
3645.742080 93.630 -133.0628
3672.160630 93.648 -132.4382
3698.770620 93.671 -131.8266
3725.573436 93.700 -131.2221
3752.570477 93.735 -130.6243
3779.763150 93.776 -130.0378
3807.152872 93.823 -129.4678
3834.741071 93.877 -128.9149
3862.529185 93.936 -128.3742
3890.518664 94.001 -127.8415
3918.710966 94.076 -127.3198
3947.107561 94.159 -126.8191
3975.709929 94.253 -126.3535
4004.519563 94.356 -125.9390
4033.537962 94.468 -125.5900
4062.766641 94.587 -125.3142
4092.207123 94.711 -125.1125
4121.860942 94.841 -124.9849
4151.729646 94.975 -124.9361
4181.814790 95.114 -124.9739
4212.117944 95.256 -125.1049
4242.640687 95.399 -125.3301
4273.384610 95.544 -125.6482
4304.351317 95.690 -126.0623
4335.542421 95.838 -126.5819
4366.959549 95.986 -127.2217
4398.604338 96.132 -127.9991
4430.478438 96.275 -128.9286
4462.583511 96.408 -130.0158
4494.921231 96.529 -131.2571
4527.493283 96.635 -132.6443
4560.301365 96.721 -134.1673
4593.347189 96.785 -135.8111
4626.632476 96.823 -137.5522
4660.158962 96.832 -139.3585
4693.928395 96.813 -141.1955
4727.942535 96.764 -143.0306
4762.203156 96.688 -144.8357
4796.712043 96.584 -146.5879
4831.470996 96.455 -148.2661
4866.481826 96.301 -149.8465
4901.746360 96.124 -151.3043
4937.266434 95.926 -152.6185
4973.043902 95.710 -153.7725
5009.080628 95.478 -154.7516
5045.378492 95.234 -155.5403
5081.939384 94.982 -156.1254
5118.765212 94.728 -156.5018
5155.857894 94.476 -156.6761
5193.219366 94.232 -156.6684
5230.851574 94.001 -156.5073
5268.756481 93.784 -156.2231
5306.936062 93.583 -155.8463
5345.392309 93.398 -155.4085
5384.127225 93.229 -154.9389
5423.142830 93.073 -154.4576
5462.441159 92.927 -153.9736
5502.024259 92.789 -153.4886
5541.894195 92.659 -153.0028
5582.053045 92.535 -152.5190
5622.502902 92.416 -152.0422
5663.245876 92.302 -151.5746
5704.284090 92.190 -151.1162
5745.619684 92.080 -150.6670
5787.254813 91.970 -150.2279
5829.191647 91.858 -149.7980
5871.432373 91.741 -149.3667
5913.979192 91.616 -148.9089
5956.834323 91.484 -148.3904
6000.000000 91.346 -147.7800
6043.478473 91.205 -147.0554
6087.272010 91.065 -146.2043
6131.382892 90.931 -145.2255
6175.813420 90.805 -144.1252
6220.565910 90.691 -142.9101
6265.642695 90.590 -141.5835
6311.046124 90.504 -140.1466
6356.778566 90.438 -138.6032
6402.842404 90.393 -136.9633
6449.240040 90.375 -135.2421
6495.973891 90.384 -133.4608
6543.046396 90.424 -131.6464
6590.460007 90.495 -129.8275
6638.217197 90.597 -128.0293
6686.320456 90.731 -126.2721
6734.772290 90.897 -124.5746
6783.575226 91.094 -122.9576
6832.731809 91.323 -121.4442
6882.244600 91.582 -120.0600
6932.116181 91.870 -118.8330
6982.349153 92.184 -117.7894
7032.946133 92.523 -116.9497
7083.909760 92.882 -116.3270
7135.242690 93.259 -115.9318
7186.947600 93.653 -115.7748
7239.027185 94.062 -115.8683
7291.484160 94.484 -116.2278
7344.321260 94.916 -116.8728
7397.541239 95.357 -117.8238
7451.146872 95.803 -119.0997
7505.140954 96.251 -120.7199
7559.526299 96.698 -122.7081
7614.305743 97.142 -125.0938
7669.482141 97.576 -127.9131
7725.058371 97.993 -131.2068
7781.037328 98.383 -135.0136
7837.421932 98.733 -139.3583
7894.215122 99.027 -144.2417
7951.419859 99.250 -149.6338
8009.039125 99.388 -155.4680
8067.075924 99.427 -161.6400
8125.533282 99.359 -168.0117
8184.414245 99.178 -174.4202
8243.721885 98.884 179.3102
8303.459292 98.480 173.3506
8363.629581 97.974 167.8502
8424.235888 97.380 162.9238
8485.281374 96.714 158.6437
8546.769221 95.993 155.0388
8608.702634 95.234 152.1010
8671.084842 94.455 149.7970
8733.919097 93.668 148.0789
8797.208675 92.887 146.8936
8860.956876 92.120 146.1874
8925.167022 91.376 145.9043
8989.842461 90.661 145.9846
9054.986566 89.980 146.3685
9120.602731 89.334 147.0021
9186.694378 88.724 147.8424
9253.264952 88.148 148.8599
9320.317925 87.606 150.0327
9387.856790 87.096 151.3405
9455.885071 86.619 152.7627
9524.406312 86.173 154.2798
9593.424086 85.756 155.8782
9662.941992 85.368 157.5519
9732.963653 85.006 159.2981
9803.492719 84.673 161.1103
9874.532869 84.366 162.9778
9946.087805 84.086 164.8889
10018.161257 83.832 166.8380
10090.756983 83.604 168.8271
10163.878768 83.401 170.8593
10237.530423 83.224 172.9311
10311.715789 83.076 175.0330
10386.438732 82.955 177.1543
10461.703149 82.862 179.2910
10537.512962 82.798 -178.5565
10613.872125 82.764 -176.3898
10690.784618 82.761 -174.2175
10768.254450 82.790 -172.0506
10846.285661 82.853 -169.8953
10924.882318 82.950 -167.7508
11004.048518 83.084 -165.6172
11083.788390 83.259 -163.5021
11164.106090 83.480 -161.4213
11245.005805 83.749 -159.3919
11326.491752 84.074 -157.4308
11408.568180 84.462 -155.5611
11491.239368 84.921 -153.8214
11574.509626 85.460 -152.2693
11658.383294 86.089 -150.9795
11742.864745 86.814 -150.0469
11827.958384 87.636 -149.5937
11913.668646 88.552 -149.7733
12000.000000 89.547 -150.7608
12086.956947 90.592 -152.7341
12174.544019 91.653 -155.8551
12262.765784 92.683 -160.2541
12351.626840 93.632 -166.0089
12441.131819 94.443 -173.1181
12531.285389 95.063 178.5349
12622.092249 95.443 169.2139
12713.557132 95.549 159.3407
12805.684808 95.370 149.4507
12898.480079 94.921 140.0879
12991.947783 94.236 131.6923
13086.092792 93.364 124.5402
13180.920015 92.359 118.7477
13276.434395 91.275 114.3081
13372.640911 90.163 111.1334
13469.544580 89.071 109.0862
13567.150452 88.035 108.0007
13665.463617 87.086 107.6989
13764.489200 86.242 108.0089
13864.232362 85.513 108.7826
13964.698305 84.901 109.8990
14065.892266 84.404 111.2606
14167.819519 84.021 112.7883
14270.485380 83.751 114.4168
14373.895200 83.597 116.0818
14478.054370 83.563 117.7056
14582.968320 83.658 119.1917
14688.642520 83.887 120.4257
14795.082478 84.255 121.2712
14902.293745 84.763 121.5682
15010.281908 85.400 121.1398
15119.052599 86.147 119.8032
15228.611486 86.972 117.3820
15338.964283 87.830 113.7244
15450.116741 88.668 108.7267
15562.074656 89.428 102.3581
15674.843864 90.050 94.6824
15788.430244 90.479 85.8810
15902.839718 90.670 76.2653
16018.078250 90.599 66.2556
16134.151848 90.263 56.3128
16251.066563 89.679 46.8593
16368.828491 88.879 38.2480
16487.443769 87.891 30.7997
16606.918584 86.750 24.8668
16727.259161 85.500 20.8126
16848.471777 84.226 18.7772
16970.562748 83.051 18.3427
17093.538442 82.116 18.5439
17217.405268 81.509 18.3210
17342.169684 81.224 16.9475
17467.838194 81.176 14.1022
17594.417350 81.246 9.7328
17721.913751 81.321 3.9360
17850.334044 81.303 -3.0897
17979.684923 81.114 -11.0425
18109.973131 80.702 -19.5179
18241.205462 80.037 -28.0503
18373.388756 79.118 -36.1844
18506.529905 77.963 -43.5393
18640.635849 76.601 -49.8354
18775.713581 75.068 -54.8917
18911.770141 73.400 -58.6073
19048.812624 71.632 -60.9451
19186.848172 69.799 -61.9220
19325.883983 67.936 -61.6073
19465.927305 66.083 -60.1337
19606.985439 64.297 -57.7357
19749.065738 62.673 -54.8281
19892.175609 61.371 -52.0858
20036.322514 60.622 -50.3753
