* Measurement data measured by REW V5.31.3
* Source: EXCL: Microphone (USB Sound Device        ), no input selected, R, volume: 0.390
* Format: 256k Log Swept Sine, 1 sweep at -15.0 dBFS with no timing reference
* Dated: Apr 18, 2025 6:25:19 PM
* REW Settings:
*  C-weighting compensation: Off
*  Target level: 75.0 dB
* Note: STA Hi End
* Measurement: L Apr 18
* Smoothing: 1/12 octave
* Frequency Step: 96 ppo
* Start Frequency: 0.36621094 Hz
*
* Freq(Hz) SPL(dB) Phase(degrees)
0.366211 94.536 157.2172
0.368865 94.530 157.1935
0.371538 94.521 157.1580
0.374230 94.510 157.1133
0.376942 94.498 157.0619
0.379673 94.486 157.0053
0.382424 94.472 156.9448
0.385196 94.458 156.8809
0.387987 94.444 156.8141
0.390798 94.430 156.7446
0.393630 94.416 156.6725
0.396483 94.401 156.5977
0.399356 94.386 156.5205
0.402250 94.372 156.4406
0.405165 94.357 156.3581
0.408101 94.342 156.2730
0.411058 94.327 156.1852
0.414037 94.312 156.0948
0.417037 94.296 156.0016
0.420059 94.281 155.9057
0.423103 94.265 155.8071
0.426169 94.250 155.7057
0.429257 94.234 155.6015
0.432368 94.218 155.4945
0.435501 94.202 155.3846
0.438656 94.186 155.2719
0.441835 94.170 155.1563
0.445037 94.154 155.0377
0.448262 94.137 154.9162
0.451510 94.121 154.7918
0.454782 94.104 154.6643
0.458077 94.087 154.5339
0.461397 94.070 154.4004
0.464740 94.053 154.2639
0.468108 94.036 154.1244
0.471500 94.019 153.9817
0.474917 94.001 153.8360
0.478358 93.984 153.6871
0.481825 93.966 153.5352
0.485316 93.948 153.3801
0.488833 93.931 153.2219
0.492375 93.913 153.0605
0.495943 93.894 152.8959
0.499537 93.876 152.7282
0.503157 93.858 152.5573
0.506803 93.839 152.3832
0.510475 93.820 152.2060
0.514175 93.801 152.0255
0.517900 93.782 151.8419
0.521653 93.763 151.6551
0.525434 93.744 151.4651
0.529241 93.725 151.2720
0.533076 93.705 151.0757
0.536939 93.685 150.8762
0.540830 93.666 150.6737
0.544749 93.646 150.4680
0.548696 93.626 150.2592
0.552673 93.605 150.0474
0.556677 93.585 149.8325
0.560711 93.564 149.6147
0.564774 93.544 149.3938
0.568867 93.523 149.1701
0.572989 93.502 148.9434
0.577141 93.481 148.7139
0.581324 93.459 148.4816
0.585536 93.438 148.2465
0.589779 93.416 148.0088
0.594053 93.395 147.7684
0.598358 93.373 147.5255
0.602694 93.351 147.2801
0.607061 93.328 147.0323
0.611460 93.306 146.7822
0.615891 93.283 146.5298
0.620354 93.261 146.2754
0.624849 93.238 146.0189
0.629377 93.215 145.7604
0.633938 93.191 145.5002
0.638532 93.168 145.2383
0.643159 93.144 144.9749
0.647819 93.121 144.7100
0.652514 93.097 144.4438
0.657242 93.073 144.1766
0.662005 93.048 143.9084
0.666802 93.024 143.6394
0.671634 92.999 143.3699
0.676501 92.975 143.0999
0.681403 92.950 142.8297
0.686341 92.924 142.5595
0.691314 92.899 142.2895
0.696324 92.873 142.0199
0.701370 92.847 141.7509
0.706452 92.821 141.4827
0.711571 92.794 141.2153
0.716728 92.767 140.9487
0.721921 92.738 140.6826
0.727153 92.708 140.4166
0.732422 92.676 140.1500
0.737729 92.642 139.8816
0.743075 92.606 139.6105
0.748460 92.568 139.3356
0.753883 92.529 139.0564
0.759346 92.489 138.7722
0.764849 92.448 138.4827
0.770391 92.406 138.1877
0.775974 92.364 137.8870
0.781597 92.322 137.5805
0.787261 92.278 137.2681
0.792966 92.235 136.9498
0.798712 92.190 136.6254
0.804500 92.145 136.2950
0.810329 92.100 135.9584
0.816201 92.054 135.6156
0.822116 92.007 135.2667
0.828073 91.959 134.9115
0.834074 91.911 134.5500
0.840118 91.862 134.1823
0.846206 91.812 133.8082
0.852338 91.762 133.4278
0.858514 91.710 133.0411
0.864735 91.658 132.6481
0.871001 91.605 132.2489
0.877313 91.551 131.8434
0.883670 91.496 131.4317
0.890074 91.440 131.0139
0.896524 91.383 130.5900
0.903020 91.325 130.1602
0.909564 91.265 129.7244
0.916155 91.205 129.2830
0.922794 91.143 128.8359
0.929481 91.080 128.3833
0.936216 91.016 127.9255
0.943000 90.950 127.4626
0.949834 90.883 126.9949
0.956717 90.815 126.5226
0.963649 90.745 126.0461
0.970632 90.674 125.5655
0.977666 90.601 125.0813
0.984750 90.526 124.5939
0.991886 90.449 124.1036
0.999074 90.371 123.6110
1.006314 90.291 123.1164
1.013606 90.209 122.6206
1.020951 90.125 122.1239
1.028349 90.040 121.6272
1.035801 89.952 121.1310
1.043307 89.862 120.6361
1.050867 89.769 120.1431
1.058482 89.675 119.6530
1.066152 89.578 119.1664
1.073878 89.479 118.6841
1.081660 89.379 118.2065
1.089498 89.276 117.7340
1.097393 89.173 117.2666
1.105345 89.069 116.8039
1.113355 88.964 116.3453
1.121423 88.861 115.8901
1.129549 88.758 115.4376
1.137734 88.656 114.9873
1.145979 88.554 114.5386
1.154283 88.454 114.0912
1.162647 88.354 113.6446
1.171072 88.254 113.1985
1.179558 88.153 112.7524
1.188106 88.053 112.3060
1.196715 87.951 111.8590
1.205387 87.848 111.4108
1.214122 87.743 110.9611
1.222920 87.636 110.5094
1.231782 87.527 110.0553
1.240708 87.414 109.5984
1.249699 87.298 109.1381
1.258754 87.178 108.6739
1.267876 87.053 108.2054
1.277063 86.923 107.7318
1.286318 86.788 107.2528
1.295639 86.646 106.7675
1.305027 86.498 106.2756
1.314484 86.342 105.7762
1.324009 86.178 105.2687
1.333604 86.005 104.7524
1.343268 85.823 104.2267
1.353002 85.631 103.6908
1.362806 85.428 103.1439
1.372681 85.214 102.5855
1.382628 84.987 102.0148
1.392647 84.747 101.4311
1.402739 84.492 100.8339
1.412904 84.223 100.2227
1.423142 83.938 99.5974
1.433455 83.634 98.9579
1.443843 83.311 98.3048
1.454305 82.966 97.6390
1.464844 82.596 96.9617
1.475459 82.198 96.2747
1.486150 81.767 95.5793
1.496920 81.301 94.8764
1.507767 80.800 94.1663
1.518693 80.262 93.4484
1.529698 79.688 92.7218
1.540783 79.080 91.9849
1.551948 78.439 91.2359
1.563194 77.767 90.4723
1.574521 77.067 89.6914
1.585931 76.342 88.8899
1.597423 75.595 88.0638
1.608999 74.829 87.2084
1.620658 74.048 86.3181
1.632402 73.255 85.3862
1.644232 72.454 84.4044
1.656146 71.650 83.3624
1.668147 70.848 82.2477
1.680235 70.052 81.0443
1.692411 69.268 79.7321
1.704675 68.501 78.2847
1.717028 67.759 76.6680
1.729470 67.048 74.8362
1.742003 66.377 72.7275
1.754626 65.752 70.2561
1.767341 65.183 67.3012
1.780147 64.680 63.6880
1.793047 64.253 59.1586
1.806040 63.911 53.3239
1.819128 63.664 45.5963
1.832310 63.519 35.1305
1.845587 63.480 20.9561
1.858961 63.548 2.8145
1.872432 63.721 -17.3038
1.886001 63.994 -35.6918
1.899667 64.359 -50.1926
1.913433 64.809 -60.9746
1.927299 65.333 -69.0062
1.941265 65.923 -75.1484
1.955332 66.570 -79.9963
1.969501 67.262 -83.9370
1.983773 67.992 -87.2221
1.998148 68.748 -90.0180
2.012627 69.524 -92.4380
2.027212 70.308 -94.5610
2.041902 71.093 -96.4430
2.056698 71.870 -98.1253
2.071602 72.631 -99.6383
2.086614 73.367 -101.0054
2.101734 74.071 -102.2450
2.116964 74.736 -103.3720
2.132304 75.356 -104.3997
2.147756 75.926 -105.3409
2.163320 76.444 -106.2094
2.178996 76.908 -107.0209
2.194786 77.320 -107.7936
2.210690 77.685 -108.5469
2.226710 78.008 -109.2986
2.242845 78.294 -110.0615
2.259098 78.548 -110.8432
2.275468 78.772 -111.6462
2.291957 78.969 -112.4696
2.308566 79.140 -113.3103
2.325295 79.288 -114.1637
2.342145 79.415 -115.0246
2.359117 79.521 -115.8873
2.376212 79.608 -116.7456
2.393431 79.679 -117.5932
2.410775 79.734 -118.4237
2.428244 79.777 -119.2304
2.445840 79.808 -120.0070
2.463564 79.829 -120.7468
2.481416 79.843 -121.4442
2.499397 79.851 -122.0942
2.517509 79.853 -122.6941
2.535752 79.851 -123.2436
2.554127 79.843 -123.7463
2.572635 79.828 -124.2094
2.591277 79.804 -124.6423
2.610055 79.769 -125.0538
2.628968 79.722 -125.4503
2.648019 79.661 -125.8351
2.667208 79.586 -126.2088
2.686535 79.499 -126.5695
2.706003 79.399 -126.9138
2.725612 79.287 -127.2366
2.745363 79.166 -127.5313
2.765257 79.034 -127.7904
2.785295 78.895 -128.0048
2.805478 78.750 -128.1643
2.825808 78.598 -128.2575
2.846285 78.442 -128.2721
2.866910 78.282 -128.1948
2.887685 78.117 -128.0124
2.908611 77.947 -127.7117
2.929688 77.770 -127.2808
2.950917 77.583 -126.7087
2.972301 77.384 -125.9853
2.993839 77.172 -125.1002
3.015534 76.946 -124.0428
3.037386 76.709 -122.8022
3.059396 76.464 -121.3671
3.081565 76.214 -119.7274
3.103896 75.966 -117.8748
3.126388 75.726 -115.8046
3.149043 75.498 -113.5170
3.171862 75.291 -111.0187
3.194847 75.111 -108.3246
3.217998 74.966 -105.4572
3.241317 74.864 -102.4461
3.264805 74.811 -99.3249
3.288463 74.813 -96.1283
3.312293 74.871 -92.8901
3.336295 74.986 -89.6450
3.360471 75.155 -86.4320
3.384822 75.374 -83.2944
3.409350 75.636 -80.2767
3.434056 75.935 -77.4196
3.458940 76.261 -74.7571
3.484005 76.609 -72.3137
3.509252 76.969 -70.1046
3.534681 77.334 -68.1366
3.560295 77.699 -66.4095
3.586094 78.057 -64.9175
3.612081 78.406 -63.6506
3.638255 78.743 -62.5953
3.664620 79.070 -61.7358
3.691175 79.387 -61.0543
3.717923 79.698 -60.5320
3.744864 80.004 -60.1501
3.772001 80.305 -59.8908
3.799335 80.603 -59.7371
3.826866 80.895 -59.6737
3.854597 81.180 -59.6868
3.882529 81.458 -59.7645
3.910664 81.726 -59.8970
3.939002 81.982 -60.0769
3.967546 82.225 -60.2993
3.996296 82.455 -60.5622
4.025255 82.669 -60.8659
4.054423 82.869 -61.2123
4.083804 83.054 -61.6024
4.113396 83.225 -62.0346
4.143204 83.382 -62.5043
4.173227 83.526 -63.0042
4.203468 83.658 -63.5255
4.233928 83.779 -64.0589
4.264609 83.890 -64.5954
4.295512 83.990 -65.1271
4.326639 84.082 -65.6483
4.357992 84.163 -66.1560
4.389572 84.236 -66.6505
4.421380 84.299 -67.1348
4.453419 84.351 -67.6125
4.485691 84.394 -68.0856
4.518196 84.426 -68.5532
4.550936 84.448 -69.0115
4.583914 84.462 -69.4543
4.617131 84.468 -69.8743
4.650589 84.468 -70.2633
4.684289 84.461 -70.6133
4.718233 84.448 -70.9178
4.752424 84.430 -71.1723
4.786862 84.406 -71.3749
4.821549 84.376 -71.5257
4.856488 84.341 -71.6256
4.891680 84.300 -71.6758
4.927127 84.255 -71.6769
4.962831 84.208 -71.6288
4.998794 84.161 -71.5307
5.035017 84.114 -71.3812
5.071503 84.071 -71.1783
5.108253 84.032 -70.9195
5.145270 83.997 -70.6024
5.182555 83.967 -70.2259
5.220110 83.942 -69.7920
5.257937 83.921 -69.3061
5.296038 83.906 -68.7770
5.334415 83.898 -68.2158
5.373071 83.898 -67.6344
5.412006 83.906 -67.0444
5.451224 83.925 -66.4552
5.490725 83.954 -65.8733
5.530514 83.995 -65.3029
5.570590 84.047 -64.7471
5.610957 84.109 -64.2110
5.651616 84.181 -63.7019
5.692570 84.260 -63.2290
5.733821 84.345 -62.8021
5.775370 84.435 -62.4304
5.817221 84.528 -62.1213
5.859375 84.625 -61.8792
5.901834 84.725 -61.7052
5.944602 84.827 -61.5984
5.987679 84.931 -61.5562
6.031068 85.035 -61.5758
6.074771 85.139 -61.6546
6.118792 85.240 -61.7905
6.163131 85.338 -61.9824
6.207792 85.430 -62.2296
6.252776 85.517 -62.5314
6.298086 85.599 -62.8859
6.343725 85.675 -63.2893
6.389694 85.744 -63.7351
6.435996 85.808 -64.2156
6.482634 85.865 -64.7230
6.529610 85.916 -65.2507
6.576926 85.959 -65.7942
6.624585 85.995 -66.3510
6.672590 86.024 -66.9196
6.720942 86.046 -67.4974
6.769645 86.061 -68.0798
6.818700 86.071 -68.6604
6.868111 86.075 -69.2323
6.917881 86.075 -69.7896
6.968010 86.071 -70.3277
7.018504 86.062 -70.8444
7.069362 86.051 -71.3390
7.120590 86.036 -71.8105
7.172189 86.021 -72.2579
7.224161 86.005 -72.6792
7.276511 85.990 -73.0726
7.329239 85.977 -73.4362
7.382350 85.966 -73.7698
7.435845 85.959 -74.0749
7.489729 85.956 -74.3550
7.544002 85.957 -74.6152
7.598669 85.964 -74.8607
7.653732 85.978 -75.0965
7.709194 85.998 -75.3262
7.765058 86.026 -75.5532
7.821327 86.062 -75.7816
7.878004 86.104 -76.0170
7.935091 86.154 -76.2661
7.992592 86.210 -76.5351
8.050510 86.272 -76.8293
8.108847 86.340 -77.1519
8.167607 86.413 -77.5046
8.226793 86.491 -77.8884
8.286408 86.572 -78.3041
8.346454 86.656 -78.7528
8.406936 86.742 -79.2350
8.467856 86.829 -79.7503
8.529218 86.916 -80.2968
8.591024 87.003 -80.8712
8.653278 87.090 -81.4692
8.715983 87.175 -82.0865
8.779143 87.259 -82.7193
8.842760 87.340 -83.3641
8.906839 87.419 -84.0173
8.971381 87.496 -84.6743
9.036392 87.571 -85.3299
9.101873 87.643 -85.9788
9.167829 87.713 -86.6168
9.234263 87.782 -87.2407
9.301178 87.849 -87.8478
9.368578 87.915 -88.4355
9.436467 87.981 -89.0013
9.504847 88.046 -89.5429
9.573723 88.112 -90.0589
9.643099 88.178 -90.5491
9.712976 88.246 -91.0139
9.783361 88.315 -91.4545
9.854255 88.386 -91.8721
9.925663 88.459 -92.2681
9.997588 88.535 -92.6441
10.070035 88.613 -93.0026
10.143007 88.693 -93.3463
10.216507 88.775 -93.6779
10.290540 88.860 -93.9999
10.365109 88.946 -94.3141
10.440219 89.034 -94.6222
10.515873 89.123 -94.9258
10.592076 89.213 -95.2263
10.668830 89.303 -95.5246
10.746141 89.393 -95.8209
10.824012 89.483 -96.1152
10.902447 89.572 -96.4069
10.981451 89.660 -96.6954
11.061027 89.747 -96.9800
11.141180 89.832 -97.2599
11.221913 89.916 -97.5340
11.303232 89.998 -97.8014
11.385140 90.078 -98.0610
11.467641 90.157 -98.3125
11.550741 90.234 -98.5553
11.634442 90.310 -98.7895
11.718750 90.385 -99.0150
11.803669 90.458 -99.2322
11.889203 90.530 -99.4416
11.975357 90.601 -99.6441
12.062136 90.670 -99.8407
12.149543 90.739 -100.0324
12.237583 90.806 -100.2201
12.326262 90.872 -100.4047
12.415583 90.937 -100.5872
12.505552 91.000 -100.7683
12.596172 91.061 -100.9485
12.687449 91.121 -101.1283
12.779387 91.180 -101.3078
12.871992 91.236 -101.4872
12.965268 91.291 -101.6666
13.059220 91.344 -101.8460
13.153852 91.396 -102.0255
13.249170 91.445 -102.2052
13.345179 91.494 -102.3854
13.441884 91.541 -102.5668
13.539289 91.587 -102.7500
13.637401 91.632 -102.9359
13.736223 91.676 -103.1257
13.835761 91.719 -103.3204
13.936021 91.761 -103.5216
14.037007 91.802 -103.7303
14.138725 91.843 -103.9478
14.241180 91.883 -104.1750
14.344377 91.922 -104.4127
14.448323 91.960 -104.6611
14.553021 91.996 -104.9205
14.658478 92.032 -105.1904
14.764700 92.066 -105.4704
14.871691 92.099 -105.7597
14.979457 92.131 -106.0571
15.088005 92.162 -106.3618
15.197339 92.192 -106.6728
15.307465 92.222 -106.9894
15.418389 92.251 -107.3108
15.530117 92.280 -107.6370
15.642655 92.310 -107.9681
15.756008 92.340 -108.3044
15.870182 92.371 -108.6466
15.985184 92.403 -108.9957
16.101019 92.437 -109.3524
16.217694 92.471 -109.7177
16.335214 92.506 -110.0920
16.453586 92.543 -110.4756
16.572815 92.580 -110.8684
16.692909 92.618 -111.2696
16.813872 92.656 -111.6781
16.935713 92.694 -112.0923
17.058436 92.733 -112.5104
17.182048 92.772 -112.9302
17.306556 92.811 -113.3496
17.431967 92.851 -113.7666
17.558286 92.891 -114.1795
17.685521 92.931 -114.5867
17.813677 92.973 -114.9873
17.942762 93.015 -115.3808
18.072783 93.059 -115.7668
18.203746 93.104 -116.1457
18.335658 93.149 -116.5176
18.468526 93.196 -116.8830
18.602356 93.244 -117.2424
18.737156 93.292 -117.5960
18.872934 93.341 -117.9440
19.009695 93.391 -118.2864
19.147447 93.440 -118.6230
19.286197 93.490 -118.9535
19.425953 93.539 -119.2778
19.566721 93.588 -119.5957
19.708510 93.636 -119.9074
19.851326 93.684 -120.2129
19.995177 93.731 -120.5126
20.140070 93.777 -120.8072
20.286013 93.822 -121.0970
20.433014 93.867 -121.3826
20.581080 93.909 -121.6643
20.730219 93.951 -121.9424
20.880439 93.990 -122.2168
21.031747 94.028 -122.4873
21.184152 94.064 -122.7537
21.337661 94.098 -123.0158
21.492282 94.131 -123.2734
21.648024 94.161 -123.5270
21.804895 94.191 -123.7771
21.962902 94.219 -124.0246
22.122054 94.247 -124.2709
22.282360 94.273 -124.5176
22.443827 94.299 -124.7662
22.606464 94.324 -125.0184
22.770280 94.348 -125.2754
22.935283 94.371 -125.5381
23.101481 94.394 -125.8074
23.268884 94.416 -126.0835
23.437500 94.437 -126.3664
23.607338 94.458 -126.6561
23.778406 94.478 -126.9527
23.950714 94.498 -127.2562
24.124271 94.518 -127.5669
24.299086 94.539 -127.8852
24.475167 94.559 -128.2116
24.652524 94.580 -128.5464
24.831166 94.601 -128.8899
25.011103 94.622 -129.2417
25.192344 94.643 -129.6010
25.374898 94.664 -129.9668
25.558775 94.685 -130.3371
25.743984 94.705 -130.7099
25.930536 94.725 -131.0827
26.118439 94.745 -131.4531
26.307704 94.765 -131.8186
26.498341 94.785 -132.1770
26.690359 94.805 -132.5267
26.883768 94.825 -132.8665
27.078579 94.846 -133.1957
27.274801 94.868 -133.5143
27.472446 94.891 -133.8231
27.671522 94.915 -134.1230
27.872042 94.940 -134.4155
28.074014 94.966 -134.7023
28.277450 94.992 -134.9848
28.482360 95.019 -135.2645
28.688755 95.045 -135.5422
28.896645 95.072 -135.8184
29.106042 95.097 -136.0934
29.316957 95.122 -136.3671
29.529400 95.146 -136.6393
29.743382 95.169 -136.9100
29.958915 95.191 -137.1793
30.176009 95.211 -137.4477
30.394677 95.230 -137.7155
30.614929 95.249 -137.9836
30.836778 95.266 -138.2526
31.060234 95.282 -138.5229
31.285309 95.297 -138.7953
31.512015 95.311 -139.0699
31.740364 95.324 -139.3473
31.970368 95.336 -139.6279
32.202039 95.348 -139.9121
32.435388 95.359 -140.2004
32.670428 95.370 -140.4931
32.907171 95.381 -140.7906
33.145630 95.391 -141.0927
33.385817 95.402 -141.3992
33.627745 95.412 -141.7096
33.871425 95.422 -142.0234
34.116871 95.432 -142.3397
34.364096 95.441 -142.6575
34.613113 95.451 -142.9757
34.863934 95.460 -143.2931
35.116572 95.470 -143.6085
35.371041 95.479 -143.9204
35.627354 95.488 -144.2279
35.885525 95.497 -144.5301
36.145566 95.506 -144.8264
36.407492 95.516 -145.1167
36.671316 95.525 -145.4009
36.937051 95.534 -145.6793
37.204712 95.543 -145.9522
37.474313 95.552 -146.2200
37.745867 95.561 -146.4835
38.019389 95.570 -146.7434
38.294893 95.579 -147.0009
38.572394 95.587 -147.2570
38.851905 95.595 -147.5124
39.133442 95.602 -147.7676
39.417019 95.608 -148.0226
39.702651 95.614 -148.2774
39.990353 95.619 -148.5317
40.280140 95.623 -148.7856
40.572026 95.627 -149.0394
40.866028 95.630 -149.2937
41.162160 95.633 -149.5489
41.460438 95.635 -149.8054
41.760877 95.637 -150.0629
42.063494 95.639 -150.3209
42.368303 95.640 -150.5788
42.675322 95.640 -150.8358
42.984565 95.641 -151.0915
43.296048 95.641 -151.3457
43.609789 95.641 -151.5986
43.925804 95.641 -151.8501
44.244108 95.640 -152.1003
44.564719 95.640 -152.3493
44.887654 95.639 -152.5969
45.212928 95.638 -152.8432
45.540560 95.637 -153.0883
45.870565 95.636 -153.3324
46.202962 95.634 -153.5756
46.537768 95.632 -153.8181
46.875000 95.629 -154.0599
47.214676 95.626 -154.3007
47.556813 95.624 -154.5403
47.901429 95.620 -154.7784
48.248542 95.617 -155.0151
48.598171 95.614 -155.2507
48.950334 95.612 -155.4857
49.305048 95.609 -155.7205
49.662333 95.607 -155.9557
50.022206 95.605 -156.1916
50.384688 95.603 -156.4282
50.749796 95.602 -156.6654
51.117550 95.600 -156.9027
51.487969 95.598 -157.1396
51.861072 95.596 -157.3752
52.236879 95.594 -157.6086
52.615409 95.591 -157.8391
52.996681 95.589 -158.0663
53.380717 95.586 -158.2900
53.767536 95.583 -158.5107
54.157158 95.580 -158.7287
54.549603 95.577 -158.9448
54.944892 95.574 -159.1595
55.343045 95.571 -159.3735
55.744084 95.568 -159.5877
56.148028 95.565 -159.8030
56.554900 95.561 -160.0199
56.964720 95.558 -160.2384
57.377510 95.553 -160.4577
57.793291 95.548 -160.6769
58.212085 95.543 -160.8949
58.633914 95.537 -161.1111
59.058799 95.530 -161.3250
59.486764 95.523 -161.5366
59.917829 95.515 -161.7460
60.352019 95.507 -161.9533
60.789354 95.498 -162.1592
61.229859 95.489 -162.3644
61.673556 95.480 -162.5696
62.120468 95.470 -162.7749
62.570618 95.459 -162.9806
63.024031 95.448 -163.1862
63.480729 95.436 -163.3913
63.940736 95.424 -163.5954
64.404077 95.412 -163.7979
64.870776 95.400 -163.9985
65.340856 95.388 -164.1970
65.814343 95.376 -164.3937
66.291261 95.364 -164.5887
66.771635 95.353 -164.7821
67.255489 95.341 -164.9740
67.742850 95.329 -165.1641
68.233743 95.318 -165.3520
68.728193 95.306 -165.5375
69.226226 95.293 -165.7207
69.727867 95.281 -165.9023
70.233144 95.268 -166.0831
70.742083 95.255 -166.2637
71.254709 95.241 -166.4443
71.771050 95.228 -166.6242
72.291132 95.213 -166.8027
72.814984 95.199 -166.9793
73.342631 95.185 -167.1537
73.874102 95.171 -167.3258
74.409424 95.158 -167.4954
74.948626 95.144 -167.6625
75.491734 95.131 -167.8270
76.038779 95.118 -167.9889
76.589787 95.105 -168.1482
77.144788 95.093 -168.3051
77.703811 95.080 -168.4604
78.266885 95.067 -168.6161
78.834039 95.054 -168.7744
79.405303 95.041 -168.9377
79.980706 95.027 -169.1077
80.560280 95.013 -169.2852
81.144053 94.997 -169.4697
81.732056 94.980 -169.6602
82.324320 94.962 -169.8549
82.920876 94.942 -170.0518
83.521755 94.920 -170.2484
84.126988 94.897 -170.4419
84.736607 94.872 -170.6288
85.350643 94.845 -170.8051
85.969129 94.818 -170.9678
86.592097 94.790 -171.1160
87.219579 94.764 -171.2515
87.851608 94.738 -171.3781
88.488217 94.713 -171.4992
89.129439 94.688 -171.6172
89.775308 94.665 -171.7338
90.425856 94.641 -171.8500
91.081119 94.618 -171.9655
91.741131 94.595 -172.0795
92.405925 94.571 -172.1912
93.075536 94.547 -172.2998
93.750000 94.522 -172.4048
94.429351 94.498 -172.5066
95.113625 94.472 -172.6059
95.802858 94.447 -172.7037
96.497085 94.422 -172.8004
97.196342 94.396 -172.8961
97.900667 94.370 -172.9902
98.610096 94.344 -173.0810
99.324665 94.318 -173.1676
100.044413 94.292 -173.2499
100.769376 94.265 -173.3274
101.499592 94.239 -173.3999
102.235100 94.213 -173.4676
102.975938 94.187 -173.5315
103.722144 94.161 -173.5925
104.473757 94.134 -173.6531
105.230817 94.108 -173.7152
105.993363 94.081 -173.7786
106.761435 94.054 -173.8416
107.535072 94.027 -173.9031
108.314315 94.000 -173.9617
109.099206 93.972 -174.0153
109.889783 93.944 -174.0624
110.686090 93.916 -174.1022
111.488167 93.887 -174.1344
112.296056 93.857 -174.1597
113.109800 93.826 -174.1805
113.929440 93.794 -174.1985
114.755020 93.760 -174.2134
115.586582 93.726 -174.2244
116.424170 93.691 -174.2305
117.267827 93.656 -174.2283
118.117598 93.623 -174.2135
118.973527 93.594 -174.1841
119.835658 93.568 -174.1425
120.704037 93.548 -174.0956
121.578708 93.532 -174.0534
122.459718 93.519 -174.0235
123.347111 93.507 -174.0078
124.240935 93.495 -174.0036
125.141236 93.481 -174.0085
126.048061 93.465 -174.0220
126.961458 93.447 -174.0420
127.881473 93.427 -174.0658
128.808154 93.407 -174.0931
129.741551 93.387 -174.1255
130.681712 93.366 -174.1615
131.628686 93.345 -174.1972
132.582521 93.323 -174.2302
133.543269 93.299 -174.2602
134.510979 93.275 -174.2855
135.485701 93.250 -174.3053
136.467486 93.224 -174.3221
137.456386 93.197 -174.3393
138.452451 93.169 -174.3566
139.455735 93.141 -174.3712
140.466288 93.113 -174.3817
141.484165 93.084 -174.3890
142.509418 93.055 -174.3927
143.542100 93.025 -174.3916
144.582265 92.995 -174.3869
145.629968 92.965 -174.3817
146.685262 92.933 -174.3765
147.748204 92.901 -174.3674
148.818849 92.868 -174.3507
149.897251 92.834 -174.3255
150.983469 92.800 -174.2912
152.077557 92.765 -174.2443
153.179574 92.729 -174.1814
154.289576 92.693 -174.1042
155.407622 92.659 -174.0199
156.533770 92.625 -173.9358
157.668078 92.593 -173.8557
158.810606 92.561 -173.7812
159.961413 92.531 -173.7143
161.120559 92.502 -173.6569
162.288105 92.473 -173.6073
163.464112 92.443 -173.5597
164.648640 92.412 -173.5072
165.841752 92.379 -173.4459
167.043510 92.346 -173.3753
168.253976 92.311 -173.2962
169.473213 92.276 -173.2084
170.701286 92.239 -173.1109
171.938258 92.202 -173.0042
173.184194 92.166 -172.8909
174.439158 92.131 -172.7749
175.703216 92.097 -172.6582
176.976434 92.064 -172.5401
178.258878 92.032 -172.4182
179.550615 92.001 -172.2901
180.851713 91.970 -172.1546
182.162239 91.939 -172.0127
183.482262 91.909 -171.8673
184.811850 91.878 -171.7225
186.151073 91.847 -171.5812
187.500000 91.816 -171.4440
188.858702 91.785 -171.3084
190.227250 91.754 -171.1708
191.605715 91.724 -171.0293
192.994169 91.694 -170.8851
194.392685 91.666 -170.7412
195.801334 91.637 -170.5999
197.220191 91.609 -170.4609
198.649330 91.580 -170.3221
200.088825 91.552 -170.1817
201.538751 91.525 -170.0400
202.999184 91.498 -169.8999
204.470200 91.473 -169.7660
205.951875 91.448 -169.6418
207.444287 91.422 -169.5279
208.947514 91.395 -169.4215
210.461634 91.365 -169.3172
211.986726 91.333 -169.2098
213.522869 91.299 -169.0947
215.070144 91.263 -168.9673
216.628631 91.225 -168.8235
218.198411 91.187 -168.6601
219.779567 91.149 -168.4758
221.372180 91.113 -168.2721
222.976334 91.079 -168.0537
224.592112 91.046 -167.8262
226.219600 91.015 -167.5945
227.858880 90.984 -167.3625
229.510039 90.954 -167.1320
231.173164 90.923 -166.9034
232.848340 90.891 -166.6764
234.535655 90.859 -166.4509
236.235197 90.825 -166.2273
237.947054 90.789 -166.0066
239.671317 90.753 -165.7889
241.408074 90.715 -165.5730
243.157416 90.676 -165.3570
244.919435 90.636 -165.1388
246.694223 90.596 -164.9163
248.481871 90.554 -164.6868
250.282473 90.513 -164.4471
252.096123 90.474 -164.1946
253.922915 90.436 -163.9297
255.762945 90.401 -163.6571
257.616309 90.370 -163.3854
259.483103 90.341 -163.1233
261.363424 90.312 -162.8744
263.257372 90.284 -162.6357
265.165043 90.254 -162.3996
267.086538 90.221 -162.1578
269.021957 90.188 -161.9042
270.971401 90.152 -161.6359
272.934972 90.116 -161.3538
274.912771 90.081 -161.0609
276.904902 90.046 -160.7604
278.911469 90.013 -160.4547
280.932577 89.981 -160.1449
282.968330 89.952 -159.8334
285.018835 89.925 -159.5253
287.084199 89.899 -159.2280
289.164530 89.874 -158.9487
291.259935 89.848 -158.6894
293.370525 89.819 -158.4446
295.496408 89.788 -158.2038
297.637697 89.755 -157.9566
299.794503 89.719 -157.6965
301.966937 89.683 -157.4213
304.155114 89.646 -157.1322
306.359147 89.610 -156.8320
308.579152 89.573 -156.5246
310.815244 89.537 -156.2132
313.067539 89.501 -155.8995
315.336156 89.464 -155.5822
317.621211 89.427 -155.2573
319.922826 89.388 -154.9204
322.241118 89.349 -154.5692
324.576210 89.311 -154.2051
326.928223 89.274 -153.8315
329.297280 89.238 -153.4524
331.683504 89.203 -153.0709
334.087019 89.169 -152.6888
336.507952 89.135 -152.3074
338.946427 89.101 -151.9266
341.402572 89.066 -151.5453
343.876516 89.031 -151.1613
346.368387 88.995 -150.7718
348.878315 88.959 -150.3753
351.406431 88.922 -149.9710
353.952867 88.885 -149.5593
356.517756 88.849 -149.1409
359.101230 88.813 -148.7168
361.703426 88.777 -148.2876
364.324478 88.741 -147.8535
366.964523 88.706 -147.4137
369.623699 88.671 -146.9673
372.302145 88.637 -146.5128
375.000000 88.603 -146.0492
377.717405 88.570 -145.5764
380.454501 88.539 -145.0946
383.211431 88.508 -144.6043
385.988339 88.478 -144.1051
388.785369 88.450 -143.5970
391.602668 88.423 -143.0811
394.440383 88.397 -142.5594
397.298660 88.373 -142.0355
400.177650 88.351 -141.5131
403.077502 88.331 -140.9958
405.998368 88.312 -140.4864
408.940400 88.293 -139.9857
411.903750 88.275 -139.4924
414.888575 88.257 -139.0034
417.895028 88.239 -138.5157
420.923268 88.221 -138.0275
423.973452 88.204 -137.5383
427.045738 88.187 -137.0497
430.140287 88.172 -136.5647
433.257261 88.158 -136.0868
436.396822 88.144 -135.6172
439.559133 88.130 -135.1543
442.744360 88.115 -134.6954
445.952668 88.100 -134.2396
449.184225 88.086 -133.7897
452.439199 88.070 -133.3502
455.717760 88.053 -132.9234
459.020079 88.033 -132.5053
462.346327 88.009 -132.0856
465.696680 87.982 -131.6530
469.071310 87.952 -131.2011
472.470394 87.922 -130.7288
475.894109 87.891 -130.2395
479.342634 87.862 -129.7390
482.816148 87.832 -129.2328
486.314833 87.803 -128.7229
489.838871 87.773 -128.2051
493.388445 87.742 -127.6710
496.963741 87.711 -127.1167
500.564945 87.682 -126.5459
504.192245 87.655 -125.9674
507.845830 87.629 -125.3889
511.525890 87.604 -124.8139
515.232618 87.580 -124.2413
518.966206 87.554 -123.6669
522.726849 87.529 -123.0857
526.514743 87.503 -122.4930
530.330086 87.478 -121.8872
534.173076 87.453 -121.2712
538.043915 87.430 -120.6501
541.942803 87.408 -120.0268
545.869944 87.386 -119.4005
549.825542 87.365 -118.7704
553.809805 87.346 -118.1379
557.822939 87.326 -117.5058
561.865154 87.308 -116.8758
565.936660 87.289 -116.2471
570.037671 87.270 -115.6164
574.168399 87.250 -114.9800
578.329060 87.231 -114.3362
582.519870 87.211 -113.6853
586.741049 87.191 -113.0276
590.992817 87.171 -112.3614
595.275394 87.151 -111.6841
599.589005 87.132 -110.9967
603.933874 87.114 -110.3032
608.310228 87.097 -109.6074
612.718295 87.080 -108.9106
617.158304 87.063 -108.2099
621.630488 87.046 -107.4993
626.135079 87.028 -106.7722
630.672311 87.013 -106.0268
635.242423 86.999 -105.2682
639.845651 86.987 -104.5030
644.482237 86.977 -103.7335
649.152421 86.969 -102.9582
653.856447 86.964 -102.1783
658.594560 86.962 -101.4009
663.367008 86.963 -100.6368
668.174039 86.965 -99.8943
673.015903 86.967 -99.1727
677.892854 86.967 -98.4639
682.805145 86.965 -97.7582
687.753032 86.961 -97.0482
692.736774 86.956 -96.3279
697.756631 86.949 -95.5929
702.812863 86.943 -94.8420
707.905735 86.937 -94.0781
713.035511 86.933 -93.3059
718.202461 86.929 -92.5287
723.406852 86.926 -91.7472
728.648956 86.924 -90.9601
733.929047 86.923 -90.1661
739.247399 86.922 -89.3641
744.604290 86.922 -88.5536
750.000000 86.922 -87.7345
755.434809 86.924 -86.9074
760.909001 86.927 -86.0733
766.422861 86.931 -85.2331
771.976677 86.937 -84.3875
777.570739 86.944 -83.5368
783.205337 86.952 -82.6810
788.880766 86.962 -81.8188
794.597321 86.973 -80.9473
800.355301 86.985 -80.0645
806.155005 87.001 -79.1717
811.996736 87.021 -78.2749
817.880799 87.044 -77.3830
823.807501 87.070 -76.5059
829.777150 87.098 -75.6519
835.790057 87.127 -74.8229
841.846536 87.155 -74.0118
847.946903 87.181 -73.2078
854.091476 87.205 -72.4028
860.280575 87.229 -71.5927
866.514523 87.252 -70.7742
872.793644 87.276 -69.9438
879.118267 87.300 -69.1019
885.488720 87.326 -68.2530
891.905336 87.354 -67.4013
898.368450 87.382 -66.5472
904.878398 87.412 -65.6889
911.435520 87.443 -64.8254
918.040157 87.476 -63.9588
924.692655 87.511 -63.0920
931.393359 87.549 -62.2288
938.142619 87.588 -61.3732
944.940787 87.629 -60.5275
951.788218 87.671 -59.6911
958.685268 87.713 -58.8620
965.632296 87.756 -58.0383
972.629666 87.799 -57.2179
979.677741 87.844 -56.4005
986.776890 87.889 -55.5878
993.927482 87.934 -54.7807
1001.129891 87.981 -53.9777
1008.384491 88.029 -53.1778
1015.691660 88.078 -52.3843
1023.051781 88.129 -51.6031
1030.465236 88.181 -50.8396
1037.932411 88.231 -50.0981
1045.453698 88.280 -49.3768
1053.029486 88.324 -48.6617
1060.660172 88.364 -47.9314
1068.346153 88.403 -47.1707
1076.087829 88.442 -46.3777
1083.885605 88.484 -45.5587
1091.739887 88.530 -44.7209
1099.651084 88.581 -43.8729
1107.619609 88.636 -43.0282
1115.645878 88.697 -42.2023
1123.730308 88.760 -41.4059
1131.873321 88.824 -40.6411
1140.075341 88.888 -39.9032
1148.336797 88.951 -39.1846
1156.658119 89.012 -38.4777
1165.039741 89.073 -37.7757
1173.482099 89.133 -37.0731
1181.985634 89.194 -36.3676
1190.550789 89.256 -35.6641
1199.178011 89.321 -34.9732
1207.867749 89.387 -34.3070
1216.620457 89.452 -33.6712
1225.436590 89.515 -33.0618
1234.316609 89.575 -32.4699
1243.260976 89.632 -31.8862
1252.270157 89.685 -31.3026
1261.344623 89.736 -30.7147
1270.484846 89.786 -30.1212
1279.691303 89.833 -29.5205
1288.964474 89.880 -28.9110
1298.304842 89.926 -28.2931
1307.712894 89.972 -27.6695
1317.189120 90.018 -27.0439
1326.734016 90.064 -26.4184
1336.348077 90.108 -25.7923
1346.031806 90.151 -25.1626
1355.785708 90.193 -24.5257
1365.610290 90.234 -23.8776
1375.506065 90.274 -23.2132
1385.473549 90.315 -22.5271
1395.513261 90.357 -21.8183
1405.625726 90.402 -21.0925
1415.811469 90.452 -20.3621
1426.071023 90.505 -19.6423
1436.404921 90.560 -18.9428
1446.813703 90.615 -18.2641
1457.297912 90.670 -17.6008
1467.858093 90.723 -16.9462
1478.494798 90.775 -16.2954
1489.208581 90.826 -15.6446
1500.000000 90.876 -14.9904
1510.869618 90.926 -14.3296
1521.818002 90.975 -13.6590
1532.845723 91.024 -12.9761
1543.953355 91.074 -12.2791
1555.141477 91.126 -11.5677
1566.410674 91.181 -10.8463
1577.761531 91.240 -10.1264
1589.194642 91.303 -9.4223
1600.710601 91.367 -8.7434
1612.310010 91.432 -8.0906
1623.993473 91.495 -7.4581
1635.761599 91.557 -6.8384
1647.615002 91.617 -6.2249
1659.554299 91.676 -5.6128
1671.580114 91.734 -4.9986
1683.693072 91.792 -4.3816
1695.893807 91.850 -3.7637
1708.182952 91.907 -3.1468
1720.561150 91.963 -2.5307
1733.029045 92.019 -1.9124
1745.587288 92.073 -1.2865
1758.236533 92.127 -0.6462
1770.977440 92.182 0.0142
1783.810673 92.240 0.6938
1796.736900 92.301 1.3830
1809.756796 92.367 2.0667
1822.871040 92.436 2.7332
1836.080315 92.506 3.3785
1849.385310 92.577 4.0041
1862.786718 92.648 4.6135
1876.285239 92.718 5.2116
1889.881575 92.787 5.8039
1903.576436 92.856 6.3967
1917.370535 92.924 6.9952
1931.264593 92.994 7.6028
1945.259332 93.066 8.2176
1959.355483 93.142 8.8298
1973.553781 93.222 9.4247
1987.854965 93.305 9.9915
2002.259781 93.388 10.5266
2016.768981 93.471 11.0329
2031.383320 93.552 11.5154
2046.103561 93.632 11.9797
2060.930471 93.710 12.4297
2075.864823 93.788 12.8668
2090.907395 93.863 13.2908
2106.058972 93.937 13.7037
2121.320344 94.009 14.1108
2136.692305 94.078 14.5217
2152.175658 94.146 14.9455
2167.771210 94.215 15.3849
2183.479774 94.286 15.8324
2199.302169 94.360 16.2743
2215.239219 94.436 16.6996
2231.291755 94.514 17.1036
2247.460615 94.591 17.4871
2263.746641 94.669 17.8550
2280.150683 94.745 18.2145
2296.673595 94.821 18.5732
2313.316238 94.897 18.9362
2330.079481 94.977 19.3025
2346.964198 95.061 19.6619
2363.971268 95.149 19.9993
2381.101578 95.242 20.3003
2398.356022 95.338 20.5547
2415.735498 95.436 20.7554
2433.240913 95.534 20.8968
2450.873180 95.632 20.9729
2468.633217 95.729 20.9775
2486.521951 95.820 20.9071
2504.540314 95.905 20.7646
2522.689246 95.981 20.5611
2540.969692 96.046 20.3127
2559.382606 96.101 20.0344
2577.928947 96.146 19.7375
2596.609683 96.179 19.4322
2615.425787 96.203 19.1303
2634.378241 96.216 18.8450
2653.468031 96.220 18.5897
2672.696154 96.216 18.3773
2692.063613 96.205 18.2182
2711.571415 96.192 18.1162
2731.220579 96.178 18.0650
2751.012130 96.165 18.0506
2770.947098 96.153 18.0577
2791.026522 96.143 18.0744
2811.251451 96.132 18.0934
2831.622938 96.120 18.1108
2852.142045 96.107 18.1249
2872.809842 96.091 18.1367
2893.627406 96.071 18.1520
2914.595823 96.048 18.1813
2935.716186 96.021 18.2341
2956.989596 95.992 18.3133
2978.417161 95.963 18.4149
3000.000000 95.932 18.5328
3021.739237 95.901 18.6630
3043.636005 95.868 18.8059
3065.691446 95.832 18.9678
3087.906710 95.795 19.1573
3110.282955 95.757 19.3787
3132.821347 95.721 19.6285
3155.523062 95.687 19.8978
3178.389283 95.655 20.1772
3201.421202 95.624 20.4594
3224.620020 95.594 20.7397
3247.986946 95.564 21.0153
3271.523198 95.533 21.2882
3295.230004 95.499 21.5662
3319.108599 95.464 21.8598
3343.160228 95.427 22.1751
3367.386145 95.390 22.5118
3391.787613 95.353 22.8659
3416.365904 95.317 23.2342
3441.122300 95.280 23.6185
3466.058091 95.242 24.0261
3491.174576 95.205 24.4645
3516.473066 95.170 24.9345
3541.954880 95.139 25.4302
3567.621345 95.112 25.9416
3593.473800 95.089 26.4580
3619.513592 95.070 26.9694
3645.742080 95.053 27.4690
3672.160630 95.037 27.9563
3698.770620 95.022 28.4383
3725.573436 95.008 28.9228
3752.570477 94.994 29.4124
3779.763150 94.982 29.9054
3807.152872 94.971 30.3992
3834.741071 94.960 30.8963
3862.529185 94.949 31.4044
3890.518664 94.940 31.9309
3918.710966 94.935 32.4766
3947.107561 94.933 33.0351
3975.709929 94.937 33.5957
4004.519563 94.946 34.1458
4033.537962 94.960 34.6740
4062.766641 94.976 35.1758
4092.207123 94.994 35.6542
4121.860942 95.013 36.1136
4151.729646 95.033 36.5550
4181.814790 95.055 36.9761
4212.117944 95.077 37.3770
4242.640687 95.099 37.7640
4273.384610 95.120 38.1464
4304.351317 95.143 38.5293
4335.542421 95.168 38.9107
4366.959549 95.196 39.2820
4398.604338 95.227 39.6309
4430.478438 95.260 39.9468
4462.583511 95.293 40.2280
4494.921231 95.324 40.4840
4527.493283 95.351 40.7308
4560.301365 95.374 40.9891
4593.347189 95.394 41.2853
4626.632476 95.412 41.6484
4660.158962 95.435 42.0940
4693.928395 95.469 42.6019
4727.942535 95.519 43.1109
4762.203156 95.583 43.5437
4796.712043 95.659 43.8412
4831.470996 95.740 43.9812
4866.481826 95.818 43.9757
4901.746360 95.892 43.8529
4937.266434 95.958 43.6413
4973.043902 96.015 43.3626
5009.080628 96.064 43.0349
5045.378492 96.103 42.6766
5081.939384 96.133 42.3043
5118.765212 96.155 41.9293
5155.857894 96.171 41.5559
5193.219366 96.183 41.1811
5230.851574 96.189 40.7995
5268.756481 96.190 40.4088
5306.936062 96.187 40.0085
5345.392309 96.177 39.5982
5384.127225 96.161 39.1789
5423.142830 96.138 38.7582
5462.441159 96.105 38.3505
5502.024259 96.065 37.9732
5541.894195 96.018 37.6421
5582.053045 95.967 37.3665
5622.502902 95.914 37.1493
5663.245876 95.862 36.9864
5704.284090 95.814 36.8624
5745.619684 95.770 36.7494
5787.254813 95.728 36.6212
5829.191647 95.684 36.4732
5871.432373 95.635 36.3239
5913.979192 95.579 36.2014
5956.834323 95.520 36.1277
6000.000000 95.458 36.1131
6043.478473 95.398 36.1585
6087.272010 95.340 36.2595
6131.382892 95.287 36.4074
6175.813420 95.238 36.5922
6220.565910 95.195 36.8071
6265.642695 95.156 37.0519
6311.046124 95.121 37.3304
6356.778566 95.093 37.6465
6402.842404 95.071 38.0005
6449.240040 95.058 38.3900
6495.973891 95.054 38.8093
6543.046396 95.061 39.2493
6590.460007 95.079 39.7010
6638.217197 95.108 40.1598
6686.320456 95.148 40.6261
6734.772290 95.199 41.1020
6783.575226 95.264 41.5868
6832.731809 95.343 42.0767
6882.244600 95.440 42.5632
6932.116181 95.555 43.0326
6982.349153 95.690 43.4691
7032.946133 95.844 43.8589
7083.909760 96.018 44.1919
7135.242690 96.214 44.4585
7186.947600 96.433 44.6462
7239.027185 96.676 44.7369
7291.484160 96.946 44.7049
7344.321260 97.243 44.5150
7397.541239 97.568 44.1267
7451.146872 97.917 43.4973
7505.140954 98.291 42.5819
7559.526299 98.684 41.3296
7614.305743 99.094 39.6823
7669.482141 99.512 37.5747
7725.058371 99.930 34.9351
7781.037328 100.336 31.6929
7837.421932 100.713 27.7902
7894.215122 101.046 23.1923
7951.419859 101.318 17.8977
8009.039125 101.515 11.9478
8067.075924 101.624 5.4359
8125.533282 101.633 -1.4897
8184.414245 101.537 -8.6321
8243.721885 101.331 -15.7648
8303.459292 101.018 -22.6611
8363.629581 100.603 -29.1256
8424.235888 100.100 -35.0149
8485.281374 99.522 -40.2471
8546.769221 98.889 -44.7984
8608.702634 98.219 -48.6908
8671.084842 97.528 -51.9752
8733.919097 96.832 -54.7166
8797.208675 96.142 -56.9834
8860.956876 95.468 -58.8423
8925.167022 94.819 -60.3597
8989.842461 94.200 -61.6025
9054.986566 93.614 -62.6354
9120.602731 93.063 -63.5159
9186.694378 92.546 -64.2901
9253.264952 92.060 -64.9907
9320.317925 91.602 -65.6424
9387.856790 91.172 -66.2661
9455.885071 90.766 -66.8795
9524.406312 90.382 -67.4919
9593.424086 90.020 -68.1019
9662.941992 89.679 -68.7029
9732.963653 89.365 -69.3007
9803.492719 89.081 -69.9330
9874.532869 88.829 -70.6642
9946.087805 88.601 -71.5535
10018.161257 88.385 -72.6273
10090.756983 88.171 -73.8778
10163.878768 87.952 -75.2784
10237.530423 87.726 -76.8027
10311.715789 87.494 -78.4363
10386.438732 87.253 -80.1764
10461.703149 87.003 -82.0200
10537.512962 86.739 -83.9557
10613.872125 86.459 -85.9639
10690.784618 86.161 -88.0214
10768.254450 85.841 -90.1041
10846.285661 85.500 -92.1856
10924.882318 85.136 -94.2368
11004.048518 84.751 -96.2308
11083.788390 84.348 -98.1470
11164.106090 83.928 -99.9718
11245.005805 83.495 -101.6935
11326.491752 83.050 -103.2990
11408.568180 82.595 -104.7766
11491.239368 82.135 -106.1201
11574.509626 81.672 -107.3301
11658.383294 81.209 -108.4096
11742.864745 80.747 -109.3601
11827.958384 80.290 -110.1820
11913.668646 79.841 -110.8809
12000.000000 79.402 -111.4696
12086.956947 78.977 -111.9654
12174.544019 78.569 -112.3874
12262.765784 78.177 -112.7553
12351.626840 77.802 -113.0890
12441.131819 77.444 -113.4023
12531.285389 77.100 -113.6989
12622.092249 76.769 -113.9736
12713.557132 76.452 -114.2211
12805.684808 76.151 -114.4430
12898.480079 75.866 -114.6464
12991.947783 75.600 -114.8399
13086.092792 75.353 -115.0330
13180.920015 75.127 -115.2392
13276.434395 74.923 -115.4756
13372.640911 74.741 -115.7572
13469.544580 74.582 -116.0956
13567.150452 74.447 -116.5042
13665.463617 74.335 -117.0019
13764.489200 74.246 -117.6078
13864.232362 74.178 -118.3349
13964.698305 74.129 -119.1902
14065.892266 74.100 -120.1765
14167.819519 74.090 -121.2907
14270.485380 74.103 -122.5273
14373.895200 74.147 -123.8961
14478.054370 74.230 -125.4527
14582.968320 74.353 -127.3141
14688.642520 74.499 -129.6289
14795.082478 74.631 -132.4780
14902.293745 74.705 -135.7677
15010.281908 74.693 -139.2199
15119.052599 74.605 -142.4574
15228.611486 74.490 -145.1023
15338.964283 74.444 -146.8896
15450.116741 74.590 -147.8428
15562.074656 75.019 -148.4587
15674.843864 75.725 -149.6628
15788.430244 76.595 -152.3947
15902.839718 77.477 -157.1549
16018.078250 78.243 -163.9077
16134.151848 78.818 -172.2735
16251.066563 79.169 178.2432
16368.828491 79.294 168.1039
16487.443769 79.209 157.6698
16606.918584 78.932 147.1998
16727.259161 78.475 136.8930
16848.471777 77.843 126.9517
16970.562748 77.031 117.6430
17093.538442 76.032 109.3459
17217.405268 74.854 102.5440
17342.169684 73.532 97.6983
17467.838194 72.145 94.9807
17594.417350 70.818 93.9970
17721.913751 69.696 93.8032
17850.334044 68.887 93.3377
17979.684923 68.408 91.8861
18109.973131 68.194 89.1761
18241.205462 68.146 85.2039
18373.388756 68.173 80.0633
18506.529905 68.207 73.8667
18640.635849 68.192 66.7277
18775.713581 68.084 58.7742
18911.770141 67.844 50.1668
19048.812624 67.443 41.1084
19186.848172 66.858 31.8390
19325.883983 66.084 22.6163
19465.927305 65.132 13.7061
19606.985439 64.046 5.4053
19749.065738 62.917 -1.8776
19892.175609 61.919 -7.5137
20036.322514 61.310 -10.6677
