* Measurement data measured by REW V5.31.3
* Source: EXCL: Microphone (USB Sound Device        ), no input selected, R, volume: 0.390
* Format: 256k Log Swept Sine, 1 sweep at -15.0 dBFS with no timing reference
* Dated: Apr 18, 2025 6:24:12 PM
* REW Settings:
*  C-weighting compensation: Off
*  Target level: 75.0 dB
* Note: STA Hi End Max
* Measurement: L Apr 18
* Smoothing: 1/12 octave
* Frequency Step: 96 ppo
* Start Frequency: 0.36621094 Hz
*
* Freq(Hz) SPL(dB) Phase(degrees)
0.366211 94.537 157.1659
0.368865 94.531 157.1421
0.371538 94.523 157.1064
0.374230 94.512 157.0616
0.376942 94.500 157.0100
0.379673 94.487 156.9532
0.382424 94.474 156.8924
0.385196 94.460 156.8283
0.387987 94.446 156.7613
0.390798 94.432 156.6915
0.393630 94.417 156.6191
0.396483 94.403 156.5441
0.399356 94.388 156.4665
0.402250 94.374 156.3863
0.405165 94.359 156.3035
0.408101 94.344 156.2181
0.411058 94.329 156.1300
0.414037 94.314 156.0392
0.417037 94.299 155.9458
0.420059 94.283 155.8495
0.423103 94.268 155.7506
0.426169 94.252 155.6488
0.429257 94.236 155.5443
0.432368 94.221 155.4369
0.435501 94.205 155.3266
0.438656 94.189 155.2135
0.441835 94.173 155.0974
0.445037 94.156 154.9785
0.448262 94.140 154.8566
0.451510 94.123 154.7317
0.454782 94.107 154.6038
0.458077 94.090 154.4729
0.461397 94.073 154.3390
0.464740 94.056 154.2020
0.468108 94.039 154.0620
0.471500 94.022 153.9189
0.474917 94.005 153.7726
0.478358 93.987 153.6233
0.481825 93.970 153.4708
0.485316 93.952 153.3152
0.488833 93.934 153.1564
0.492375 93.916 152.9945
0.495943 93.898 152.8294
0.499537 93.880 152.6611
0.503157 93.861 152.4896
0.506803 93.843 152.3150
0.510475 93.824 152.1371
0.514175 93.805 151.9561
0.517900 93.786 151.7718
0.521653 93.767 151.5844
0.525434 93.748 151.3938
0.529241 93.729 151.2000
0.533076 93.709 151.0030
0.536939 93.690 150.8029
0.540830 93.670 150.5997
0.544749 93.650 150.3933
0.548696 93.630 150.1838
0.552673 93.610 149.9713
0.556677 93.589 149.7557
0.560711 93.569 149.5371
0.564774 93.548 149.3155
0.568867 93.527 149.0910
0.572989 93.507 148.8635
0.577141 93.485 148.6333
0.581324 93.464 148.4001
0.585536 93.443 148.1643
0.589779 93.421 147.9257
0.594053 93.400 147.6846
0.598358 93.378 147.4408
0.602694 93.356 147.1945
0.607061 93.334 146.9459
0.611460 93.311 146.6949
0.615891 93.289 146.4417
0.620354 93.266 146.1863
0.624849 93.243 145.9289
0.629377 93.220 145.6696
0.633938 93.197 145.4084
0.638532 93.174 145.1456
0.643159 93.150 144.8812
0.647819 93.127 144.6153
0.652514 93.103 144.3482
0.657242 93.079 144.0800
0.662005 93.055 143.8108
0.666802 93.030 143.5408
0.671634 93.006 143.2702
0.676501 92.981 142.9991
0.681403 92.956 142.7279
0.686341 92.931 142.4566
0.691314 92.906 142.1855
0.696324 92.880 141.9148
0.701370 92.854 141.6447
0.706452 92.828 141.3753
0.711571 92.801 141.1068
0.716728 92.774 140.8390
0.721921 92.745 140.5717
0.727153 92.715 140.3045
0.732422 92.683 140.0366
0.737729 92.649 139.7670
0.743075 92.613 139.4945
0.748460 92.576 139.2183
0.753883 92.537 138.9377
0.759346 92.497 138.6521
0.764849 92.456 138.3612
0.770391 92.415 138.0647
0.775974 92.373 137.7625
0.781597 92.330 137.4544
0.787261 92.287 137.1404
0.792966 92.243 136.8204
0.798712 92.199 136.4944
0.804500 92.154 136.1622
0.810329 92.109 135.8238
0.816201 92.063 135.4793
0.822116 92.016 135.1285
0.828073 91.969 134.7714
0.834074 91.921 134.4080
0.840118 91.872 134.0382
0.846206 91.822 133.6621
0.852338 91.772 133.2797
0.858514 91.721 132.8909
0.864735 91.669 132.4958
0.871001 91.616 132.0944
0.877313 91.562 131.6866
0.883670 91.507 131.2727
0.890074 91.451 130.8525
0.896524 91.394 130.4263
0.903020 91.336 129.9940
0.909564 91.277 129.5559
0.916155 91.217 129.1119
0.922794 91.155 128.6622
0.929481 91.093 128.2071
0.936216 91.029 127.7467
0.943000 90.963 127.2811
0.949834 90.896 126.8107
0.956717 90.828 126.3357
0.963649 90.759 125.8563
0.970632 90.688 125.3729
0.977666 90.615 124.8858
0.984750 90.540 124.3954
0.991886 90.464 123.9021
0.999074 90.386 123.4064
1.006314 90.307 122.9088
1.013606 90.225 122.4098
1.020951 90.142 121.9100
1.028349 90.056 121.4100
1.035801 89.969 120.9105
1.043307 89.879 120.4121
1.050867 89.787 119.9158
1.058482 89.693 119.4221
1.066152 89.597 118.9320
1.073878 89.499 118.4459
1.081660 89.399 117.9646
1.089498 89.297 117.4882
1.097393 89.193 117.0168
1.105345 89.089 116.5500
1.113355 88.985 116.0870
1.121423 88.881 115.6273
1.129549 88.777 115.1702
1.137734 88.674 114.7150
1.145979 88.571 114.2612
1.154283 88.469 113.8084
1.162647 88.367 113.3562
1.171072 88.265 112.9041
1.179558 88.162 112.4519
1.188106 88.058 111.9990
1.196715 87.954 111.5451
1.205387 87.848 111.0899
1.214122 87.740 110.6327
1.222920 87.630 110.1733
1.231782 87.518 109.7111
1.240708 87.402 109.2456
1.249699 87.283 108.7764
1.258754 87.160 108.3028
1.267876 87.033 107.8245
1.277063 86.901 107.3407
1.286318 86.763 106.8509
1.295639 86.620 106.3544
1.305027 86.470 105.8507
1.314484 86.314 105.3390
1.324009 86.150 104.8187
1.333604 85.977 104.2890
1.343268 85.796 103.7492
1.353002 85.606 103.1986
1.362806 85.405 102.6365
1.372681 85.194 102.0621
1.382628 84.972 101.4747
1.392647 84.737 100.8736
1.402739 84.489 100.2584
1.412904 84.228 99.6284
1.423142 83.951 98.9836
1.433455 83.658 98.3238
1.443843 83.347 97.6496
1.454305 83.016 96.9616
1.464844 82.661 96.2612
1.475459 82.280 95.5498
1.486150 81.869 94.8286
1.496920 81.425 94.0982
1.507767 80.948 93.3586
1.518693 80.437 92.6090
1.529698 79.893 91.8482
1.540783 79.317 91.0743
1.551948 78.711 90.2853
1.563194 78.076 89.4783
1.574521 77.416 88.6501
1.585931 76.732 87.7970
1.597423 76.028 86.9145
1.608999 75.306 85.9974
1.620658 74.571 85.0392
1.632402 73.826 84.0324
1.644232 73.073 82.9678
1.656146 72.319 81.8341
1.668147 71.566 80.6174
1.680235 70.819 79.3002
1.692411 70.085 77.8607
1.704675 69.367 76.2708
1.717028 68.672 74.4943
1.729470 68.007 72.4836
1.742003 67.379 70.1757
1.754626 66.794 67.4852
1.767341 66.262 64.2957
1.780147 65.791 60.4458
1.793047 65.389 55.7097
1.806040 65.066 49.7715
1.819128 64.830 42.1992
1.832310 64.686 32.4503
1.845587 64.640 20.0098
1.858961 64.691 4.8417
1.872432 64.837 -11.9474
1.886001 65.075 -28.2256
1.899667 65.398 -42.2208
1.913433 65.798 -53.4259
1.927299 66.268 -62.1903
1.941265 66.799 -69.0825
1.955332 67.383 -74.5993
1.969501 68.011 -79.1088
1.983773 68.675 -82.8702
1.998148 69.365 -86.0643
2.012627 70.074 -88.8184
2.027212 70.793 -91.2232
2.041902 71.514 -93.3447
2.056698 72.229 -95.2316
2.071602 72.930 -96.9206
2.086614 73.610 -98.4400
2.101734 74.262 -99.8117
2.116964 74.878 -101.0539
2.132304 75.454 -102.1824
2.147756 75.985 -103.2121
2.163320 76.467 -104.1583
2.178996 76.900 -105.0384
2.194786 77.286 -105.8717
2.210690 77.630 -106.6787
2.226710 77.935 -107.4782
2.242845 78.207 -108.2840
2.259098 78.450 -109.1039
2.275468 78.666 -109.9413
2.291957 78.858 -110.7955
2.308566 79.028 -111.6640
2.325295 79.177 -112.5424
2.342145 79.306 -113.4257
2.359117 79.417 -114.3085
2.376212 79.511 -115.1847
2.393431 79.589 -116.0482
2.410775 79.654 -116.8927
2.428244 79.706 -117.7118
2.445840 79.748 -118.4989
2.463564 79.780 -119.2477
2.481416 79.804 -119.9525
2.499397 79.821 -120.6085
2.517509 79.832 -121.2127
2.535752 79.838 -121.7650
2.554127 79.837 -122.2689
2.572635 79.828 -122.7314
2.591277 79.809 -123.1619
2.610055 79.778 -123.5690
2.628968 79.734 -123.9590
2.648019 79.677 -124.3352
2.667208 79.606 -124.6983
2.686535 79.523 -125.0464
2.706003 79.427 -125.3762
2.725612 79.319 -125.6825
2.745363 79.202 -125.9591
2.765257 79.076 -126.1984
2.785295 78.942 -126.3918
2.805478 78.803 -126.5293
2.825808 78.658 -126.5999
2.846285 78.509 -126.5914
2.866910 78.357 -126.4913
2.887685 78.202 -126.2866
2.908611 78.043 -125.9649
2.929688 77.878 -125.5145
2.950917 77.705 -124.9250
2.972301 77.521 -124.1868
2.993839 77.325 -123.2904
3.015534 77.118 -122.2264
3.037386 76.900 -120.9852
3.059396 76.676 -119.5579
3.081565 76.450 -117.9365
3.103896 76.224 -116.1155
3.126388 76.006 -114.0929
3.149043 75.801 -111.8719
3.171862 75.616 -109.4615
3.194847 75.456 -106.8780
3.217998 75.330 -104.1445
3.241317 75.243 -101.2892
3.264805 75.201 -98.3433
3.288463 75.210 -95.3370
3.312293 75.272 -92.2992
3.336295 75.387 -89.2587
3.360471 75.551 -86.2484
3.384822 75.763 -83.3054
3.409350 76.014 -80.4688
3.434056 76.299 -77.7753
3.458940 76.611 -75.2564
3.484005 76.943 -72.9357
3.509252 77.287 -70.8290
3.534681 77.636 -68.9445
3.560295 77.985 -67.2839
3.586094 78.329 -65.8438
3.612081 78.664 -64.6162
3.638255 78.989 -63.5899
3.664620 79.305 -62.7507
3.691175 79.612 -62.0822
3.717923 79.913 -61.5669
3.744864 80.211 -61.1875
3.772001 80.505 -60.9269
3.799335 80.795 -60.7692
3.826866 81.081 -60.7001
3.854597 81.360 -60.7065
3.882529 81.632 -60.7772
3.910664 81.894 -60.9029
3.939002 82.146 -61.0766
3.967546 82.385 -61.2936
3.996296 82.611 -61.5520
4.025255 82.822 -61.8523
4.054423 83.019 -62.1960
4.083804 83.202 -62.5841
4.113396 83.370 -63.0149
4.143204 83.526 -63.4837
4.173227 83.669 -63.9833
4.203468 83.801 -64.5052
4.233928 83.922 -65.0400
4.264609 84.032 -65.5791
4.295512 84.133 -66.1146
4.326639 84.224 -66.6411
4.357992 84.307 -67.1558
4.389572 84.380 -67.6589
4.421380 84.443 -68.1535
4.453419 84.497 -68.6432
4.485691 84.540 -69.1300
4.518196 84.573 -69.6127
4.550936 84.596 -70.0876
4.583914 84.612 -70.5487
4.617131 84.619 -70.9883
4.650589 84.619 -71.3985
4.684289 84.614 -71.7714
4.718233 84.602 -72.1006
4.752424 84.585 -72.3817
4.786862 84.561 -72.6129
4.821549 84.532 -72.7944
4.856488 84.497 -72.9275
4.891680 84.456 -73.0129
4.927127 84.411 -73.0512
4.962831 84.364 -73.0419
4.998794 84.316 -72.9839
5.035017 84.269 -72.8755
5.071503 84.225 -72.7143
5.108253 84.184 -72.4974
5.145270 84.147 -72.2224
5.182555 84.114 -71.8879
5.220110 84.085 -71.4957
5.257937 84.060 -71.0510
5.296038 84.041 -70.5620
5.334415 84.029 -70.0393
5.373071 84.023 -69.4942
5.412006 84.027 -68.9376
5.451224 84.040 -68.3786
5.490725 84.064 -67.8234
5.530514 84.100 -67.2757
5.570590 84.146 -66.7389
5.610957 84.203 -66.2181
5.651616 84.269 -65.7208
5.692570 84.343 -65.2567
5.733821 84.423 -64.8360
5.775370 84.509 -64.4683
5.817221 84.599 -64.1613
5.859375 84.692 -63.9198
5.901834 84.789 -63.7452
5.944602 84.889 -63.6365
5.987679 84.992 -63.5919
6.031068 85.095 -63.6088
6.074771 85.198 -63.6854
6.118792 85.299 -63.8202
6.163131 85.397 -64.0124
6.207792 85.491 -64.2617
6.252776 85.579 -64.5676
6.298086 85.663 -64.9283
6.343725 85.740 -65.3399
6.389694 85.813 -65.7960
6.435996 85.879 -66.2893
6.482634 85.939 -66.8121
6.529610 85.993 -67.3581
6.576926 86.040 -67.9230
6.624585 86.079 -68.5047
6.672590 86.112 -69.1015
6.720942 86.138 -69.7108
6.769645 86.157 -70.3279
6.818700 86.170 -70.9464
6.868111 86.178 -71.5593
6.917881 86.181 -72.1605
6.968010 86.180 -72.7458
7.018504 86.174 -73.3130
7.069362 86.165 -73.8610
7.120590 86.153 -74.3889
7.172189 86.139 -74.8950
7.224161 86.124 -75.3770
7.276511 86.110 -75.8322
7.329239 86.097 -76.2588
7.382350 86.086 -76.6558
7.435845 86.077 -77.0247
7.489729 86.072 -77.3682
7.544002 86.070 -77.6907
7.598669 86.074 -77.9967
7.653732 86.084 -78.2903
7.709194 86.100 -78.5744
7.765058 86.123 -78.8521
7.821327 86.153 -79.1272
7.878004 86.190 -79.4049
7.935091 86.233 -79.6916
7.992592 86.283 -79.9935
8.050510 86.339 -80.3156
8.108847 86.401 -80.6611
8.167607 86.468 -81.0319
8.226793 86.541 -81.4293
8.286408 86.617 -81.8546
8.346454 86.696 -82.3093
8.406936 86.777 -82.7944
8.467856 86.860 -83.3097
8.529218 86.944 -83.8537
8.591024 87.028 -84.4236
8.653278 87.112 -85.0156
8.715983 87.195 -85.6258
8.779143 87.276 -86.2508
8.842760 87.356 -86.8874
8.906839 87.434 -87.5322
8.971381 87.510 -88.1809
9.036392 87.584 -88.8283
9.101873 87.656 -89.4695
9.167829 87.726 -90.1004
9.234263 87.794 -90.7179
9.301178 87.861 -91.3193
9.368578 87.927 -91.9021
9.436467 87.993 -92.4636
9.504847 88.058 -93.0017
9.573723 88.124 -93.5149
9.643099 88.190 -94.0029
9.712976 88.258 -94.4661
9.783361 88.326 -94.9057
9.854255 88.397 -95.3227
9.925663 88.470 -95.7186
9.997588 88.545 -96.0949
10.070035 88.623 -96.4541
10.143007 88.702 -96.7989
10.216507 88.784 -97.1320
10.290540 88.868 -97.4559
10.365109 88.953 -97.7726
10.440219 89.040 -98.0836
10.515873 89.129 -98.3908
10.592076 89.217 -98.6955
10.668830 89.306 -98.9987
10.746141 89.395 -99.3008
10.824012 89.484 -99.6015
10.902447 89.572 -99.9006
10.981451 89.658 -100.1973
11.061027 89.743 -100.4911
11.141180 89.827 -100.7810
11.221913 89.908 -101.0660
11.303232 89.989 -101.3449
11.385140 90.067 -101.6170
11.467641 90.143 -101.8815
11.550741 90.218 -102.1382
11.634442 90.292 -102.3868
11.718750 90.363 -102.6273
11.803669 90.434 -102.8600
11.889203 90.502 -103.0855
11.975357 90.570 -103.3047
12.062136 90.636 -103.5185
12.149543 90.702 -103.7278
12.237583 90.765 -103.9337
12.326262 90.828 -104.1371
12.415583 90.889 -104.3389
12.505552 90.948 -104.5399
12.596172 91.005 -104.7405
12.687449 91.061 -104.9411
12.779387 91.115 -105.1419
12.871992 91.167 -105.3428
12.965268 91.218 -105.5439
13.059220 91.266 -105.7450
13.153852 91.312 -105.9461
13.249170 91.357 -106.1470
13.345179 91.400 -106.3481
13.441884 91.442 -106.5498
13.539289 91.483 -106.7526
13.637401 91.522 -106.9575
13.736223 91.561 -107.1656
13.835761 91.599 -107.3782
13.936021 91.636 -107.5967
14.037007 91.673 -107.8226
14.138725 91.709 -108.0573
14.241180 91.744 -108.3021
14.344377 91.779 -108.5580
14.448323 91.812 -108.8256
14.553021 91.845 -109.1052
14.658478 91.877 -109.3967
14.764700 91.907 -109.6997
14.871691 91.936 -110.0132
14.979457 91.964 -110.3361
15.088005 91.991 -110.6673
15.197339 92.017 -111.0053
15.307465 92.042 -111.3490
15.418389 92.066 -111.6973
15.530117 92.091 -112.0494
15.642655 92.115 -112.4050
15.756008 92.140 -112.7641
15.870182 92.166 -113.1270
15.985184 92.193 -113.4943
16.101019 92.221 -113.8668
16.217694 92.250 -114.2455
16.335214 92.281 -114.6311
16.453586 92.313 -115.0242
16.572815 92.346 -115.4251
16.692909 92.380 -115.8336
16.813872 92.415 -116.2490
16.935713 92.451 -116.6703
17.058436 92.487 -117.0959
17.182048 92.523 -117.5240
17.306556 92.560 -117.9527
17.431967 92.597 -118.3797
17.558286 92.635 -118.8034
17.685521 92.673 -119.2219
17.813677 92.712 -119.6340
17.942762 92.752 -120.0389
18.072783 92.792 -120.4358
18.203746 92.833 -120.8249
18.335658 92.876 -121.2062
18.468526 92.919 -121.5802
18.602356 92.963 -121.9472
18.737156 93.008 -122.3078
18.872934 93.053 -122.6621
19.009695 93.099 -123.0104
19.147447 93.144 -123.3526
19.286197 93.190 -123.6886
19.425953 93.234 -124.0181
19.566721 93.279 -124.3406
19.708510 93.322 -124.6561
19.851326 93.365 -124.9644
19.995177 93.407 -125.2654
20.140070 93.447 -125.5592
20.286013 93.487 -125.8463
20.433014 93.525 -126.1270
20.581080 93.563 -126.4019
20.730219 93.599 -126.6715
20.880439 93.634 -126.9364
21.031747 93.667 -127.1973
21.184152 93.699 -127.4549
21.337661 93.730 -127.7100
21.492282 93.759 -127.9633
21.648024 93.787 -128.2160
21.804895 93.814 -128.4691
21.962902 93.839 -128.7237
22.122054 93.864 -128.9812
22.282360 93.887 -129.2425
22.443827 93.909 -129.5086
22.606464 93.930 -129.7801
22.770280 93.949 -130.0575
22.935283 93.967 -130.3408
23.101481 93.984 -130.6297
23.268884 94.000 -130.9241
23.437500 94.016 -131.2234
23.607338 94.030 -131.5274
23.778406 94.044 -131.8360
23.950714 94.058 -132.1492
24.124271 94.072 -132.4673
24.299086 94.086 -132.7907
24.475167 94.101 -133.1197
24.652524 94.115 -133.4544
24.831166 94.131 -133.7948
25.011103 94.147 -134.1405
25.192344 94.163 -134.4906
25.374898 94.180 -134.8442
25.558775 94.197 -135.2000
25.743984 94.215 -135.5567
25.930536 94.233 -135.9132
26.118439 94.252 -136.2682
26.307704 94.272 -136.6209
26.498341 94.292 -136.9704
26.690359 94.313 -137.3160
26.883768 94.334 -137.6569
27.078579 94.355 -137.9926
27.274801 94.377 -138.3225
27.472446 94.400 -138.6463
27.671522 94.422 -138.9638
27.872042 94.445 -139.2751
28.074014 94.467 -139.5804
28.277450 94.489 -139.8800
28.482360 94.511 -140.1745
28.688755 94.533 -140.4642
28.896645 94.553 -140.7494
29.106042 94.573 -141.0302
29.316957 94.591 -141.3066
29.529400 94.609 -141.5788
29.743382 94.625 -141.8469
29.958915 94.640 -142.1116
30.176009 94.655 -142.3738
30.394677 94.668 -142.6347
30.614929 94.680 -142.8955
30.836778 94.692 -143.1575
31.060234 94.702 -143.4217
31.285309 94.712 -143.6888
31.512015 94.721 -143.9591
31.740364 94.728 -144.2328
31.970368 94.736 -144.5099
32.202039 94.742 -144.7905
32.435388 94.749 -145.0748
32.670428 94.755 -145.3629
32.907171 94.761 -145.6553
33.145630 94.767 -145.9518
33.385817 94.773 -146.2525
33.627745 94.779 -146.5568
33.871425 94.785 -146.8639
34.116871 94.791 -147.1729
34.364096 94.798 -147.4828
34.613113 94.805 -147.7925
34.863934 94.811 -148.1011
35.116572 94.818 -148.4077
35.371041 94.826 -148.7117
35.627354 94.833 -149.0125
35.885525 94.840 -149.3095
36.145566 94.848 -149.6024
36.407492 94.855 -149.8908
36.671316 94.862 -150.1745
36.937051 94.869 -150.4532
37.204712 94.875 -150.7267
37.474313 94.881 -150.9949
37.745867 94.886 -151.2578
38.019389 94.891 -151.5159
38.294893 94.895 -151.7699
38.572394 94.899 -152.0211
38.851905 94.902 -152.2707
39.133442 94.905 -152.5198
39.417019 94.907 -152.7691
39.702651 94.908 -153.0188
39.990353 94.909 -153.2686
40.280140 94.909 -153.5178
40.572026 94.908 -153.7660
40.866028 94.907 -154.0129
41.162160 94.905 -154.2592
41.460438 94.904 -154.5054
41.760877 94.904 -154.7528
42.063494 94.903 -155.0022
42.368303 94.903 -155.2539
42.675322 94.902 -155.5079
42.984565 94.902 -155.7638
43.296048 94.902 -156.0210
43.609789 94.901 -156.2788
43.925804 94.900 -156.5365
44.244108 94.899 -156.7932
44.564719 94.898 -157.0479
44.887654 94.896 -157.3001
45.212928 94.894 -157.5495
45.540560 94.892 -157.7964
45.870565 94.890 -158.0416
46.202962 94.887 -158.2857
46.537768 94.884 -158.5288
46.875000 94.881 -158.7703
47.214676 94.877 -159.0095
47.556813 94.872 -159.2459
47.901429 94.868 -159.4804
48.248542 94.863 -159.7144
48.598171 94.858 -159.9492
48.950334 94.853 -160.1847
49.305048 94.846 -160.4195
49.662333 94.840 -160.6511
50.022206 94.832 -160.8779
50.384688 94.825 -161.1000
50.749796 94.818 -161.3198
51.117550 94.812 -161.5400
51.487969 94.805 -161.7619
51.861072 94.797 -161.9846
52.236879 94.788 -162.2049
52.615409 94.778 -162.4194
52.996681 94.767 -162.6254
53.380717 94.756 -162.8226
53.767536 94.745 -163.0123
54.157158 94.735 -163.1964
54.549603 94.726 -163.3777
54.944892 94.717 -163.5586
55.343045 94.709 -163.7420
55.744084 94.702 -163.9302
56.148028 94.695 -164.1247
56.554900 94.689 -164.3253
56.964720 94.682 -164.5304
57.377510 94.674 -164.7380
57.793291 94.666 -164.9463
58.212085 94.658 -165.1542
58.633914 94.649 -165.3608
59.058799 94.641 -165.5653
59.486764 94.632 -165.7670
59.917829 94.623 -165.9658
60.352019 94.614 -166.1623
60.789354 94.604 -166.3578
61.229859 94.595 -166.5539
61.673556 94.585 -166.7513
62.120468 94.574 -166.9499
62.570618 94.562 -167.1488
63.024031 94.549 -167.3466
63.480729 94.534 -167.5417
63.940736 94.519 -167.7322
64.404077 94.502 -167.9167
64.870776 94.485 -168.0938
65.340856 94.468 -168.2626
65.814343 94.451 -168.4235
66.291261 94.434 -168.5776
66.771635 94.418 -168.7263
67.255489 94.402 -168.8703
67.742850 94.387 -169.0090
68.233743 94.373 -169.1419
68.728193 94.360 -169.2705
69.226226 94.349 -169.3990
69.727867 94.339 -169.5326
70.233144 94.329 -169.6754
70.742083 94.320 -169.8281
71.254709 94.310 -169.9890
71.771050 94.299 -170.1549
72.291132 94.287 -170.3233
72.814984 94.275 -170.4923
73.342631 94.262 -170.6605
73.874102 94.248 -170.8269
74.409424 94.234 -170.9913
74.948626 94.220 -171.1545
75.491734 94.206 -171.3178
76.038779 94.192 -171.4822
76.589787 94.177 -171.6477
77.144788 94.162 -171.8133
77.703811 94.145 -171.9773
78.266885 94.128 -172.1386
78.834039 94.110 -172.2972
79.405303 94.092 -172.4545
79.980706 94.074 -172.6126
80.560280 94.056 -172.7742
81.144053 94.038 -172.9412
81.732056 94.019 -173.1150
82.324320 93.999 -173.2955
82.920876 93.978 -173.4811
83.521755 93.955 -173.6683
84.126988 93.930 -173.8524
84.736607 93.903 -174.0280
85.350643 93.875 -174.1898
85.969129 93.846 -174.3331
86.592097 93.817 -174.4547
87.219579 93.789 -174.5549
87.851608 93.763 -174.6378
88.488217 93.740 -174.7098
89.129439 93.719 -174.7776
89.775308 93.699 -174.8469
90.425856 93.680 -174.9225
91.081119 93.660 -175.0075
91.741131 93.640 -175.1017
92.405925 93.618 -175.2024
93.075536 93.594 -175.3064
93.750000 93.569 -175.4129
94.429351 93.543 -175.5222
95.113625 93.516 -175.6337
95.802858 93.489 -175.7447
96.497085 93.461 -175.8537
97.196342 93.434 -175.9605
97.900667 93.407 -176.0648
98.610096 93.381 -176.1653
99.324665 93.354 -176.2610
100.044413 93.328 -176.3522
100.769376 93.301 -176.4399
101.499592 93.274 -176.5251
102.235100 93.246 -176.6085
102.975938 93.218 -176.6907
103.722144 93.189 -176.7717
104.473757 93.160 -176.8516
105.230817 93.131 -176.9307
105.993363 93.102 -177.0093
106.761435 93.073 -177.0868
107.535072 93.043 -177.1622
108.314315 93.013 -177.2353
109.099206 92.982 -177.3079
109.889783 92.950 -177.3832
110.686090 92.917 -177.4644
111.488167 92.883 -177.5536
112.296056 92.848 -177.6513
113.109800 92.811 -177.7553
113.929440 92.775 -177.8603
114.755020 92.739 -177.9578
115.586582 92.705 -178.0382
116.424170 92.674 -178.0952
117.267827 92.646 -178.1283
118.117598 92.619 -178.1409
118.973527 92.591 -178.1331
119.835658 92.558 -178.0943
120.704037 92.518 -178.0081
121.578708 92.474 -177.8700
122.459718 92.427 -177.6949
123.347111 92.378 -177.5050
124.240935 92.329 -177.3174
125.141236 92.282 -177.1434
126.048061 92.238 -176.9893
126.961458 92.198 -176.8567
127.881473 92.165 -176.7417
128.808154 92.139 -176.6369
129.741551 92.120 -176.5362
130.681712 92.108 -176.4378
131.628686 92.101 -176.3430
132.582521 92.097 -176.2540
133.543269 92.093 -176.1734
134.510979 92.088 -176.1049
135.485701 92.080 -176.0527
136.467486 92.068 -176.0210
137.456386 92.053 -176.0126
138.452451 92.035 -176.0278
139.455735 92.015 -176.0639
140.466288 91.992 -176.1161
141.484165 91.968 -176.1773
142.509418 91.942 -176.2402
143.542100 91.914 -176.2987
144.582265 91.886 -176.3483
145.629968 91.855 -176.3870
146.685262 91.823 -176.4146
147.748204 91.789 -176.4317
148.818849 91.753 -176.4388
149.897251 91.716 -176.4357
150.983469 91.677 -176.4206
152.077557 91.638 -176.3911
153.179574 91.598 -176.3452
154.289576 91.560 -176.2831
155.407622 91.523 -176.2078
156.533770 91.487 -176.1246
157.668078 91.453 -176.0400
158.810606 91.421 -175.9590
159.961413 91.389 -175.8844
161.120559 91.357 -175.8170
162.288105 91.325 -175.7552
163.464112 91.291 -175.6965
164.648640 91.257 -175.6375
165.841752 91.220 -175.5748
167.043510 91.183 -175.5051
168.253976 91.144 -175.4258
169.473213 91.105 -175.3352
170.701286 91.067 -175.2339
171.938258 91.029 -175.1243
173.184194 90.992 -175.0094
174.439158 90.956 -174.8909
175.703216 90.921 -174.7695
176.976434 90.887 -174.6469
178.258878 90.853 -174.5245
179.550615 90.820 -174.4029
180.851713 90.786 -174.2824
182.162239 90.752 -174.1635
183.482262 90.717 -174.0464
184.811850 90.683 -173.9304
186.151073 90.649 -173.8132
187.500000 90.615 -173.6911
188.858702 90.580 -173.5598
190.227250 90.546 -173.4168
191.605715 90.510 -173.2626
192.994169 90.474 -173.1015
194.392685 90.437 -172.9397
195.801334 90.398 -172.7836
197.220191 90.358 -172.6354
198.649330 90.316 -172.4905
200.088825 90.273 -172.3375
201.538751 90.230 -172.1663
202.999184 90.189 -171.9774
204.470200 90.151 -171.7807
205.951875 90.114 -171.5860
207.444287 90.079 -171.3980
208.947514 90.043 -171.2174
210.461634 90.007 -171.0417
211.986726 89.969 -170.8660
213.522869 89.930 -170.6840
215.070144 89.889 -170.4893
216.628631 89.848 -170.2775
218.198411 89.807 -170.0482
219.779567 89.768 -169.8057
221.372180 89.729 -169.5572
222.976334 89.692 -169.3090
224.592112 89.656 -169.0634
226.219600 89.621 -168.8197
227.858880 89.586 -168.5764
229.510039 89.551 -168.3326
231.173164 89.518 -168.0881
232.848340 89.484 -167.8439
234.535655 89.451 -167.6015
236.235197 89.418 -167.3618
237.947054 89.385 -167.1243
239.671317 89.350 -166.8881
241.408074 89.315 -166.6522
243.157416 89.278 -166.4157
244.919435 89.239 -166.1768
246.694223 89.200 -165.9325
248.481871 89.159 -165.6778
250.282473 89.119 -165.4078
252.096123 89.078 -165.1198
253.922915 89.039 -164.8152
255.762945 89.002 -164.5003
257.616309 88.968 -164.1850
259.483103 88.936 -163.8790
261.363424 88.904 -163.5870
263.257372 88.872 -163.3071
265.165043 88.838 -163.0323
267.086538 88.802 -162.7545
269.021957 88.763 -162.4663
270.971401 88.724 -162.1630
272.934972 88.685 -161.8433
274.912771 88.646 -161.5086
276.904902 88.608 -161.1611
278.911469 88.571 -160.8030
280.932577 88.536 -160.4364
282.968330 88.503 -160.0645
285.018835 88.473 -159.6925
287.084199 88.443 -159.3265
289.164530 88.416 -158.9717
291.259935 88.388 -158.6292
293.370525 88.359 -158.2939
295.496408 88.329 -157.9572
297.637697 88.297 -157.6109
299.794503 88.266 -157.2514
301.966937 88.234 -156.8804
304.155114 88.204 -156.5034
306.359147 88.176 -156.1273
308.579152 88.149 -155.7584
310.815244 88.123 -155.4005
313.067539 88.097 -155.0547
315.336156 88.070 -154.7182
317.621211 88.042 -154.3848
319.922826 88.011 -154.0474
322.241118 87.980 -153.7017
324.576210 87.948 -153.3464
326.928223 87.916 -152.9830
329.297280 87.884 -152.6136
331.683504 87.853 -152.2399
334.087019 87.821 -151.8635
336.507952 87.790 -151.4857
338.946427 87.758 -151.1065
341.402572 87.725 -150.7244
343.876516 87.691 -150.3367
346.368387 87.657 -149.9411
348.878315 87.622 -149.5361
351.406431 87.588 -149.1215
353.952867 87.554 -148.6977
356.517756 87.521 -148.2655
359.101230 87.488 -147.8261
361.703426 87.456 -147.3807
364.324478 87.424 -146.9304
366.964523 87.393 -146.4763
369.623699 87.363 -146.0186
372.302145 87.333 -145.5577
375.000000 87.303 -145.0935
377.717405 87.275 -144.6266
380.454501 87.246 -144.1577
383.211431 87.219 -143.6876
385.988339 87.192 -143.2167
388.785369 87.165 -142.7449
391.602668 87.138 -142.2721
394.440383 87.112 -141.7984
397.298660 87.086 -141.3241
400.177650 87.060 -140.8492
403.077502 87.035 -140.3743
405.998368 87.009 -139.9002
408.940400 86.982 -139.4270
411.903750 86.955 -138.9529
414.888575 86.926 -138.4737
417.895028 86.897 -137.9848
420.923268 86.869 -137.4825
423.973452 86.840 -136.9660
427.045738 86.813 -136.4372
430.140287 86.787 -135.9003
433.257261 86.763 -135.3607
436.396822 86.741 -134.8217
439.559133 86.719 -134.2841
442.744360 86.698 -133.7482
445.952668 86.678 -133.2155
449.184225 86.660 -132.6905
452.439199 86.642 -132.1792
455.717760 86.623 -131.6853
459.020079 86.602 -131.2057
462.346327 86.579 -130.7294
465.696680 86.552 -130.2442
469.071310 86.523 -129.7420
472.470394 86.494 -129.2208
475.894109 86.465 -128.6835
479.342634 86.436 -128.1360
482.816148 86.408 -127.5846
486.314833 86.380 -127.0307
489.838871 86.351 -126.4695
493.388445 86.321 -125.8931
496.963741 86.293 -125.2979
500.564945 86.265 -124.6877
504.192245 86.240 -124.0709
507.845830 86.216 -123.4551
511.525890 86.192 -122.8438
515.232618 86.169 -122.2362
518.966206 86.145 -121.6282
522.726849 86.120 -121.0142
526.514743 86.095 -120.3893
530.330086 86.071 -119.7510
534.173076 86.047 -119.1017
538.043915 86.025 -118.4460
541.942803 86.003 -117.7864
545.869944 85.983 -117.1225
549.825542 85.963 -116.4537
553.809805 85.945 -115.7823
557.822939 85.927 -115.1122
561.865154 85.910 -114.4458
565.936660 85.893 -113.7825
570.037671 85.875 -113.1190
574.168399 85.857 -112.4508
578.329060 85.839 -111.7753
582.519870 85.821 -111.0920
586.741049 85.802 -110.4011
590.992817 85.784 -109.7003
595.275394 85.766 -108.9877
599.589005 85.748 -108.2645
603.933874 85.732 -107.5360
608.310228 85.717 -106.8063
612.718295 85.702 -106.0764
617.158304 85.688 -105.3432
621.630488 85.673 -104.6002
626.135079 85.658 -103.8410
630.672311 85.644 -103.0640
635.242423 85.633 -102.2741
639.845651 85.623 -101.4779
644.482237 85.616 -100.6775
649.152421 85.611 -99.8715
653.856447 85.608 -99.0607
658.594560 85.608 -98.2516
663.367008 85.611 -97.4551
668.174039 85.615 -96.6797
673.015903 85.619 -95.9253
677.892854 85.621 -95.1845
682.805145 85.621 -94.4480
687.753032 85.619 -93.7084
692.736774 85.616 -92.9594
697.756631 85.612 -92.1962
702.812863 85.608 -91.4173
707.905735 85.605 -90.6249
713.035511 85.603 -89.8234
718.202461 85.602 -89.0159
723.406852 85.601 -88.2033
728.648956 85.601 -87.3849
733.929047 85.602 -86.5604
739.247399 85.604 -85.7291
744.604290 85.606 -84.8904
750.000000 85.609 -84.0437
755.434809 85.613 -83.1892
760.909001 85.618 -82.3275
766.422861 85.624 -81.4593
771.976677 85.632 -80.5850
777.570739 85.641 -79.7050
783.205337 85.651 -78.8197
788.880766 85.662 -77.9276
794.597321 85.675 -77.0259
800.355301 85.689 -76.1120
806.155005 85.707 -75.1876
811.996736 85.728 -74.2591
817.880799 85.753 -73.3361
823.807501 85.782 -72.4286
829.777150 85.812 -71.5448
835.790057 85.843 -70.6865
841.846536 85.873 -69.8463
847.946903 85.900 -69.0130
854.091476 85.927 -68.1781
860.280575 85.952 -67.3379
866.514523 85.977 -66.4895
872.793644 86.002 -65.6295
879.118267 86.028 -64.7581
885.488720 86.055 -63.8798
891.905336 86.084 -62.9984
898.368450 86.114 -62.1147
904.878398 86.145 -61.2266
911.435520 86.178 -60.3333
918.040157 86.212 -59.4363
924.692655 86.248 -58.5382
931.393359 86.287 -57.6428
938.142619 86.327 -56.7542
944.940787 86.368 -55.8751
951.788218 86.410 -55.0051
958.685268 86.453 -54.1418
965.632296 86.495 -53.2826
972.629666 86.538 -52.4246
979.677741 86.580 -51.5662
986.776890 86.623 -50.7057
993.927482 86.665 -49.8382
1001.129891 86.707 -48.9546
1008.384491 86.751 -48.0476
1015.691660 86.799 -47.1192
1023.051781 86.851 -46.1804
1030.465236 86.910 -45.2471
1037.932411 86.975 -44.3367
1045.453698 87.043 -43.4639
1053.029486 87.113 -42.6332
1060.660172 87.182 -41.8397
1068.346153 87.250 -41.0734
1076.087829 87.315 -40.3247
1083.885605 87.379 -39.5879
1091.739887 87.441 -38.8624
1099.651084 87.502 -38.1497
1107.619609 87.560 -37.4499
1115.645878 87.616 -36.7600
1123.730308 87.668 -36.0730
1131.873321 87.716 -35.3773
1140.075341 87.761 -34.6580
1148.336797 87.805 -33.9032
1156.658119 87.850 -33.1111
1165.039741 87.899 -32.2908
1173.482099 87.953 -31.4562
1181.985634 88.012 -30.6207
1190.550789 88.076 -29.7974
1199.178011 88.144 -28.9994
1207.867749 88.214 -28.2369
1216.620457 88.285 -27.5131
1225.436590 88.353 -26.8214
1234.316609 88.419 -26.1511
1243.260976 88.481 -25.4915
1252.270157 88.540 -24.8337
1261.344623 88.596 -24.1729
1270.484846 88.651 -23.5072
1279.691303 88.705 -22.8348
1288.964474 88.757 -22.1537
1298.304842 88.809 -21.4640
1307.712894 88.862 -20.7683
1317.189120 88.914 -20.0702
1326.734016 88.966 -19.3721
1336.348077 89.018 -18.6733
1346.031806 89.068 -17.9708
1355.785708 89.117 -17.2608
1365.610290 89.166 -16.5391
1375.506065 89.214 -15.8010
1385.473549 89.263 -15.0415
1395.513261 89.313 -14.2597
1405.625726 89.367 -13.4611
1415.811469 89.426 -12.6581
1426.071023 89.488 -11.8659
1436.404921 89.552 -11.0939
1446.813703 89.617 -10.3423
1457.297912 89.682 -9.6054
1467.858093 89.746 -8.8767
1478.494798 89.809 -8.1519
1489.208581 89.871 -7.4272
1500.000000 89.932 -6.6995
1510.869618 89.993 -5.9656
1521.818002 90.053 -5.2229
1532.845723 90.114 -4.4690
1543.953355 90.177 -3.7018
1555.141477 90.241 -2.9209
1566.410674 90.310 -2.1304
1577.761531 90.382 -1.3412
1589.194642 90.458 -0.5678
1600.710601 90.537 0.1804
1612.310010 90.616 0.9028
1623.993473 90.694 1.6046
1635.761599 90.771 2.2933
1647.615002 90.846 2.9749
1659.554299 90.921 3.6543
1671.580114 90.995 4.3348
1683.693072 91.069 5.0171
1695.893807 91.143 5.6990
1708.182952 91.218 6.3783
1720.561150 91.292 7.0555
1733.029045 91.365 7.7338
1745.587288 91.438 8.4190
1758.236533 91.511 9.1179
1770.977440 91.586 9.8355
1783.810673 91.663 10.5705
1796.736900 91.745 11.3128
1809.756796 91.831 12.0472
1822.871040 91.921 12.7622
1836.080315 92.013 13.4537
1849.385310 92.106 14.1232
1862.786718 92.199 14.7744
1876.285239 92.292 15.4120
1889.881575 92.384 16.0413
1903.576436 92.476 16.6678
1917.370535 92.569 17.2964
1931.264593 92.664 17.9302
1945.259332 92.761 18.5672
1959.355483 92.863 19.1976
1973.553781 92.969 19.8069
1987.854965 93.078 20.3837
2002.259781 93.189 20.9241
2016.768981 93.299 21.4303
2031.383320 93.408 21.9066
2046.103561 93.516 22.3580
2060.930471 93.624 22.7882
2075.864823 93.730 23.1984
2090.907395 93.834 23.5885
2106.058972 93.937 23.9604
2121.320344 94.038 24.3191
2136.692305 94.137 24.6723
2152.175658 94.235 25.0278
2167.771210 94.334 25.3870
2183.479774 94.436 25.7420
2199.302169 94.539 26.0799
2215.239219 94.644 26.3905
2231.291755 94.750 26.6690
2247.460615 94.854 26.9150
2263.746641 94.957 27.1322
2280.150683 95.058 27.3268
2296.673595 95.156 27.5065
2313.316238 95.253 27.6775
2330.079481 95.351 27.8405
2346.964198 95.449 27.9876
2363.971268 95.549 28.1063
2381.101578 95.649 28.1868
2398.356022 95.748 28.2250
2415.735498 95.844 28.2214
2433.240913 95.937 28.1794
2450.873180 96.026 28.1029
2468.633217 96.110 27.9951
2486.521951 96.190 27.8598
2504.540314 96.264 27.7038
2522.689246 96.332 27.5367
2540.969692 96.397 27.3676
2559.382606 96.458 27.1987
2577.928947 96.519 27.0235
2596.609683 96.578 26.8318
2615.425787 96.635 26.6145
2634.378241 96.690 26.3662
2653.468031 96.741 26.0852
2672.696154 96.787 25.7739
2692.063613 96.828 25.4370
2711.571415 96.864 25.0773
2731.220579 96.896 24.6924
2751.012130 96.922 24.2761
2770.947098 96.940 23.8249
2791.026522 96.950 23.3422
2811.251451 96.948 22.8384
2831.622938 96.934 22.3289
2852.142045 96.908 21.8308
2872.809842 96.869 21.3619
2893.627406 96.818 20.9410
2914.595823 96.757 20.5871
2935.716186 96.689 20.3140
2956.989596 96.616 20.1252
2978.417161 96.541 20.0141
3000.000000 96.466 19.9701
3021.739237 96.391 19.9829
3043.636005 96.316 20.0466
3065.691446 96.242 20.1609
3087.906710 96.168 20.3288
3110.282955 96.097 20.5500
3132.821347 96.029 20.8173
3155.523062 95.966 21.1190
3178.389283 95.907 21.4437
3201.421202 95.852 21.7822
3224.620020 95.800 22.1280
3247.986946 95.750 22.4768
3271.523198 95.700 22.8294
3295.230004 95.650 23.1926
3319.108599 95.600 23.5766
3343.160228 95.550 23.9872
3367.386145 95.503 24.4237
3391.787613 95.457 24.8814
3416.365904 95.413 25.3565
3441.122300 95.371 25.8499
3466.058091 95.330 26.3683
3491.174576 95.291 26.9187
3516.473066 95.257 27.5016
3541.954880 95.227 28.1099
3567.621345 95.204 28.7328
3593.473800 95.188 29.3590
3619.513592 95.176 29.9782
3645.742080 95.170 30.5830
3672.160630 95.166 31.1727
3698.770620 95.164 31.7535
3725.573436 95.165 32.3323
3752.570477 95.168 32.9110
3779.763150 95.175 33.4871
3807.152872 95.185 34.0575
3834.741071 95.197 34.6238
3862.529185 95.211 35.1933
3890.518664 95.229 35.7726
3918.710966 95.253 36.3610
3947.107561 95.283 36.9507
3975.709929 95.320 37.5292
4004.519563 95.364 38.0826
4033.537962 95.415 38.5983
4062.766641 95.470 39.0702
4092.207123 95.529 39.4995
4121.860942 95.591 39.8886
4151.729646 95.657 40.2367
4181.814790 95.725 40.5398
4212.117944 95.795 40.7960
4242.640687 95.866 41.0088
4273.384610 95.938 41.1847
4304.351317 96.013 41.3260
4335.542421 96.091 41.4282
4366.959549 96.173 41.4801
4398.604338 96.259 41.4661
4430.478438 96.348 41.3711
4462.583511 96.437 41.1864
4494.921231 96.525 40.9094
4527.493283 96.610 40.5389
4560.301365 96.690 40.0724
4593.347189 96.764 39.5085
4626.632476 96.829 38.8518
4660.158962 96.883 38.1123
4693.928395 96.926 37.3004
4727.942535 96.957 36.4233
4762.203156 96.974 35.4847
4796.712043 96.976 34.4865
4831.470996 96.960 33.4369
4866.481826 96.920 32.3586
4901.746360 96.854 31.2936
4937.266434 96.759 30.3033
4973.043902 96.637 29.4689
5009.080628 96.496 28.8860
5045.378492 96.352 28.6363
5081.939384 96.231 28.7269
5118.765212 96.158 29.0276
5155.857894 96.142 29.2809
5193.219366 96.167 29.2267
5230.851574 96.201 28.7464
5268.756481 96.212 27.8930
5306.936062 96.183 26.8144
5345.392309 96.112 25.6650
5384.127225 96.003 24.5600
5423.142830 95.864 23.5696
5462.441159 95.703 22.7283
5502.024259 95.527 22.0461
5541.894195 95.341 21.5183
5582.053045 95.151 21.1311
5622.502902 94.960 20.8691
5663.245876 94.767 20.7203
5704.284090 94.576 20.6752
5745.619684 94.388 20.7236
5787.254813 94.201 20.8560
5829.191647 94.018 21.0681
5871.432373 93.837 21.3618
5913.979192 93.660 21.7413
5956.834323 93.489 22.2079
6000.000000 93.324 22.7573
6043.478473 93.169 23.3822
6087.272010 93.023 24.0732
6131.382892 92.888 24.8184
6175.813420 92.764 25.6050
6220.565910 92.651 26.4249
6265.642695 92.548 27.2767
6311.046124 92.454 28.1642
6356.778566 92.371 29.0903
6402.842404 92.300 30.0545
6449.240040 92.242 31.0531
6495.973891 92.198 32.0788
6543.046396 92.170 33.1203
6590.460007 92.157 34.1663
6638.217197 92.159 35.2105
6686.320456 92.176 36.2518
6734.772290 92.209 37.2916
6783.575226 92.259 38.3294
6832.731809 92.327 39.3622
6882.244600 92.415 40.3828
6932.116181 92.525 41.3792
6982.349153 92.658 42.3366
7032.946133 92.814 43.2424
7083.909760 92.995 44.0876
7135.242690 93.202 44.8625
7186.947600 93.439 45.5529
7239.027185 93.708 46.1375
7291.484160 94.011 46.5845
7344.321260 94.352 46.8502
7397.541239 94.729 46.8837
7451.146872 95.142 46.6298
7505.140954 95.588 46.0299
7559.526299 96.065 45.0188
7614.305743 96.566 43.5250
7669.482141 97.080 41.4726
7725.058371 97.595 38.7861
7781.037328 98.092 35.4006
7837.421932 98.550 31.2772
7894.215122 98.945 26.4154
7951.419859 99.256 20.8616
8009.039125 99.461 14.7155
8067.075924 99.547 8.1305
8125.533282 99.503 1.3048
8184.414245 99.327 -5.5367
8243.721885 99.023 -12.1672
8303.459292 98.601 -18.3835
8363.629581 98.078 -24.0275
8424.235888 97.472 -28.9959
8485.281374 96.805 -33.2412
8546.769221 96.098 -36.7666
8608.702634 95.372 -39.6141
8671.084842 94.644 -41.8492
8733.919097 93.930 -43.5475
8797.208675 93.240 -44.7849
8860.956876 92.582 -45.6320
8925.167022 91.963 -46.1565
8989.842461 91.385 -46.4252
9054.986566 90.852 -46.5008
9120.602731 90.364 -46.4381
9186.694378 89.918 -46.2803
9253.264952 89.514 -46.0587
9320.317925 89.151 -45.7991
9387.856790 88.826 -45.5290
9455.885071 88.540 -45.2788
9524.406312 88.291 -45.0789
9593.424086 88.078 -44.9549
9662.941992 87.897 -44.9262
9732.963653 87.748 -45.0111
9803.492719 87.629 -45.2332
9874.532869 87.539 -45.6210
9946.087805 87.474 -46.2043
10018.161257 87.430 -47.0081
10090.756983 87.404 -48.0511
10163.878768 87.390 -49.3511
10237.530423 87.384 -50.9265
10311.715789 87.379 -52.7945
10386.438732 87.367 -54.9634
10461.703149 87.339 -57.4258
10537.512962 87.286 -60.1588
10613.872125 87.201 -63.1297
10690.784618 87.077 -66.3003
10768.254450 86.909 -69.6267
10846.285661 86.692 -73.0564
10924.882318 86.424 -76.5282
11004.048518 86.102 -79.9789
11083.788390 85.730 -83.3495
11164.106090 85.311 -86.5894
11245.005805 84.848 -89.6543
11326.491752 84.348 -92.5051
11408.568180 83.818 -95.1115
11491.239368 83.265 -97.4564
11574.509626 82.697 -99.5374
11658.383294 82.123 -101.3610
11742.864745 81.548 -102.9374
11827.958384 80.977 -104.2800
11913.668646 80.417 -105.4088
12000.000000 79.873 -106.3509
12086.956947 79.347 -107.1336
12174.544019 78.842 -107.7800
12262.765784 78.360 -108.3104
12351.626840 77.904 -108.7470
12441.131819 77.476 -109.1142
12531.285389 77.077 -109.4366
12622.092249 76.709 -109.7382
12713.557132 76.373 -110.0471
12805.684808 76.072 -110.3965
12898.480079 75.804 -110.8192
12991.947783 75.569 -111.3430
13086.092792 75.370 -111.9967
13180.920015 75.207 -112.8225
13276.434395 75.080 -113.8799
13372.640911 74.988 -115.2350
13469.544580 74.924 -116.9481
13567.150452 74.880 -119.0702
13665.463617 74.845 -121.6437
13764.489200 74.806 -124.6969
13864.232362 74.745 -128.2386
13964.698305 74.646 -132.2545
14065.892266 74.491 -136.7056
14167.819519 74.263 -141.5229
14270.485380 73.945 -146.6058
14373.895200 73.525 -151.8273
14478.054370 72.995 -157.0439
14582.968320 72.351 -162.1040
14688.642520 71.595 -166.8526
14795.082478 70.731 -171.1374
14902.293745 69.771 -174.8126
15010.281908 68.728 -177.7336
15119.052599 67.620 -179.7488
15228.611486 66.470 179.2988
15338.964283 65.312 179.5452
15450.116741 64.198 -178.9631
15562.074656 63.192 -176.3879
15674.843864 62.365 -173.2065
15788.430244 61.755 -170.1413
15902.839718 61.343 -167.8408
16018.078250 61.050 -166.5479
16134.151848 60.787 -166.0335
16251.066563 60.500 -165.7767
16368.828491 60.193 -165.2363
16487.443769 59.926 -164.1254
16606.918584 59.780 -162.5983
16727.259161 59.805 -161.2172
16848.471777 59.982 -160.6449
16970.562748 60.228 -161.2691
17093.538442 60.445 -163.0234
17217.405268 60.563 -165.4500
17342.169684 60.577 -167.9251
17467.838194 60.545 -170.0192
17594.417350 60.551 -171.8613
17721.913751 60.625 -174.0900
17850.334044 60.711 -177.2557
17979.684923 60.719 178.6266
18109.973131 60.592 173.9390
18241.205462 60.316 169.1352
18373.388756 59.907 164.5728
18506.529905 59.398 160.4872
18640.635849 58.825 157.0082
18775.713581 58.230 154.1711
18911.770141 57.656 151.9177
19048.812624 57.141 150.1098
19186.848172 56.715 148.5576
19325.883983 56.389 147.0622
19465.927305 56.161 145.4756
19606.985439 56.012 143.7612
19749.065738 55.921 142.0343
19892.175609 55.869 140.5630
20036.322514 55.846 139.6949
