* Measurement data measured by REW V5.30 beta 5
* Source: EXCL: Microphone (Realtek(R) Audio), MICROPHONE (Master Volume), L, volume: 1.000
* Format: 256k Log Swept Sine, 1 sweep at -32.0 dBFS with no timing reference
* Dated: Dec 20, 2023 11:50:15 AM
* REW Settings:
*  C-weighting compensation: Off
*  Target level: 75.0 dB
* Note: 
* Measurement: L Edifier X3
* Smoothing: 1/24 octave
* Frequency Step: 96 ppo
* Start Frequency: 0.36621094 Hz
*
* Freq(Hz) SPL(dB) Phase(degrees)
0.366211 92.539 158.6519
0.368865 92.484 158.6409
0.371538 92.404 158.6239
0.374230 92.313 158.6032
0.376942 92.219 158.5795
0.379673 92.122 158.5532
0.382424 92.024 158.5244
0.385196 91.926 158.4930
0.387987 91.827 158.4591
0.390798 91.727 158.4227
0.393630 91.626 158.3836
0.396483 91.525 158.3419
0.399356 91.422 158.2976
0.402250 91.320 158.2505
0.405165 91.216 158.2007
0.408101 91.112 158.1480
0.411058 91.006 158.0926
0.414037 90.901 158.0343
0.417037 90.794 157.9730
0.420059 90.686 157.9088
0.423103 90.578 157.8417
0.426169 90.469 157.7714
0.429257 90.359 157.6981
0.432367 90.249 157.6217
0.435501 90.138 157.5421
0.438656 90.025 157.4593
0.441835 89.912 157.3732
0.445037 89.799 157.2838
0.448262 89.684 157.1910
0.451510 89.568 157.0948
0.454782 89.452 156.9951
0.458077 89.335 156.8918
0.461397 89.217 156.7850
0.464740 89.098 156.6746
0.468108 88.978 156.5605
0.471500 88.858 156.4426
0.474917 88.736 156.3209
0.478358 88.614 156.1953
0.481825 88.491 156.0658
0.485316 88.367 155.9323
0.488833 88.242 155.7948
0.492375 88.116 155.6531
0.495943 87.989 155.5072
0.499537 87.861 155.3571
0.503157 87.733 155.2027
0.506803 87.603 155.0438
0.510475 87.472 154.8805
0.514174 87.341 154.7127
0.517900 87.208 154.5403
0.521653 87.075 154.3631
0.525433 86.941 154.1813
0.529241 86.805 153.9946
0.533076 86.669 153.8030
0.536939 86.532 153.6064
0.540830 86.393 153.4048
0.544749 86.254 153.1980
0.548696 86.114 152.9861
0.552673 85.973 152.7688
0.556677 85.830 152.5462
0.560711 85.687 152.3182
0.564774 85.542 152.0847
0.568867 85.397 151.8456
0.572989 85.250 151.6008
0.577141 85.103 151.3503
0.581324 84.954 151.0940
0.585536 84.804 150.8319
0.589779 84.654 150.5638
0.594053 84.502 150.2897
0.598358 84.349 150.0096
0.602694 84.195 149.7234
0.607061 84.039 149.4311
0.611460 83.883 149.1326
0.615891 83.726 148.8279
0.620354 83.567 148.5170
0.624849 83.407 148.1999
0.629377 83.246 147.8766
0.633938 83.084 147.5471
0.638532 82.921 147.2114
0.643159 82.756 146.8697
0.647819 82.591 146.5220
0.652514 82.424 146.1684
0.657242 82.256 145.8091
0.662005 82.087 145.4444
0.666802 81.916 145.0743
0.671634 81.744 144.6992
0.676501 81.571 144.3196
0.681403 81.397 143.9359
0.686341 81.222 143.5485
0.691314 81.045 143.1583
0.696324 80.867 142.7659
0.701369 80.688 142.3725
0.706452 80.507 141.9792
0.711571 80.326 141.5874
0.716727 80.145 141.1987
0.721921 79.968 140.8143
0.727153 79.806 140.4338
0.732422 79.682 140.0519
0.737729 79.622 139.6552
0.743075 79.607 139.2254
0.748460 79.620 138.7453
0.753883 79.649 138.1975
0.759346 79.691 137.5603
0.764849 79.745 136.8036
0.770391 79.810 135.8822
0.775974 79.886 134.7254
0.781597 79.973 133.2143
0.787261 80.071 131.1346
0.792965 80.180 128.0587
0.798712 80.299 123.0049
0.804499 80.429 113.2345
0.810329 80.569 89.2765
0.816201 80.720 35.6878
0.822116 80.880 -1.6053
0.828073 81.050 -15.7878
0.834073 81.230 -22.4353
0.840118 81.419 -26.2432
0.846205 81.618 -28.7254
0.852337 81.825 -30.4912
0.858514 82.041 -31.8288
0.864735 82.266 -32.8914
0.871001 82.498 -33.7677
0.877313 82.739 -34.5126
0.883670 82.987 -35.1619
0.890074 83.242 -35.7397
0.896523 83.504 -36.2632
0.903020 83.773 -36.7448
0.909564 84.047 -37.1935
0.916155 84.328 -37.6165
0.922793 84.613 -38.0192
0.929480 84.903 -38.4058
0.936216 85.198 -38.7798
0.943000 85.496 -39.1439
0.949833 85.798 -39.5006
0.956716 86.102 -39.8518
0.963649 86.408 -40.1990
0.970632 86.716 -40.5438
0.977666 87.025 -40.8874
0.984750 87.333 -41.2309
0.991886 87.642 -41.5753
0.999074 87.949 -41.9214
1.006313 88.255 -42.2701
1.013605 88.558 -42.6221
1.020950 88.857 -42.9782
1.028349 89.152 -43.3390
1.035801 89.442 -43.7052
1.043306 89.726 -44.0774
1.050867 90.002 -44.4561
1.058482 90.271 -44.8421
1.066152 90.531 -45.2358
1.073878 90.781 -45.6379
1.081659 91.021 -46.0490
1.089498 91.250 -46.4697
1.097393 91.468 -46.9007
1.105345 91.679 -47.3423
1.113355 91.886 -47.7946
1.121422 92.091 -48.2568
1.129549 92.294 -48.7277
1.137734 92.495 -49.2063
1.145978 92.696 -49.6915
1.154283 92.895 -50.1821
1.162647 93.093 -50.6773
1.171072 93.290 -51.1762
1.179558 93.485 -51.6778
1.188106 93.679 -52.1815
1.196715 93.872 -52.6864
1.205387 94.063 -53.1921
1.214122 94.253 -53.6978
1.222920 94.442 -54.2030
1.231781 94.629 -54.7072
1.240708 94.815 -55.2100
1.249698 95.000 -55.7109
1.258754 95.183 -56.2094
1.267875 95.364 -56.7054
1.277063 95.544 -57.1984
1.286317 95.723 -57.6882
1.295638 95.900 -58.1745
1.305027 96.076 -58.6571
1.314484 96.250 -59.1358
1.324009 96.423 -59.6104
1.333603 96.594 -60.0807
1.343267 96.764 -60.5467
1.353001 96.933 -61.0081
1.362805 97.099 -61.4650
1.372681 97.265 -61.9172
1.382628 97.429 -62.3647
1.392647 97.591 -62.8074
1.402739 97.752 -63.2454
1.412904 97.911 -63.6785
1.423142 98.069 -64.1068
1.433455 98.226 -64.5305
1.443842 98.380 -64.9498
1.454305 98.534 -65.3656
1.464843 98.685 -65.7797
1.475458 98.833 -66.1955
1.486150 98.978 -66.6161
1.496919 99.120 -67.0427
1.507766 99.258 -67.4756
1.518692 99.392 -67.9144
1.529697 99.523 -68.3585
1.540782 99.650 -68.8074
1.551947 99.774 -69.2606
1.563193 99.895 -69.7174
1.574521 100.012 -70.1774
1.585931 100.127 -70.6400
1.597423 100.238 -71.1046
1.608998 100.346 -71.5709
1.620658 100.452 -72.0384
1.632402 100.555 -72.5065
1.644231 100.656 -72.9747
1.656146 100.755 -73.4428
1.668147 100.851 -73.9102
1.680235 100.945 -74.3765
1.692410 101.038 -74.8413
1.704674 101.129 -75.3042
1.717027 101.219 -75.7648
1.729469 101.307 -76.2228
1.742002 101.395 -76.6777
1.754625 101.481 -77.1293
1.767340 101.568 -77.5772
1.780147 101.654 -78.0211
1.793046 101.739 -78.4608
1.806040 101.826 -78.8963
1.819127 101.912 -79.3284
1.832309 101.998 -79.7594
1.845587 102.083 -80.1934
1.858961 102.166 -80.6339
1.872431 102.247 -81.0823
1.886000 102.326 -81.5386
1.899666 102.402 -82.0023
1.913432 102.476 -82.4726
1.927298 102.548 -82.9485
1.941264 102.617 -83.4291
1.955331 102.685 -83.9135
1.969500 102.750 -84.4007
1.983772 102.813 -84.8898
1.998147 102.874 -85.3797
2.012626 102.934 -85.8693
2.027211 102.991 -86.3578
2.041901 103.047 -86.8440
2.056697 103.102 -87.3268
2.071601 103.154 -87.8051
2.086613 103.206 -88.2779
2.101733 103.256 -88.7439
2.116963 103.305 -89.2021
2.132303 103.353 -89.6512
2.147755 103.400 -90.0901
2.163318 103.447 -90.5180
2.178995 103.492 -90.9345
2.194785 103.537 -91.3409
2.210689 103.580 -91.7408
2.226709 103.621 -92.1387
2.242844 103.660 -92.5369
2.259097 103.697 -92.9361
2.275467 103.731 -93.3361
2.291956 103.763 -93.7365
2.308565 103.793 -94.1366
2.325294 103.821 -94.5355
2.342144 103.847 -94.9325
2.359116 103.872 -95.3268
2.376211 103.894 -95.7172
2.393430 103.915 -96.1030
2.410774 103.935 -96.4829
2.428243 103.953 -96.8558
2.445839 103.971 -97.2206
2.463562 103.987 -97.5759
2.481415 104.002 -97.9204
2.499396 104.017 -98.2527
2.517508 104.031 -98.5715
2.535750 104.045 -98.8754
2.554126 104.059 -99.1639
2.572634 104.071 -99.4375
2.591276 104.082 -99.6982
2.610054 104.091 -99.9475
2.628967 104.099 -100.1863
2.648018 104.104 -100.4149
2.667206 104.107 -100.6336
2.686534 104.109 -100.8423
2.706002 104.110 -101.0412
2.725610 104.109 -101.2301
2.745361 104.108 -101.4090
2.765255 104.105 -101.5780
2.785294 104.103 -101.7367
2.805477 104.100 -101.8851
2.825807 104.098 -102.0231
2.846284 104.096 -102.1504
2.866909 104.094 -102.2667
2.887684 104.094 -102.3718
2.908609 104.095 -102.4648
2.929686 104.096 -102.5443
2.950916 104.099 -102.6083
2.972299 104.101 -102.6550
2.993838 104.103 -102.6839
3.015532 104.106 -102.6957
3.037384 104.108 -102.6916
3.059394 104.110 -102.6728
3.081564 104.112 -102.6408
3.103894 104.116 -102.5972
3.126386 104.119 -102.5435
3.149041 104.124 -102.4814
3.171861 104.130 -102.4127
3.194845 104.137 -102.3392
3.217996 104.146 -102.2628
3.241315 104.156 -102.1852
3.264803 104.169 -102.1075
3.288461 104.183 -102.0294
3.312291 104.200 -101.9480
3.336293 104.220 -101.8590
3.360469 104.241 -101.7606
3.384820 104.265 -101.6531
3.409348 104.290 -101.5380
3.434054 104.318 -101.4175
3.458938 104.347 -101.2938
3.484003 104.377 -101.1693
3.509250 104.409 -101.0465
3.534679 104.441 -100.9280
3.560293 104.475 -100.8163
3.586092 104.509 -100.7140
3.612079 104.543 -100.6234
3.638253 104.578 -100.5463
3.664618 104.613 -100.4832
3.691173 104.650 -100.4322
3.717921 104.688 -100.3913
3.744862 104.728 -100.3591
3.771999 104.769 -100.3352
3.799332 104.812 -100.3196
3.826864 104.855 -100.3121
3.854595 104.898 -100.3127
3.882527 104.941 -100.3217
3.910661 104.983 -100.3389
3.938999 105.025 -100.3645
3.967543 105.064 -100.3988
3.996294 105.102 -100.4422
4.025252 105.138 -100.4961
4.054421 105.172 -100.5622
4.083801 105.205 -100.6422
4.113394 105.237 -100.7357
4.143201 105.268 -100.8411
4.173225 105.297 -100.9561
4.203466 105.325 -101.0783
4.233926 105.351 -101.2050
4.264606 105.376 -101.3335
4.295509 105.398 -101.4612
4.326636 105.418 -101.5856
4.357989 105.435 -101.7050
4.389569 105.450 -101.8196
4.421378 105.461 -101.9321
4.453417 105.469 -102.0462
4.485688 105.474 -102.1629
4.518193 105.477 -102.2806
4.550934 105.476 -102.3968
4.583912 105.474 -102.5082
4.617129 105.469 -102.6114
4.650587 105.463 -102.7027
4.684287 105.455 -102.7785
4.718231 105.446 -102.8356
4.752421 105.435 -102.8717
4.786859 105.422 -102.8873
4.821547 105.407 -102.8841
4.856485 105.390 -102.8635
4.891677 105.370 -102.8256
4.927125 105.348 -102.7700
4.962829 105.326 -102.6961
4.998791 105.304 -102.6033
5.035015 105.282 -102.4906
5.071500 105.263 -102.3570
5.108251 105.245 -102.2011
5.145267 105.229 -102.0202
5.182552 105.215 -101.8119
5.220107 105.201 -101.5761
5.257934 105.189 -101.3150
5.296035 105.177 -101.0325
5.334412 105.169 -100.7329
5.373067 105.162 -100.4211
5.412003 105.160 -100.1018
5.451221 105.161 -99.7786
5.490722 105.167 -99.4526
5.530510 105.178 -99.1206
5.570587 105.194 -98.7791
5.610953 105.214 -98.4291
5.651613 105.239 -98.0750
5.692567 105.266 -97.7227
5.733818 105.297 -97.3787
5.775367 105.331 -97.0495
5.817218 105.367 -96.7404
5.859372 105.405 -96.4543
5.901831 105.447 -96.1900
5.944598 105.493 -95.9450
5.987675 105.542 -95.7184
6.031065 105.593 -95.5110
6.074768 105.646 -95.3239
6.118788 105.699 -95.1587
6.163127 105.751 -95.0172
6.207788 105.801 -94.9011
6.252772 105.850 -94.8123
6.298082 105.899 -94.7517
6.343721 105.946 -94.7175
6.389690 105.993 -94.7060
6.435992 106.038 -94.7127
6.482630 106.081 -94.7330
6.529606 106.120 -94.7628
6.576922 106.156 -94.8005
6.624581 106.188 -94.8475
6.672585 106.217 -94.9071
6.720938 106.241 -94.9784
6.769640 106.263 -95.0570
6.818696 106.281 -95.1367
6.868107 106.296 -95.2109
6.917876 106.309 -95.2740
6.968006 106.318 -95.3237
7.018499 106.323 -95.3615
7.069358 106.326 -95.3893
7.120586 106.325 -95.4062
7.172184 106.321 -95.4096
7.224157 106.317 -95.3960
7.276506 106.312 -95.3617
7.329235 106.307 -95.3040
7.382345 106.301 -95.2216
7.435841 106.295 -95.1152
7.489724 106.288 -94.9871
7.543997 106.282 -94.8395
7.598664 106.277 -94.6750
7.653728 106.274 -94.4953
7.709189 106.274 -94.3002
7.765053 106.277 -94.0878
7.821322 106.282 -93.8590
7.877998 106.290 -93.6177
7.935086 106.299 -93.3694
7.992587 106.312 -93.1199
8.050504 106.327 -92.8730
8.108841 106.346 -92.6292
8.167601 106.368 -92.3874
8.226787 106.392 -92.1486
8.286402 106.418 -91.9156
8.346449 106.446 -91.6917
8.406931 106.474 -91.4799
8.467851 106.503 -91.2817
8.529212 106.533 -91.0966
8.591018 106.563 -90.9231
8.653272 106.594 -90.7594
8.715977 106.624 -90.6037
8.779137 106.653 -90.4553
8.842754 106.680 -90.3145
8.906833 106.706 -90.1813
8.971375 106.731 -90.0534
9.036386 106.755 -89.9269
9.101867 106.777 -89.7978
9.167823 106.798 -89.6637
9.234257 106.817 -89.5244
9.301172 106.834 -89.3800
9.368572 106.851 -89.2290
9.436460 106.866 -89.0692
9.504841 106.882 -88.8985
9.573717 106.898 -88.7158
9.643092 106.913 -88.5212
9.712970 106.928 -88.3159
9.783354 106.944 -88.1011
9.854248 106.961 -87.8780
9.925656 106.978 -87.6469
9.997581 106.997 -87.4076
10.070028 107.017 -87.1617
10.143000 107.038 -86.9115
10.216500 107.060 -86.6600
10.290533 107.083 -86.4084
10.365103 107.108 -86.1571
10.440212 107.132 -85.9063
10.515866 107.158 -85.6570
10.592069 107.183 -85.4103
10.668823 107.209 -85.1670
10.746134 107.234 -84.9270
10.824005 107.258 -84.6893
10.902440 107.283 -84.4525
10.981443 107.306 -84.2157
11.061020 107.328 -83.9785
11.141172 107.349 -83.7402
11.221906 107.369 -83.4994
11.303225 107.389 -83.2543
11.385133 107.407 -83.0034
11.467634 107.424 -82.7463
11.550734 107.440 -82.4827
11.634435 107.456 -82.2122
11.718742 107.471 -81.9341
11.803661 107.485 -81.6479
11.889195 107.500 -81.3540
11.975349 107.513 -81.0527
12.062128 107.527 -80.7447
12.149535 107.540 -80.4303
12.237576 107.553 -80.1094
12.326254 107.566 -79.7822
12.415575 107.578 -79.4491
12.505544 107.590 -79.1100
12.596164 107.602 -78.7649
12.687441 107.612 -78.4130
12.779379 107.623 -78.0535
12.871984 107.633 -77.6858
12.965260 107.642 -77.3097
13.059211 107.651 -76.9244
13.153843 107.660 -76.5295
13.249161 107.669 -76.1244
13.345170 107.679 -75.7094
13.441875 107.688 -75.2856
13.539280 107.699 -74.8546
13.637391 107.711 -74.4172
13.736214 107.725 -73.9751
13.835752 107.739 -73.5314
13.936011 107.755 -73.0895
14.036998 107.772 -72.6512
14.138716 107.790 -72.2183
14.241171 107.809 -71.7940
14.344368 107.827 -71.3803
14.448313 107.846 -70.9777
14.553011 107.864 -70.5857
14.658468 107.880 -70.2036
14.764689 107.895 -69.8305
14.871680 107.907 -69.4636
14.979446 107.917 -69.0983
15.087994 107.923 -68.7310
15.197328 107.928 -68.3585
15.307454 107.929 -67.9763
15.418378 107.929 -67.5794
15.530106 107.927 -67.1655
15.642643 107.925 -66.7330
15.755996 107.923 -66.2809
15.870171 107.921 -65.8090
15.985172 107.922 -65.3204
16.101007 107.925 -64.8199
16.217682 107.932 -64.3119
16.335201 107.942 -63.8018
16.453573 107.956 -63.2979
16.572803 107.973 -62.8069
16.692898 107.993 -62.3335
16.813862 108.014 -61.8826
16.935701 108.036 -61.4583
17.058424 108.057 -61.0606
17.182035 108.077 -60.6872
17.306543 108.093 -60.3352
17.431953 108.106 -59.9995
17.558273 108.115 -59.6711
17.685509 108.118 -59.3418
17.813665 108.117 -59.0042
17.942751 108.112 -58.6485
18.072771 108.104 -58.2674
18.203733 108.094 -57.8567
18.335646 108.083 -57.4133
18.468513 108.074 -56.9365
18.602345 108.066 -56.4302
18.737144 108.063 -55.9005
18.872921 108.063 -55.3538
19.009682 108.068 -54.7998
19.147434 108.077 -54.2478
19.286184 108.090 -53.7040
19.425940 108.104 -53.1742
19.566708 108.120 -52.6612
19.708496 108.136 -52.1635
19.851313 108.150 -51.6771
19.995163 108.162 -51.1968
20.140057 108.171 -50.7140
20.285999 108.178 -50.2211
20.433001 108.183 -49.7124
20.581066 108.187 -49.1831
20.730206 108.192 -48.6324
20.880424 108.198 -48.0636
21.031733 108.207 -47.4818
21.184137 108.219 -46.8955
21.337646 108.233 -46.3144
21.492268 108.249 -45.7455
21.648010 108.266 -45.1944
21.804880 108.280 -44.6630
21.962887 108.292 -44.1469
22.122040 108.298 -43.6389
22.282345 108.299 -43.1273
22.443811 108.293 -42.5978
22.606449 108.283 -42.0384
22.770266 108.268 -41.4373
22.935268 108.252 -40.7886
23.101467 108.237 -40.0923
23.268869 108.225 -39.3536
23.437485 108.217 -38.5849
23.607323 108.216 -37.8011
23.778391 108.220 -37.0180
23.950699 108.228 -36.2501
24.124256 108.239 -35.5053
24.299070 108.249 -34.7868
24.475151 108.257 -34.0907
24.652508 108.261 -33.4075
24.831150 108.261 -32.7260
25.011087 108.257 -32.0332
25.192327 108.250 -31.3206
25.374882 108.243 -30.5833
25.558758 108.236 -29.8224
25.743967 108.233 -29.0453
25.930519 108.232 -28.2618
26.118422 108.235 -27.4845
26.307686 108.240 -26.7226
26.498322 108.246 -25.9828
26.690340 108.251 -25.2657
26.883749 108.253 -24.5670
27.078560 108.253 -23.8786
27.274782 108.248 -23.1901
27.472427 108.240 -22.4922
27.671503 108.229 -21.7769
27.872023 108.217 -21.0399
28.073996 108.206 -20.2800
28.277431 108.195 -19.4992
28.482342 108.187 -18.7010
28.688736 108.180 -17.8903
28.896626 108.177 -17.0718
29.106022 108.176 -16.2506
29.316936 108.178 -15.4320
29.529379 108.182 -14.6211
29.743361 108.187 -13.8230
29.958893 108.193 -13.0413
30.175987 108.199 -12.2770
30.394655 108.201 -11.5267
30.614908 108.200 -10.7828
30.836756 108.194 -10.0329
31.060211 108.182 -9.2629
31.285286 108.167 -8.4587
31.511992 108.149 -7.6108
31.740341 108.132 -6.7159
31.970345 108.117 -5.7792
32.202015 108.107 -4.8121
32.435364 108.101 -3.8302
32.670403 108.100 -2.8479
32.907146 108.101 -1.8750
33.145607 108.102 -0.9141
33.385796 108.102 0.0389
33.627724 108.100 0.9914
33.871403 108.097 1.9519
34.116848 108.092 2.9243
34.364071 108.088 3.9079
34.613087 108.084 4.8968
34.863907 108.082 5.8841
35.116547 108.079 6.8652
35.371017 108.075 7.8396
35.627331 108.069 8.8116
35.885502 108.062 9.7865
36.145542 108.054 10.7669
36.407467 108.047 11.7490
36.671291 108.041 12.7231
36.937027 108.037 13.6766
37.204689 108.031 14.6003
37.474289 108.021 15.4950
37.745842 108.006 16.3716
38.019363 107.983 17.2488
38.294868 107.954 18.1444
38.572369 107.921 19.0665
38.851879 107.886 20.0117
39.133415 107.849 20.9700
39.416992 107.808 21.9379
39.702625 107.759 22.9344
39.990326 107.699 24.0053
40.280113 107.632 25.2145
40.571999 107.568 26.6175
40.866001 107.525 28.2189
41.162132 107.521 29.9414
41.460411 107.565 31.6329
41.760849 107.651 33.1101
42.063465 107.759 34.2306
42.368275 107.854 34.9604
42.675293 107.907 35.3899
42.984535 107.899 35.7003
43.296021 107.829 36.1119
43.609760 107.711 36.8256
43.925774 107.575 37.9591
44.244080 107.457 39.4975
44.564690 107.380 41.2977
44.887623 107.353 43.1580
45.212898 107.362 44.9084
45.540531 107.390 46.4701
45.870537 107.417 47.8570
46.202934 107.433 49.1334
46.537739 107.439 50.3627
46.874969 107.436 51.5783
47.214645 107.426 52.7864
47.556782 107.409 53.9888
47.901398 107.383 55.2021
48.248512 107.349 56.4532
48.598141 107.312 57.7600
48.950302 107.278 59.1141
49.305016 107.249 60.4824
49.662300 107.225 61.8306
50.022175 107.199 63.1484
50.384655 107.169 64.4561
50.749763 107.134 65.7875
51.117516 107.099 67.1621
51.487934 107.070 68.5694
51.861038 107.049 69.9773
52.236843 107.032 71.3575
52.615372 107.016 72.7046
52.996643 106.997 74.0346
53.380680 106.976 75.3690
53.767498 106.954 76.7187
54.157120 106.933 78.0823
54.549564 106.911 79.4550
54.944855 106.889 80.8375
55.343006 106.866 82.2358
55.744045 106.841 83.6556
56.147991 106.815 85.0984
56.554863 106.788 86.5646
56.964684 106.759 88.0583
57.377472 106.728 89.5873
57.793251 106.698 91.1568
58.212044 106.668 92.7614
58.633873 106.642 94.3839
59.058758 106.617 96.0032
59.486721 106.591 97.6059
59.917786 106.561 99.1937
60.351974 106.524 100.7817
60.789310 106.480 102.3889
61.229816 106.430 104.0307
61.673512 106.376 105.7195
62.120422 106.319 107.4689
62.570572 106.266 109.2857
63.023983 106.221 111.1519
63.480682 106.190 113.0141
63.940689 106.171 114.8036
64.404030 106.154 116.4785
64.870728 106.130 118.0490
65.340805 106.092 119.5646
65.814293 106.041 121.0850
66.291214 105.977 122.6646
66.771591 105.907 124.3495
67.255447 105.840 126.1603
67.742805 105.786 128.0654
68.233696 105.748 129.9898
68.728142 105.723 131.8728
69.226173 105.700 133.7102
69.727814 105.678 135.5250
70.233093 105.656 137.3120
70.742035 105.629 139.0483
71.254662 105.588 140.7617
71.771004 105.530 142.5434
72.291084 105.464 144.4615
72.814934 105.404 146.4834
73.342583 105.351 148.5185
73.874054 105.297 150.5279
74.409378 105.237 152.5506
74.948578 105.176 154.6296
75.491684 105.121 156.7497
76.038727 105.074 158.8534
76.589737 105.030 160.8980
77.144737 104.983 162.8956
77.703758 104.931 164.9057
78.266830 104.878 166.9694
78.833984 104.832 169.0562
79.405251 104.788 171.1221
79.980652 104.739 173.2113
80.560226 104.689 175.4118
81.143997 104.656 177.6850
81.732002 104.637 179.8579
82.324265 104.609 -178.1417
82.920822 104.553 -176.1721
83.521698 104.477 -174.0745
84.126930 104.401 -171.8564
84.736549 104.327 -169.6040
85.350586 104.253 -167.3289
85.969070 104.184 -165.0215
86.592041 104.124 -162.7470
87.219521 104.064 -160.5565
87.851547 103.994 -158.3859
88.488159 103.917 -156.1273
89.129379 103.845 -153.7560
89.775246 103.783 -151.3243
90.425797 103.728 -148.8813
91.081062 103.675 -146.4402
91.741074 103.618 -143.9964
92.405869 103.557 -141.5403
93.075478 103.489 -139.0677
93.749939 103.418 -136.5975
94.429291 103.341 -134.1614
95.113564 103.255 -131.7498
95.802795 103.163 -129.3133
96.497025 103.075 -126.8470
97.196281 102.994 -124.3897
97.900604 102.918 -121.9329
98.610031 102.852 -119.4542
99.324600 102.801 -116.9818
100.044350 102.762 -114.5338
100.769310 102.738 -112.2234
101.499527 102.705 -110.3364
102.235031 102.589 -108.7796
102.975868 102.363 -106.7617
103.722076 102.116 -103.7087
104.473686 101.947 -100.1082
105.230743 101.852 -96.6583
105.993286 101.792 -93.3732
106.761360 101.763 -90.1217
107.534996 101.756 -86.9865
108.314240 101.747 -83.9656
109.099129 101.719 -80.9106
109.889709 101.675 -77.6524
110.686012 101.634 -74.2196
111.488091 101.604 -71.0026
112.295982 101.540 -68.2497
113.109726 101.419 -65.6748
113.929367 101.280 -63.0736
114.754944 101.164 -60.6513
115.586502 101.086 -58.5524
116.424088 101.061 -56.7654
117.267746 101.094 -55.3812
118.117516 101.133 -54.7250
118.973442 101.016 -54.5634
119.835571 100.622 -52.8975
120.703949 100.105 -47.6018
121.578621 99.745 -40.0550
122.459633 99.566 -33.0216
123.347023 99.478 -26.8986
124.240845 99.432 -21.7878
125.141144 99.368 -17.7186
126.047966 99.304 -14.2777
126.961365 99.294 -11.7129
127.881378 99.307 -10.2939
128.808060 99.279 -9.3245
129.741455 99.213 -7.6120
130.681610 99.167 -4.6951
131.628586 99.135 -0.5874
132.582428 99.145 5.8986
133.543182 99.430 15.7944
134.510895 100.178 26.9980
135.485611 101.204 34.4099
136.467392 102.012 35.3928
137.456284 102.210 32.4185
138.452347 101.740 29.4707
139.455627 100.828 29.1404
140.466187 99.780 31.8376
141.484070 98.819 37.0679
142.509323 98.088 44.4352
143.542007 97.686 53.5317
144.582169 97.663 63.0151
145.629868 97.883 69.5282
146.685165 97.998 71.7032
147.748108 97.864 71.9905
148.818756 97.771 72.3336
149.897156 98.060 71.5288
150.983368 98.599 67.6678
152.077454 98.931 61.7500
153.179474 98.806 57.5082
154.289474 98.340 59.6940
155.407516 97.939 73.5807
156.533661 98.052 94.9907
157.667969 98.619 109.7399
158.810501 99.174 115.7862
159.961304 99.270 115.9866
161.120453 98.751 113.9214
162.287994 97.842 112.8946
163.464005 96.915 117.3979
164.648529 96.326 128.6483
165.841644 96.144 134.8047
167.043396 96.168 135.6553
168.253860 96.295 136.7740
169.473099 96.422 139.4990
170.701172 96.451 143.6883
171.938141 96.362 148.6489
173.184082 96.177 153.7613
174.439041 95.969 158.8560
175.703094 95.812 163.6475
176.976318 95.714 168.0931
178.258759 95.653 172.7634
179.550491 95.633 177.9044
180.851593 95.633 -176.7874
182.162125 95.642 -171.2312
183.482147 95.673 -165.7700
184.811737 95.674 -161.2324
186.150955 95.597 -156.9529
187.499878 95.533 -152.2587
188.858582 95.577 -147.5211
190.227127 95.757 -143.1516
191.605591 96.000 -139.6021
192.994049 96.141 -136.8184
194.392563 96.035 -133.3232
195.801208 95.738 -127.1664
197.220062 95.435 -119.1349
198.649200 95.195 -111.2362
200.088699 95.006 -104.1147
201.538620 94.880 -97.8365
202.999054 94.829 -92.5004
204.470062 94.812 -87.9394
205.951736 94.765 -83.3846
207.444153 94.676 -77.9204
208.947372 94.582 -71.6185
210.461487 94.506 -65.3023
211.986572 94.445 -59.4615
213.522720 94.403 -54.0200
215.069992 94.392 -48.8010
216.628479 94.404 -43.6525
218.198257 94.417 -38.4283
219.779419 94.414 -32.9510
221.372025 94.404 -27.0527
222.976181 94.405 -20.9159
224.591965 94.404 -14.8095
226.219452 94.383 -8.7326
227.858734 94.343 -2.8208
229.509888 94.302 2.8013
231.173004 94.289 8.2880
232.848175 94.325 13.7852
234.535492 94.370 19.2506
236.235031 94.361 24.7482
237.946884 94.297 30.0768
239.671143 94.282 34.5282
241.407898 94.449 37.2725
243.157242 94.771 38.3994
244.919266 95.008 40.0496
246.694046 94.989 45.9025
248.481689 94.826 56.3593
250.282288 94.659 67.5474
252.095932 94.514 77.0681
253.922729 94.391 84.6796
255.762756 94.308 91.2913
257.616119 94.277 97.8760
259.482910 94.254 104.6040
261.363220 94.182 111.1884
263.257172 94.073 117.3480
265.164856 94.016 123.2737
267.086365 94.118 129.3477
269.021790 94.391 135.5796
270.971222 94.731 141.6140
272.934784 94.994 146.9937
274.912567 95.085 152.0150
276.904694 95.015 157.5714
278.911255 94.878 164.0955
280.932373 94.756 171.0551
282.968140 94.675 177.8392
285.018646 94.636 -175.7314
287.084015 94.635 -169.5083
289.164337 94.673 -163.1370
291.259735 94.743 -156.5935
293.370331 94.816 -150.1802
295.496216 94.859 -143.9207
297.637512 94.870 -137.6252
299.794312 94.870 -131.2039
301.966736 94.869 -124.7373
304.154907 94.864 -118.2957
306.358948 94.851 -111.8376
308.578949 94.839 -105.3018
310.815033 94.836 -98.7223
313.067322 94.843 -92.1064
315.335938 94.860 -85.4668
317.621002 94.881 -78.8790
319.922607 94.883 -72.3279
322.240906 94.848 -65.6840
324.575989 94.771 -58.9052
326.928009 94.676 -51.9663
329.297058 94.618 -44.8577
331.683289 94.633 -37.7913
334.086792 94.695 -30.8975
336.507721 94.757 -24.0055
338.946198 94.790 -17.0522
341.402344 94.791 -10.0457
343.876282 94.771 -2.9869
346.368164 94.747 4.1265
348.878082 94.733 11.3063
351.406189 94.738 18.4578
353.952637 94.751 25.5408
356.517517 94.760 32.6547
359.100983 94.761 39.8627
361.703186 94.760 47.1654
364.324249 94.760 54.5540
366.964294 94.760 61.9838
369.623474 94.757 69.3673
372.301910 94.746 76.6979
374.999756 94.729 84.0675
377.717163 94.714 91.5605
380.454254 94.706 99.2422
383.211182 94.705 107.0640
385.988098 94.704 114.8805
388.785126 94.700 122.6011
391.602417 94.693 130.2440
394.440125 94.685 137.8976
397.298401 94.678 145.6011
400.177399 94.672 153.3485
403.077240 94.660 161.1416
405.998108 94.638 168.9342
408.940125 94.608 176.6772
411.903473 94.586 -175.4692
414.888306 94.586 -167.3190
417.894745 94.601 -159.0421
420.922974 94.612 -150.8047
423.973145 94.613 -142.6166
427.045441 94.608 -134.4264
430.139984 94.604 -126.2115
433.256958 94.605 -117.9580
436.396515 94.610 -109.6427
439.558838 94.612 -101.2810
442.744049 94.609 -92.8849
445.952362 94.602 -84.4360
449.183929 94.593 -75.9482
452.438904 94.584 -67.4612
455.717468 94.576 -58.9681
459.019775 94.570 -50.4308
462.346008 94.567 -41.8281
465.696350 94.566 -33.1807
469.070984 94.564 -24.5072
472.470062 94.562 -15.7859
475.893768 94.560 -7.0006
479.342285 94.556 1.8411
482.815796 94.550 10.7195
486.314484 94.544 19.6111
489.838531 94.540 28.5289
493.388092 94.540 37.5116
496.963379 94.544 46.5571
500.564575 94.548 55.6315
504.191864 94.552 64.7241
507.845459 94.555 73.8364
511.525513 94.559 82.9891
515.232239 94.562 92.2131
518.965820 94.566 101.4990
522.726440 94.569 110.8252
526.514343 94.572 120.1892
530.329712 94.574 129.5917
534.172729 94.576 139.0262
538.043579 94.579 148.4904
541.942444 94.581 158.0042
545.869568 94.585 167.5812
549.825134 94.591 177.2072
553.809387 94.598 -173.1345
557.822510 94.605 -163.4595
561.864746 94.609 -153.7676
565.936279 94.611 -144.0416
570.037292 94.614 -134.2723
574.168030 94.619 -124.4392
578.328674 94.628 -114.5348
582.519470 94.639 -104.5859
586.740662 94.650 -94.6035
590.992432 94.659 -84.5876
595.275024 94.669 -74.5349
599.588623 94.679 -64.4359
603.933472 94.689 -54.2874
608.309814 94.700 -44.0929
612.717896 94.712 -33.8610
617.157898 94.722 -23.5936
621.630066 94.730 -13.2854
626.134644 94.736 -2.9399
630.671875 94.743 7.4451
635.242004 94.751 17.8839
639.845215 94.761 28.3776
644.481812 94.774 38.9198
649.151978 94.788 49.5062
653.856018 94.802 60.1260
658.594116 94.815 70.7778
663.366577 94.828 81.4717
668.173584 94.840 92.2114
673.015442 94.852 103.0000
677.892395 94.863 113.8359
682.804688 94.873 124.7173
687.752563 94.883 135.6470
692.736328 94.896 146.6265
697.756165 94.910 157.6475
702.812378 94.922 168.6992
707.905273 94.935 179.7861
713.035034 94.949 -169.0820
718.201965 94.963 -157.8953
723.406372 94.976 -146.6484
728.648499 94.989 -135.3435
733.928589 95.001 -123.9873
739.246948 95.014 -112.5933
744.603821 95.028 -101.1628
749.999512 95.041 -89.6985
755.434326 95.054 -78.1978
760.908508 95.068 -66.6511
766.422363 95.082 -55.0479
771.976196 95.095 -43.3835
777.570251 95.108 -31.6582
783.204834 95.124 -19.8833
788.880249 95.142 -8.0632
794.596802 95.160 3.7986
800.354797 95.179 15.7009
806.154480 95.195 27.6497
811.996216 95.210 39.6423
817.880249 95.225 51.6765
823.806946 95.240 63.7578
829.776611 95.258 75.8872
835.789490 95.277 88.0730
841.845947 95.297 100.3164
847.946289 95.316 112.6082
854.090881 95.338 124.9438
860.279968 95.362 137.3154
866.513916 95.384 149.7288
872.793030 95.405 162.1934
879.117676 95.423 174.7170
885.488098 95.444 -172.7048
891.904724 95.466 -160.0857
898.367859 95.489 -147.4282
904.877808 95.511 -134.7253
911.434937 95.533 -121.9675
918.039551 95.556 -109.1580
924.692017 95.579 -96.2993
931.392700 95.604 -83.3997
938.141968 95.630 -70.4646
944.940125 95.656 -57.4758
951.787537 95.683 -44.4192
958.684570 95.710 -31.3184
965.631592 95.739 -18.1931
972.628967 95.767 -5.0405
979.677063 95.795 8.1533
986.776184 95.822 21.4043
993.926758 95.849 34.7188
1001.129150 95.874 48.0908
1008.383728 95.898 61.5183
1015.690918 95.921 75.0000
1023.051025 95.948 88.5186
1030.464478 95.977 102.0662
1037.931641 96.006 115.6589
1045.452881 96.036 129.3132
1053.028687 96.065 143.0256
1060.659424 96.095 156.7771
1068.345459 96.124 170.5625
1076.087158 96.152 -175.6099
1083.884888 96.180 -161.7366
1091.739136 96.208 -147.8096
1099.650269 96.235 -133.8186
1107.618774 96.263 -119.7793
1115.645020 96.290 -105.7061
1123.729492 96.318 -91.5852
1131.872559 96.349 -77.3982
1140.074585 96.383 -63.1360
1148.336060 96.417 -48.8047
1156.657349 96.452 -34.4153
1165.038940 96.487 -19.9724
1173.481323 96.524 -5.4912
1181.984863 96.563 9.0310
1190.550049 96.604 23.6086
1199.177246 96.649 38.2451
1207.866943 96.697 52.9299
1216.619629 96.749 67.6494
1225.435791 96.803 82.3906
1234.315796 96.857 97.1572
1243.260132 96.910 111.9561
1252.269287 96.965 126.7842
1261.343750 97.019 141.6423
1270.484009 97.073 156.5342
1279.690430 97.127 171.4636
1288.963623 97.179 -173.5754
1298.303955 97.230 -158.5906
1307.712036 97.281 -143.5757
1317.188232 97.330 -128.5183
1326.733154 97.379 -113.4045
1336.347168 97.429 -98.2319
1346.030884 97.479 -83.0110
1355.784790 97.529 -67.7449
1365.609375 97.580 -52.4355
1375.505127 97.632 -37.0815
1385.472656 97.685 -21.6755
1395.512329 97.737 -6.2229
1405.624756 97.789 9.2698
1415.810547 97.841 24.7961
1426.070068 97.894 40.3516
1436.403931 97.945 55.9490
1446.812744 97.997 71.5989
1457.296997 98.049 87.2952
1467.857178 98.102 103.0337
1478.493896 98.155 118.8206
1489.207642 98.208 134.6614
1499.999023 98.260 150.5520
1510.868652 98.313 166.4775
1521.817017 98.367 -177.5713
1532.844727 98.421 -161.5874
1543.952393 98.474 -145.5598
1555.140503 98.527 -129.4851
1566.409668 98.582 -113.3665
1577.760498 98.636 -97.2151
1589.193604 98.690 -81.0400
1600.709595 98.744 -64.8391
1612.308960 98.796 -48.5974
1623.992432 98.849 -32.2998
1635.760498 98.902 -15.9475
1647.613892 98.958 0.4509
1659.553223 99.014 16.8921
1671.578979 99.069 33.3701
1683.691895 99.123 49.8823
1695.892578 99.179 66.4280
1708.181763 99.234 83.0076
1720.559937 99.289 99.6157
1733.027832 99.344 116.2480
1745.586060 99.398 132.9180
1758.235352 99.453 149.6377
1770.976196 99.509 166.4111
1783.809448 99.566 -176.7668
1796.735718 99.623 -159.9165
1809.755615 99.680 -143.0430
1822.869873 99.738 -126.1343
1836.079102 99.797 -109.1824
1849.384033 99.857 -92.1860
1862.785400 99.916 -75.1418
1876.283936 99.976 -58.0564
1889.880249 100.036 -40.9473
1903.575073 100.097 -23.8184
1917.369141 100.158 -6.6660
1931.263184 100.219 10.5142
1945.257935 100.280 27.7275
1959.354126 100.341 44.9858
1973.552368 100.404 62.2891
1987.853516 100.468 79.6255
2002.258301 100.531 96.9932
2016.767456 100.593 114.3936
2031.381836 100.656 131.8184
2046.102051 100.719 149.2603
2060.928955 100.782 166.7314
2075.863281 100.845 -175.7563
2090.905762 100.906 -158.1948
2106.057373 100.970 -140.5889
2121.318848 101.035 -122.9517
2136.690918 101.102 -105.2837
2152.174316 101.170 -87.5771
2167.769775 101.239 -69.8330
2183.478271 101.310 -52.0542
2199.300537 101.381 -34.2344
2215.237549 101.455 -16.3672
2231.290039 101.532 1.5527
2247.458984 101.611 19.5293
2263.745117 101.694 37.5576
2280.149170 101.782 55.6172
2296.672119 101.873 73.7007
2313.314697 101.968 91.8213
2330.077881 102.068 109.9980
2346.962646 102.177 128.2500
2363.969727 102.298 146.5737
2381.100098 102.432 164.9536
2398.354492 102.582 -176.6211
2415.733887 102.750 -158.1733
2433.239258 102.938 -139.7490
2450.871582 103.146 -121.4146
2468.631592 103.370 -103.2397
2486.520264 103.602 -85.2559
2504.538574 103.836 -67.4619
2522.687500 104.066 -49.8325
2540.968018 104.289 -32.3311
2559.380859 104.503 -14.9258
2577.927246 104.706 2.4106
2596.607910 104.900 19.7100
2615.424072 105.087 36.9995
2634.376465 105.270 54.2803
2653.466309 105.450 71.5239
2672.694336 105.626 88.7095
2692.061768 105.796 105.8320
2711.569580 105.960 122.8916
2731.218750 106.116 139.8970
2751.010254 106.264 156.8618
2770.945312 106.402 173.7993
2791.024658 106.531 -169.2798
2811.249512 106.649 -152.3643
2831.621094 106.758 -135.4429
2852.140137 106.860 -118.5220
2872.807861 106.954 -101.6118
2893.625488 107.040 -84.7075
2914.593994 107.120 -67.8013
2935.714355 107.194 -50.8887
2956.987793 107.263 -33.9678
2978.415283 107.329 -17.0342
2999.998047 107.390 -0.0854
3021.737305 107.446 16.8730
3043.634033 107.500 33.8330
3065.689453 107.549 50.7832
3087.904785 107.595 67.7144
3110.281006 107.638 84.6304
3132.819336 107.677 101.5386
3155.520996 107.715 118.4429
3178.387207 107.752 135.3364
3201.419189 107.788 152.1963
3224.617920 107.822 169.0088
3247.984863 107.851 -174.2153
3271.520996 107.877 -157.4639
3295.227783 107.901 -140.7334
3319.106445 107.924 -124.0293
3343.157959 107.943 -107.3511
3367.383789 107.957 -90.6982
3391.785156 107.965 -74.0771
3416.363525 107.968 -57.4834
3441.119873 107.966 -40.9155
3466.055664 107.957 -24.3696
3491.172119 107.943 -7.8374
3516.470703 107.924 8.6899
3541.952393 107.902 25.2192
3567.618896 107.878 41.7451
3593.471436 107.852 58.2339
3619.511230 107.824 74.6729
3645.739746 107.794 91.0859
3672.158203 107.763 107.4932
3698.768066 107.735 123.8955
3725.570801 107.710 140.2866
3752.567871 107.686 156.6553
3779.760498 107.661 172.9888
3807.150146 107.635 -170.7212
3834.738281 107.608 -154.4863
3862.526367 107.580 -138.3213
3890.515869 107.549 -122.2324
3918.708252 107.516 -106.2085
3947.104736 107.481 -90.2373
3975.707031 107.445 -74.3081
4004.516602 107.407 -58.4199
4033.534912 107.368 -42.5776
4062.763672 107.326 -26.7832
4092.204102 107.281 -11.0322
4121.857910 107.234 4.6807
4151.726562 107.187 20.3477
4181.811523 107.139 35.9478
4212.114746 107.090 51.4819
4242.637695 107.042 66.9712
4273.381836 106.996 82.4287
4304.348633 106.956 97.8506
4335.539551 106.921 113.2207
4366.956543 106.888 128.5195
4398.601074 106.858 143.7393
4430.475098 106.832 158.8765
4462.580078 106.808 173.9302
4494.917969 106.787 -171.1001
4527.490234 106.769 -156.2158
4560.298340 106.753 -141.4160
4593.344238 106.741 -126.7012
4626.629395 106.732 -112.0806
4660.155762 106.727 -97.5728
4693.925293 106.725 -83.1914
4727.939453 106.727 -68.9253
4762.200195 106.733 -54.7588
4796.708984 106.744 -40.6904
4831.467773 106.762 -26.7334
4866.478516 106.784 -12.9019
4901.743164 106.810 0.8062
4937.263184 106.842 14.3940
4973.040527 106.880 27.8594
5009.077148 106.925 41.1934
5045.375000 106.976 54.3848
5081.936035 107.032 67.4219
5118.761719 107.094 80.2979
5155.854492 107.161 93.0093
5193.215820 107.234 105.5366
5230.848145 107.312 117.8379
5268.752930 107.392 129.9043
5306.932617 107.475 141.7754
5345.388672 107.565 153.4932
5384.123535 107.665 165.0771
5423.139160 107.774 176.5176
5462.437500 107.889 -172.2104
5502.020508 108.011 -161.1245
5541.890625 108.141 -150.2393
5582.049316 108.280 -139.5664
5622.499023 108.427 -129.1162
5663.242188 108.584 -118.8945
5704.280273 108.751 -108.9141
5745.615723 108.929 -99.1875
5787.250977 109.117 -89.7329
5829.187988 109.316 -80.5728
5871.428711 109.526 -71.7354
5913.975586 109.744 -63.2339
5956.830566 109.974 -55.0737
5999.996094 110.214 -47.2637
6043.474609 110.463 -39.8252
6087.268066 110.719 -32.7930
6131.378906 110.979 -26.2031
6175.809570 111.237 -20.0879
6220.562012 111.491 -14.4805
6265.638672 111.733 -9.4146
6311.041992 111.956 -4.9233
6356.774414 112.151 -1.0083
6402.838379 112.308 2.3726
6449.235840 112.424 5.2822
6495.969727 112.492 7.7822
6543.041992 112.501 9.9209
6590.455566 112.446 11.7500
6638.212891 112.325 13.3496
6686.315918 112.140 14.8052
6734.767578 111.895 16.1978
6783.570312 111.598 17.5977
6832.727051 111.258 19.0439
6882.239746 110.887 20.5557
6932.111328 110.495 22.1289
6982.344238 110.091 23.7407
7032.941406 109.684 25.3477
7083.904785 109.279 26.9082
7135.237793 108.879 28.3960
7186.942871 108.489 29.8052
7239.022461 108.113 31.1328
7291.479492 107.754 32.3618
7344.316406 107.413 33.4595
7397.536133 107.091 34.3906
7451.141602 106.792 35.1245
7505.135742 106.516 35.6328
7559.520996 106.267 35.8740
7614.300293 106.044 35.7988
7669.476562 105.844 35.3750
7725.052734 105.672 34.6113
7781.031738 105.532 33.5332
7837.416504 105.425 32.1328
7894.209473 105.349 30.3462
7951.414062 105.302 28.1123
8009.033203 105.285 25.4185
8067.069824 105.303 22.2793
8125.527344 105.361 18.6963
8184.408203 105.457 14.6206
8243.715820 105.590 9.9751
8303.453125 105.762 4.6831
8363.623047 105.970 -1.3242
8424.229492 106.213 -8.1152
8485.275391 106.482 -15.7651
8546.763672 106.767 -24.3457
8608.697266 107.051 -33.9087
8671.079102 107.311 -44.4839
8733.913086 107.522 -56.0728
8797.202148 107.660 -68.6387
8860.950195 107.698 -82.1055
8925.160156 107.617 -96.3398
8989.835938 107.415 -111.1284
9054.980469 107.095 -126.2139
9120.596680 106.670 -141.4150
9186.688477 106.154 -156.6704
9253.258789 105.568 -171.9634
9320.311523 104.934 172.7065
9387.850586 104.272 157.3228
9455.878906 103.599 141.8496
9524.400391 102.928 126.2344
9593.417969 102.265 110.4131
9662.935547 101.618 94.3403
9732.957031 100.989 77.9946
9803.486328 100.383 61.3564
9874.526367 99.798 44.3789
9946.081055 99.234 27.0107
10018.154297 98.693 9.2144
10090.750000 98.174 -9.0469
10163.872070 97.678 -27.8062
10237.523438 97.204 -47.1050
10311.708984 96.748 -67.0000
10386.431641 96.310 -87.5215
10461.696289 95.891 -108.6221
10537.505859 95.494 -130.2373
10613.865234 95.116 -152.4077
10690.777344 94.754 -175.2290
10768.247070 94.406 161.2407
10846.278320 94.074 137.0479
10924.875000 93.761 112.3047
11004.041016 93.464 87.0142
11083.781250 93.180 61.0859
11164.098633 92.910 34.4824
11244.998047 92.653 7.1846
11326.484375 92.410 -20.8330
11408.560547 92.182 -49.6011
11491.231445 91.971 -79.1621
11574.501953 91.774 -109.5508
11658.375977 91.593 -140.7490
11742.857422 91.428 -172.6660
11827.951172 91.279 154.7422
11913.661133 91.144 121.4351
11999.992188 91.022 87.3535
12086.949219 90.914 52.4370
12174.536133 90.823 16.6641
12262.757812 90.751 -19.9751
12351.619141 90.696 -57.4961
12441.124023 90.657 -95.9585
12531.277344 90.635 -135.4053
12622.083984 90.631 -175.7139
12713.548828 90.648 143.2783
12805.676758 90.684 101.4482
12898.471680 90.736 58.4858
12991.939453 90.806 14.1650
13086.083984 90.899 -31.2036
13180.911133 91.018 -77.1353
13276.425781 91.162 -123.7974
13372.631836 91.333 -171.5078
13469.535156 91.532 139.6831
13567.140625 91.764 89.7754
13665.454102 92.030 38.8110
13764.479492 92.332 -13.2139
13864.222656 92.672 -66.4712
13964.688477 93.053 -121.2861
14065.882812 93.482 -177.5488
14167.809570 93.968 125.4531
14270.475586 94.518 67.6167
14373.885742 95.141 8.2788
14478.044922 95.844 -53.1880
14582.958984 96.636 -116.8110
14688.632812 97.521 178.6050
14795.072266 98.493 113.0625
14902.283203 99.529 45.4390
15010.271484 100.593 -24.4697
15119.041992 101.624 -96.4622
15228.600586 102.539 -170.6975
15338.953125 103.247 112.7334
15450.105469 103.663 34.1494
15562.063477 103.734 -45.8481
15674.833008 103.456 -126.5332
15788.418945 102.871 152.1516
15902.828125 102.065 69.8127
16018.066406 101.133 -12.1831
16134.139648 100.167 -93.3530
16251.054688 99.235 -178.3611
16368.816406 98.390 91.6101
16487.431641 97.664 6.7893
16606.906250 97.074 -76.5703
16727.246094 96.631 -163.6792
16848.458984 96.339 107.2749
16970.550781 96.189 17.1682
17093.527344 96.162 -75.0149
17217.394531 96.236 -168.9175
17342.158203 96.393 97.5083
17467.826172 96.609 -0.0159
17594.404297 96.848 -105.6970
17721.900391 97.044 152.9763
17850.320312 97.111 51.1097
17979.671875 96.953 -56.4395
18109.960938 96.497 -165.4377
18241.193359 95.709 84.9624
18373.376953 94.603 -26.9398
18506.517578 93.235 -137.7056
18640.623047 91.681 109.5118
18775.701172 90.024 -0.1544
18911.757812 88.337 -113.4062
19048.800781 86.682 122.2225
19186.835938 85.097 12.3288
19325.871094 83.602 -96.5402
19465.914062 82.205 134.3121
19606.972656 80.915 27.6230
19749.052734 79.779 -77.7143
19892.162109 78.904 80.4434
20036.308594 78.433 34.4259
