* Measurement data measured by REW V5.31
* Source: EXCL: Microphone (USB Sound Device        ), MICROPHONE (Master Volume), L, volume: 0.390
* Format: 256k Log Swept Sine, 1 sweep at -4.0 dBFS with no timing reference
* Dated: Jul 24, 2024 12:56:39 AM
* REW Settings:
*  C-weighting compensation: Off
*  Target level: 75.0 dB
* Note: Effect Audio Pilgrim Noir R
* Measurement: R Pilgrim Noir
* Smoothing: 1/12 octave
* Frequency Step: 96 ppo
* Start Frequency: 0.36621094 Hz
*
* Freq(Hz) SPL(dB) Phase(degrees)
0.366211 83.475 160.0139
0.368865 83.470 159.9922
0.371538 83.462 159.9596
0.374230 83.452 159.9188
0.376942 83.441 159.8717
0.379673 83.429 159.8201
0.382424 83.417 159.7648
0.385196 83.404 159.7066
0.387987 83.391 159.6458
0.390798 83.378 159.5826
0.393630 83.365 159.5170
0.396483 83.351 159.4492
0.399356 83.338 159.3791
0.402250 83.324 159.3067
0.405165 83.311 159.2320
0.408101 83.297 159.1550
0.411058 83.283 159.0757
0.414037 83.269 158.9940
0.417037 83.255 158.9099
0.420059 83.241 158.8234
0.423103 83.226 158.7345
0.426169 83.212 158.6431
0.429257 83.198 158.5493
0.432368 83.183 158.4530
0.435501 83.168 158.3542
0.438656 83.153 158.2528
0.441835 83.139 158.1489
0.445037 83.124 158.0424
0.448262 83.108 157.9333
0.451510 83.093 157.8216
0.454782 83.078 157.7073
0.458077 83.062 157.5903
0.461397 83.047 157.4707
0.464740 83.031 157.3484
0.468108 83.015 157.2233
0.471500 82.999 157.0956
0.474917 82.983 156.9651
0.478358 82.967 156.8319
0.481825 82.951 156.6960
0.485316 82.935 156.5572
0.488833 82.918 156.4157
0.492375 82.902 156.2714
0.495943 82.885 156.1243
0.499537 82.868 155.9744
0.503157 82.851 155.8217
0.506803 82.834 155.6662
0.510475 82.817 155.5078
0.514175 82.799 155.3467
0.517900 82.782 155.1827
0.521653 82.764 155.0159
0.525434 82.747 154.8462
0.529241 82.729 154.6738
0.533076 82.711 154.4985
0.536939 82.693 154.3204
0.540830 82.674 154.1396
0.544749 82.656 153.9560
0.548696 82.638 153.7696
0.552673 82.619 153.5804
0.556677 82.600 153.3886
0.560711 82.581 153.1940
0.564774 82.562 152.9967
0.568867 82.543 152.7968
0.572989 82.524 152.5943
0.577141 82.504 152.3892
0.581324 82.485 152.1815
0.585536 82.465 151.9713
0.589779 82.445 151.7587
0.594053 82.425 151.5436
0.598358 82.405 151.3262
0.602694 82.384 151.1064
0.607061 82.364 150.8844
0.611460 82.343 150.6602
0.615891 82.322 150.4339
0.620354 82.302 150.2056
0.624849 82.280 149.9753
0.629377 82.259 149.7431
0.633938 82.238 149.5091
0.638532 82.216 149.2734
0.643159 82.195 149.0361
0.647819 82.173 148.7973
0.652514 82.151 148.5572
0.657242 82.129 148.3158
0.662005 82.106 148.0732
0.666802 82.084 147.8297
0.671634 82.061 147.5852
0.676501 82.038 147.3401
0.681403 82.015 147.0944
0.686341 81.992 146.8483
0.691314 81.969 146.6020
0.696324 81.945 146.3555
0.701370 81.921 146.1092
0.706452 81.897 145.8629
0.711571 81.872 145.6170
0.716728 81.847 145.3711
0.721921 81.821 145.1253
0.727153 81.793 144.8790
0.732422 81.764 144.6315
0.737729 81.733 144.3820
0.743075 81.700 144.1297
0.748460 81.665 143.8736
0.753883 81.629 143.6131
0.759346 81.592 143.3479
0.764849 81.555 143.0777
0.770391 81.517 142.8021
0.775974 81.478 142.5212
0.781597 81.439 142.2347
0.787261 81.399 141.9426
0.792966 81.358 141.6448
0.798712 81.317 141.3414
0.804500 81.276 141.0321
0.810329 81.234 140.7170
0.816201 81.191 140.3960
0.822116 81.147 140.0691
0.828073 81.103 139.7363
0.834074 81.059 139.3975
0.840118 81.013 139.0527
0.846206 80.967 138.7018
0.852338 80.920 138.3449
0.858514 80.873 137.9820
0.864735 80.824 137.6130
0.871001 80.775 137.2379
0.877313 80.725 136.8569
0.883670 80.674 136.4697
0.890074 80.622 136.0766
0.896524 80.570 135.6776
0.903020 80.516 135.2727
0.909564 80.462 134.8619
0.916155 80.406 134.4454
0.922794 80.350 134.0232
0.929481 80.292 133.5955
0.936216 80.234 133.1623
0.943000 80.174 132.7239
0.949834 80.113 132.2803
0.956717 80.051 131.8317
0.963649 79.988 131.3783
0.970632 79.924 130.9204
0.977666 79.858 130.4582
0.984750 79.791 129.9919
0.991886 79.723 129.5218
0.999074 79.653 129.0482
1.006314 79.582 128.5716
1.013606 79.510 128.0922
1.020951 79.436 127.6105
1.028349 79.360 127.1269
1.035801 79.283 126.6418
1.043307 79.204 126.1558
1.050867 79.124 125.6694
1.058482 79.042 125.1830
1.066152 78.958 124.6973
1.073878 78.872 124.2125
1.081660 78.784 123.7290
1.089498 78.695 123.2469
1.097393 78.603 122.7659
1.105345 78.510 122.2854
1.113355 78.414 121.8048
1.121423 78.316 121.3233
1.129549 78.216 120.8402
1.137734 78.114 120.3547
1.145979 78.010 119.8663
1.154283 77.904 119.3744
1.162647 77.795 118.8786
1.171072 77.685 118.3784
1.179558 77.572 117.8732
1.188106 77.456 117.3625
1.196715 77.339 116.8459
1.205387 77.220 116.3226
1.214122 77.098 115.7923
1.222920 76.974 115.2541
1.231782 76.848 114.7076
1.240708 76.720 114.1520
1.249699 76.590 113.5865
1.258754 76.457 113.0106
1.267876 76.323 112.4233
1.277063 76.186 111.8238
1.286318 76.047 111.2114
1.295639 75.906 110.5851
1.305027 75.763 109.9440
1.314484 75.618 109.2871
1.324009 75.471 108.6133
1.333604 75.322 107.9218
1.343268 75.171 107.2113
1.353002 75.018 106.4808
1.362806 74.863 105.7291
1.372681 74.706 104.9552
1.382628 74.548 104.1579
1.392647 74.387 103.3360
1.402739 74.224 102.4885
1.412904 74.060 101.6143
1.423142 73.893 100.7124
1.433455 73.724 99.7819
1.443843 73.552 98.8219
1.454305 73.377 97.8315
1.464844 73.197 96.8099
1.475459 73.012 95.7559
1.486150 72.820 94.6679
1.496920 72.620 93.5438
1.507767 72.413 92.3811
1.518693 72.197 91.1770
1.529698 71.973 89.9282
1.540783 71.742 88.6309
1.551948 71.504 87.2813
1.563194 71.260 85.8751
1.574521 71.011 84.4078
1.585931 70.757 82.8745
1.597423 70.499 81.2700
1.608999 70.239 79.5888
1.620658 69.978 77.8254
1.632402 69.717 75.9737
1.644232 69.456 74.0279
1.656146 69.198 71.9820
1.668147 68.943 69.8301
1.680235 68.693 67.5668
1.692411 68.449 65.1873
1.704675 68.213 62.6877
1.717028 67.986 60.0654
1.729470 67.770 57.3195
1.742003 67.567 54.4513
1.754626 67.379 51.4645
1.767341 67.207 48.3656
1.780147 67.054 45.1643
1.793047 66.921 41.8728
1.806040 66.810 38.5057
1.819128 66.722 35.0788
1.832310 66.659 31.6078
1.845587 66.622 28.1076
1.858961 66.610 24.5919
1.872432 66.622 21.0740
1.886001 66.659 17.5670
1.899667 66.720 14.0843
1.913433 66.802 10.6394
1.927299 66.906 7.2460
1.941265 67.028 3.9171
1.955332 67.168 0.6652
1.969501 67.325 -2.4987
1.983773 67.495 -5.5646
1.998148 67.678 -8.5241
2.012627 67.872 -11.3704
2.027212 68.074 -14.0981
2.041902 68.283 -16.7034
2.056698 68.497 -19.1838
2.071602 68.714 -21.5380
2.086614 68.931 -23.7658
2.101734 69.147 -25.8678
2.116964 69.359 -27.8460
2.132304 69.566 -29.7028
2.147756 69.766 -31.4422
2.163320 69.960 -33.0692
2.178996 70.145 -34.5908
2.194786 70.324 -36.0155
2.210690 70.498 -37.3533
2.226710 70.668 -38.6146
2.242845 70.837 -39.8086
2.259098 71.005 -40.9429
2.275468 71.173 -42.0236
2.291957 71.342 -43.0550
2.308566 71.511 -44.0405
2.325295 71.681 -44.9827
2.342145 71.850 -45.8832
2.359117 72.020 -46.7434
2.376212 72.190 -47.5643
2.393431 72.359 -48.3464
2.410775 72.527 -49.0899
2.428244 72.694 -49.7950
2.445840 72.859 -50.4616
2.463564 73.022 -51.0893
2.481416 73.182 -51.6779
2.499397 73.340 -52.2270
2.517509 73.495 -52.7365
2.535752 73.646 -53.2064
2.554127 73.793 -53.6374
2.572635 73.936 -54.0306
2.591277 74.075 -54.3877
2.610055 74.210 -54.7108
2.628968 74.341 -55.0024
2.648019 74.468 -55.2647
2.667208 74.593 -55.5002
2.686535 74.714 -55.7110
2.706003 74.833 -55.8992
2.725612 74.949 -56.0669
2.745363 75.064 -56.2159
2.765257 75.178 -56.3481
2.785295 75.292 -56.4651
2.805478 75.405 -56.5685
2.825808 75.518 -56.6597
2.846285 75.633 -56.7399
2.866910 75.748 -56.8098
2.887685 75.865 -56.8698
2.908611 75.984 -56.9195
2.929688 76.104 -56.9581
2.950917 76.226 -56.9843
2.972301 76.349 -56.9972
2.993839 76.472 -56.9966
3.015534 76.596 -56.9831
3.037386 76.721 -56.9582
3.059396 76.846 -56.9240
3.081565 76.972 -56.8826
3.103896 77.098 -56.8367
3.126388 77.225 -56.7887
3.149043 77.352 -56.7412
3.171862 77.480 -56.6966
3.194847 77.609 -56.6569
3.217998 77.739 -56.6238
3.241317 77.869 -56.5986
3.264805 78.001 -56.5814
3.288463 78.133 -56.5718
3.312293 78.267 -56.5685
3.336295 78.402 -56.5699
3.360471 78.538 -56.5751
3.384822 78.675 -56.5840
3.409350 78.814 -56.5971
3.434056 78.952 -56.6158
3.458940 79.092 -56.6416
3.484005 79.231 -56.6765
3.509252 79.370 -56.7224
3.534681 79.509 -56.7812
3.560295 79.648 -56.8546
3.586094 79.786 -56.9443
3.612081 79.922 -57.0513
3.638255 80.058 -57.1762
3.664620 80.193 -57.3190
3.691175 80.327 -57.4790
3.717923 80.460 -57.6551
3.744864 80.592 -57.8462
3.772001 80.723 -58.0510
3.799335 80.853 -58.2686
3.826866 80.982 -58.4980
3.854597 81.110 -58.7385
3.882529 81.236 -58.9894
3.910664 81.360 -59.2503
3.939002 81.483 -59.5209
3.967546 81.603 -59.8012
3.996296 81.722 -60.0914
4.025255 81.838 -60.3917
4.054423 81.952 -60.7027
4.083804 82.064 -61.0245
4.113396 82.173 -61.3568
4.143204 82.280 -61.6988
4.173227 82.385 -62.0494
4.203468 82.487 -62.4073
4.233928 82.588 -62.7710
4.264609 82.686 -63.1390
4.295512 82.782 -63.5102
4.326639 82.876 -63.8837
4.357992 82.967 -64.2593
4.389572 83.056 -64.6371
4.421380 83.143 -65.0176
4.453419 83.228 -65.4015
4.485691 83.310 -65.7888
4.518196 83.389 -66.1793
4.550936 83.466 -66.5720
4.583914 83.541 -66.9656
4.617131 83.614 -67.3586
4.650589 83.686 -67.7496
4.684289 83.755 -68.1372
4.718233 83.824 -68.5205
4.752424 83.890 -68.8992
4.786862 83.955 -69.2734
4.821549 84.019 -69.6435
4.856488 84.081 -70.0099
4.891680 84.141 -70.3731
4.927127 84.200 -70.7330
4.962831 84.258 -71.0896
4.998794 84.315 -71.4424
5.035017 84.371 -71.7911
5.071503 84.427 -72.1353
5.108253 84.482 -72.4745
5.145270 84.538 -72.8087
5.182555 84.593 -73.1379
5.220110 84.648 -73.4626
5.257937 84.702 -73.7835
5.296038 84.756 -74.1016
5.334415 84.811 -74.4178
5.373071 84.865 -74.7332
5.412006 84.920 -75.0486
5.451224 84.976 -75.3645
5.490725 85.032 -75.6811
5.530514 85.089 -75.9987
5.570590 85.146 -76.3173
5.610957 85.204 -76.6375
5.651616 85.262 -76.9601
5.692570 85.321 -77.2863
5.733821 85.381 -77.6174
5.775370 85.441 -77.9547
5.817221 85.502 -78.2991
5.859375 85.563 -78.6512
5.901834 85.625 -79.0113
5.944602 85.687 -79.3795
5.987679 85.750 -79.7559
6.031068 85.812 -80.1408
6.074771 85.876 -80.5346
6.118792 85.939 -80.9380
6.163131 86.002 -81.3515
6.207792 86.065 -81.7756
6.252776 86.127 -82.2105
6.298086 86.189 -82.6563
6.343725 86.251 -83.1126
6.389694 86.313 -83.5789
6.435996 86.374 -84.0544
6.482634 86.434 -84.5386
6.529610 86.494 -85.0310
6.576926 86.552 -85.5312
6.624585 86.610 -86.0392
6.672590 86.667 -86.5547
6.720942 86.723 -87.0773
6.769645 86.778 -87.6060
6.818700 86.832 -88.1397
6.868111 86.885 -88.6773
6.917881 86.938 -89.2180
6.968010 86.989 -89.7611
7.018504 87.040 -90.3064
7.069362 87.089 -90.8534
7.120590 87.138 -91.4017
7.172189 87.187 -91.9506
7.224161 87.235 -92.4991
7.276511 87.282 -93.0464
7.329239 87.330 -93.5921
7.382350 87.377 -94.1358
7.435845 87.423 -94.6774
7.489729 87.470 -95.2170
7.544002 87.517 -95.7544
7.598669 87.564 -96.2897
7.653732 87.611 -96.8228
7.709194 87.659 -97.3535
7.765058 87.708 -97.8819
7.821327 87.757 -98.4084
7.878004 87.806 -98.9333
7.935091 87.856 -99.4571
7.992592 87.907 -99.9802
8.050510 87.959 -100.5031
8.108847 88.011 -101.0260
8.167607 88.064 -101.5492
8.226793 88.118 -102.0730
8.286408 88.173 -102.5979
8.346454 88.228 -103.1241
8.406936 88.284 -103.6521
8.467856 88.340 -104.1821
8.529218 88.397 -104.7142
8.591024 88.454 -105.2483
8.653278 88.511 -105.7843
8.715983 88.569 -106.3222
8.779143 88.626 -106.8618
8.842760 88.684 -107.4029
8.906839 88.741 -107.9454
8.971381 88.798 -108.4887
9.036392 88.855 -109.0324
9.101873 88.912 -109.5759
9.167829 88.968 -110.1188
9.234263 89.024 -110.6606
9.301178 89.080 -111.2010
9.368578 89.135 -111.7394
9.436467 89.190 -112.2753
9.504847 89.244 -112.8081
9.573723 89.297 -113.3376
9.643099 89.350 -113.8634
9.712976 89.401 -114.3854
9.783361 89.450 -114.9034
9.854255 89.497 -115.4171
9.925663 89.542 -115.9265
9.997588 89.584 -116.4316
10.070035 89.623 -116.9326
10.143007 89.661 -117.4295
10.216507 89.697 -117.9226
10.290540 89.730 -118.4120
10.365109 89.763 -118.8981
10.440219 89.794 -119.3810
10.515873 89.825 -119.8611
10.592076 89.855 -120.3385
10.668830 89.884 -120.8136
10.746141 89.912 -121.2866
10.824012 89.940 -121.7575
10.902447 89.968 -122.2266
10.981451 89.995 -122.6940
11.061027 90.021 -123.1597
11.141180 90.046 -123.6238
11.221913 90.071 -124.0863
11.303232 90.095 -124.5472
11.385140 90.118 -125.0064
11.467641 90.140 -125.4639
11.550741 90.161 -125.9197
11.634442 90.182 -126.3737
11.718750 90.202 -126.8260
11.803669 90.222 -127.2767
11.889203 90.242 -127.7257
11.975357 90.261 -128.1731
12.062136 90.279 -128.6192
12.149543 90.298 -129.0641
12.237583 90.315 -129.5080
12.326262 90.332 -129.9512
12.415583 90.349 -130.3938
12.505552 90.365 -130.8362
12.596172 90.380 -131.2786
12.687449 90.395 -131.7213
12.779387 90.408 -132.1645
12.871992 90.422 -132.6085
12.965268 90.434 -133.0535
13.059220 90.446 -133.4996
13.153852 90.458 -133.9472
13.249170 90.469 -134.3962
13.345179 90.480 -134.8469
13.441884 90.490 -135.2995
13.539289 90.501 -135.7540
13.637401 90.511 -136.2105
13.736223 90.521 -136.6694
13.835761 90.530 -137.1306
13.936021 90.540 -137.5944
14.037007 90.549 -138.0609
14.138725 90.557 -138.5303
14.241180 90.565 -139.0027
14.344377 90.573 -139.4783
14.448323 90.580 -139.9572
14.553021 90.588 -140.4395
14.658478 90.595 -140.9251
14.764700 90.601 -141.4140
14.871691 90.608 -141.9063
14.979457 90.615 -142.4016
15.088005 90.621 -142.8999
15.197339 90.628 -143.4010
15.307465 90.634 -143.9045
15.418389 90.641 -144.4104
15.530117 90.647 -144.9182
15.642655 90.654 -145.4278
15.756008 90.660 -145.9391
15.870182 90.667 -146.4517
15.985184 90.673 -146.9656
16.101019 90.680 -147.4806
16.217694 90.686 -147.9966
16.335214 90.693 -148.5134
16.453586 90.700 -149.0309
16.572815 90.707 -149.5486
16.692909 90.714 -150.0663
16.813872 90.721 -150.5834
16.935713 90.729 -151.0994
17.058436 90.736 -151.6136
17.182048 90.743 -152.1250
17.306556 90.751 -152.6330
17.431967 90.758 -153.1366
17.558286 90.765 -153.6350
17.685521 90.772 -154.1274
17.813677 90.779 -154.6134
17.942762 90.785 -155.0925
18.072783 90.792 -155.5648
18.203746 90.799 -156.0304
18.335658 90.807 -156.4899
18.468526 90.815 -156.9441
18.602356 90.823 -157.3939
18.737156 90.833 -157.8405
18.872934 90.842 -158.2850
19.009695 90.853 -158.7286
19.147447 90.863 -159.1722
19.286197 90.874 -159.6166
19.425953 90.884 -160.0621
19.566721 90.894 -160.5088
19.708510 90.903 -160.9564
19.851326 90.911 -161.4044
19.995177 90.917 -161.8520
20.140070 90.923 -162.2981
20.286013 90.927 -162.7420
20.433014 90.930 -163.1826
20.581080 90.931 -163.6194
20.730219 90.932 -164.0522
20.880439 90.933 -164.4810
21.031747 90.933 -164.9064
21.184152 90.933 -165.3294
21.337661 90.933 -165.7511
21.492282 90.933 -166.1730
21.648024 90.934 -166.5968
21.804895 90.934 -167.0238
21.962902 90.934 -167.4553
22.122054 90.934 -167.8923
22.282360 90.934 -168.3351
22.443827 90.932 -168.7838
22.606464 90.930 -169.2378
22.770280 90.927 -169.6964
22.935283 90.923 -170.1584
23.101481 90.918 -170.6225
23.268884 90.912 -171.0874
23.437500 90.905 -171.5521
23.607338 90.897 -172.0156
23.778406 90.889 -172.4775
23.950714 90.881 -172.9377
24.124271 90.872 -173.3964
24.299086 90.864 -173.8540
24.475167 90.856 -174.3111
24.652524 90.849 -174.7685
24.831166 90.842 -175.2266
25.011103 90.835 -175.6858
25.192344 90.828 -176.1462
25.374898 90.822 -176.6074
25.558775 90.815 -177.0692
25.743984 90.809 -177.5306
25.930536 90.802 -177.9909
26.118439 90.795 -178.4492
26.307704 90.788 -178.9045
26.498341 90.780 -179.3563
26.690359 90.773 -179.8041
26.883768 90.765 179.7525
27.078579 90.757 179.3134
27.274801 90.749 178.8782
27.472446 90.742 178.4464
27.671522 90.734 178.0173
27.872042 90.726 177.5900
28.074014 90.717 177.1639
28.277450 90.709 176.7384
28.482360 90.700 176.3129
28.688755 90.690 175.8875
28.896645 90.679 175.4622
29.106042 90.667 175.0375
29.316957 90.655 174.6140
29.529400 90.642 174.1922
29.743382 90.628 173.7725
29.958915 90.613 173.3552
30.176009 90.598 172.9398
30.394677 90.583 172.5259
30.614929 90.568 172.1124
30.836778 90.553 171.6981
31.060234 90.538 171.2817
31.285309 90.523 170.8622
31.512015 90.508 170.4388
31.740364 90.492 170.0114
31.970368 90.476 169.5800
32.202039 90.459 169.1457
32.435388 90.441 168.7100
32.670428 90.423 168.2744
32.907171 90.404 167.8409
33.145630 90.384 167.4109
33.385817 90.364 166.9854
33.627745 90.345 166.5648
33.871425 90.326 166.1483
34.116871 90.307 165.7348
34.364096 90.289 165.3229
34.613113 90.271 164.9112
34.863934 90.254 164.4989
35.116572 90.237 164.0864
35.371041 90.219 163.6748
35.627354 90.200 163.2658
35.885525 90.182 162.8613
36.145566 90.163 162.4624
36.407492 90.144 162.0694
36.671316 90.126 161.6815
36.937051 90.108 161.2970
37.204712 90.091 160.9138
37.474313 90.074 160.5303
37.745867 90.058 160.1449
38.019389 90.042 159.7566
38.294893 90.026 159.3644
38.572394 90.011 158.9673
38.851905 89.995 158.5641
39.133442 89.978 158.1544
39.417019 89.961 157.7393
39.702651 89.941 157.3224
39.990353 89.919 156.9091
40.280140 89.896 156.5058
40.572026 89.872 156.1172
40.866028 89.849 155.7444
41.162160 89.827 155.3828
41.460438 89.809 155.0229
41.760877 89.794 154.6528
42.063494 89.780 154.2620
42.368303 89.766 153.8450
42.675322 89.749 153.4043
42.984565 89.728 152.9486
43.296048 89.702 152.4906
43.609789 89.671 152.0428
43.925804 89.637 151.6136
44.244108 89.602 151.2057
44.564719 89.567 150.8165
44.887654 89.533 150.4398
45.212928 89.500 150.0692
45.540560 89.468 149.6993
45.870565 89.437 149.3268
46.202962 89.406 148.9504
46.537768 89.375 148.5701
46.875000 89.344 148.1868
47.214676 89.312 147.8019
47.556813 89.281 147.4172
47.901429 89.249 147.0347
48.248542 89.218 146.6551
48.598171 89.187 146.2785
48.950334 89.157 145.9036
49.305048 89.128 145.5287
49.662333 89.099 145.1523
50.022206 89.071 144.7738
50.384688 89.043 144.3932
50.749796 89.015 144.0109
51.117550 88.986 143.6281
51.487969 88.957 143.2457
51.861072 88.927 142.8651
52.236879 88.897 142.4871
52.615409 88.867 142.1121
52.996681 88.837 141.7396
53.380717 88.807 141.3683
53.767536 88.777 140.9965
54.157158 88.747 140.6230
54.549603 88.716 140.2478
54.944892 88.685 139.8713
55.343045 88.654 139.4949
55.744084 88.622 139.1194
56.148028 88.590 138.7456
56.554900 88.558 138.3736
56.964720 88.525 138.0032
57.377510 88.493 137.6345
57.793291 88.460 137.2679
58.212085 88.426 136.9044
58.633914 88.392 136.5445
59.058799 88.358 136.1884
59.486764 88.324 135.8345
59.917829 88.291 135.4812
60.352019 88.256 135.1268
60.789354 88.222 134.7711
61.229859 88.187 134.4154
61.673556 88.151 134.0610
62.120468 88.115 133.7084
62.570618 88.080 133.3565
63.024031 88.045 133.0037
63.480729 88.009 132.6489
63.940736 87.974 132.2929
64.404077 87.938 131.9375
64.870776 87.901 131.5848
65.340856 87.864 131.2359
65.814343 87.828 130.8912
66.291261 87.790 130.5504
66.771635 87.753 130.2125
67.255489 87.716 129.8768
67.742850 87.678 129.5417
68.233743 87.640 129.2053
68.728193 87.602 128.8655
69.226226 87.562 128.5217
69.727867 87.522 128.1753
70.233144 87.481 127.8291
70.742083 87.441 127.4848
71.254709 87.401 127.1412
71.771050 87.363 126.7941
72.291132 87.327 126.4380
72.814984 87.292 126.0683
73.342631 87.258 125.6843
73.874102 87.221 125.2917
74.409424 87.182 124.9044
74.948626 87.140 124.5416
75.491734 87.096 124.2180
76.038779 87.054 123.9357
76.589787 87.015 123.6835
77.144788 86.980 123.4446
77.703811 86.946 123.2050
78.266885 86.914 122.9562
78.834039 86.881 122.6939
79.405303 86.845 122.4158
79.980706 86.807 122.1216
80.560280 86.766 121.8129
81.144053 86.721 121.4936
81.732056 86.674 121.1701
82.324320 86.625 120.8481
82.920876 86.576 120.5293
83.521755 86.530 120.2093
84.126988 86.488 119.8818
84.736607 86.447 119.5443
85.350643 86.409 119.2000
85.969129 86.373 118.8560
86.592097 86.337 118.5193
87.219579 86.302 118.1938
87.851608 86.268 117.8797
88.488217 86.233 117.5762
89.129439 86.198 117.2821
89.775308 86.162 116.9963
90.425856 86.124 116.7162
91.081119 86.085 116.4382
91.741131 86.044 116.1591
92.405925 86.001 115.8777
93.075536 85.956 115.5982
93.750000 85.911 115.3284
94.429351 85.866 115.0724
95.113625 85.823 114.8236
95.802858 85.784 114.5695
96.497085 85.746 114.3032
97.196342 85.708 114.0287
97.900667 85.670 113.7524
98.610096 85.633 113.4747
99.324665 85.598 113.1905
100.044413 85.563 112.8965
100.769376 85.529 112.5941
101.499592 85.495 112.2862
102.235100 85.462 111.9759
102.975938 85.427 111.6704
103.722144 85.392 111.3812
104.473757 85.355 111.1155
105.230817 85.318 110.8695
105.993363 85.280 110.6327
106.761435 85.242 110.3930
107.535072 85.204 110.1376
108.314315 85.165 109.8556
109.099206 85.126 109.5435
109.889783 85.088 109.2068
110.686090 85.051 108.8598
111.488167 85.015 108.5265
112.296056 84.980 108.2375
113.109800 84.944 108.0215
113.929440 84.906 107.8998
114.755020 84.862 107.8850
115.586582 84.812 107.9769
116.424170 84.755 108.1584
117.267827 84.694 108.3975
118.117598 84.636 108.6438
118.973527 84.587 108.8112
119.835658 84.550 108.7800
120.704037 84.520 108.4706
121.578708 84.485 107.9199
122.459718 84.444 107.2524
123.347111 84.402 106.5918
124.240935 84.365 106.0161
125.141236 84.337 105.5583
126.048061 84.317 105.2198
126.961458 84.298 104.9854
127.881473 84.276 104.8338
128.808154 84.249 104.7411
129.741551 84.216 104.6798
130.681712 84.180 104.6206
131.628686 84.147 104.5350
132.582521 84.120 104.3986
133.543269 84.099 104.1996
134.510979 84.085 103.9462
135.485701 84.076 103.6588
136.467486 84.068 103.3597
137.456386 84.062 103.0694
138.452451 84.055 102.8011
139.455735 84.050 102.5490
140.466288 84.047 102.2892
141.484165 84.043 102.0037
142.509418 84.038 101.6933
143.542100 84.032 101.3699
144.582265 84.026 101.0428
145.629968 84.022 100.7119
146.685262 84.021 100.3698
147.748204 84.019 100.0081
148.818849 84.014 99.6227
149.897251 84.002 99.2225
150.983469 83.979 98.8328
152.077557 83.945 98.4794
153.179574 83.905 98.1658
154.289576 83.862 97.8767
155.407622 83.819 97.5932
156.533770 83.778 97.3024
157.668078 83.739 97.0032
158.810606 83.702 96.7058
159.961413 83.668 96.4232
161.120559 83.636 96.1597
162.288105 83.606 95.9131
163.464112 83.578 95.6801
164.648640 83.551 95.4564
165.841752 83.524 95.2346
167.043510 83.499 95.0060
168.253976 83.474 94.7671
169.473213 83.448 94.5209
170.701286 83.422 94.2729
171.938258 83.394 94.0269
173.184194 83.365 93.7828
174.439158 83.336 93.5381
175.703216 83.307 93.2910
176.976434 83.279 93.0410
178.258878 83.251 92.7876
179.550615 83.224 92.5305
180.851713 83.198 92.2687
182.162239 83.173 92.0009
183.482262 83.148 91.7266
184.811850 83.125 91.4477
186.151073 83.103 91.1676
187.500000 83.081 90.8910
188.858702 83.060 90.6216
190.227250 83.039 90.3614
191.605715 83.019 90.1100
192.994169 82.999 89.8644
194.392685 82.979 89.6209
195.801334 82.959 89.3769
197.220191 82.939 89.1317
198.649330 82.920 88.8869
200.088825 82.901 88.6441
201.538751 82.883 88.4032
202.999184 82.865 88.1631
204.470200 82.847 87.9227
205.951875 82.828 87.6816
207.444287 82.810 87.4400
208.947514 82.791 87.1975
210.461634 82.773 86.9535
211.986726 82.754 86.7080
213.522869 82.735 86.4619
215.070144 82.716 86.2163
216.628631 82.697 85.9716
218.198411 82.678 85.7280
219.779567 82.659 85.4853
221.372180 82.640 85.2433
222.976334 82.621 85.0027
224.592112 82.603 84.7642
226.219600 82.586 84.5283
227.858880 82.568 84.2944
229.510039 82.551 84.0612
231.173164 82.535 83.8273
232.848340 82.518 83.5924
234.535655 82.502 83.3567
236.235197 82.486 83.1200
237.947054 82.470 82.8820
239.671317 82.455 82.6422
241.408074 82.440 82.4003
243.157416 82.426 82.1571
244.919435 82.412 81.9147
246.694223 82.398 81.6764
248.481871 82.384 81.4450
250.282473 82.370 81.2216
252.096123 82.356 81.0042
253.922915 82.342 80.7891
255.762945 82.328 80.5732
257.616309 82.315 80.3564
259.483103 82.302 80.1386
261.363424 82.289 79.9196
263.257372 82.277 79.6986
265.165043 82.264 79.4752
267.086538 82.252 79.2498
269.021957 82.241 79.0230
270.971401 82.229 78.7955
272.934972 82.219 78.5685
274.912771 82.208 78.3434
276.904902 82.199 78.1209
278.911469 82.190 77.9012
280.932577 82.181 77.6835
282.968330 82.173 77.4666
285.018835 82.165 77.2496
287.084199 82.156 77.0321
289.164530 82.148 76.8148
291.259935 82.141 76.5987
293.370525 82.133 76.3842
295.496408 82.125 76.1713
297.637697 82.118 75.9603
299.794503 82.111 75.7509
301.966937 82.103 75.5429
304.155114 82.096 75.3357
306.359147 82.089 75.1290
308.579152 82.083 74.9232
310.815244 82.076 74.7186
313.067539 82.069 74.5158
315.336156 82.062 74.3146
317.621211 82.055 74.1150
319.922826 82.048 73.9163
322.241118 82.042 73.7184
324.576210 82.035 73.5215
326.928223 82.029 73.3257
329.297280 82.023 73.1309
331.683504 82.018 72.9361
334.087019 82.013 72.7405
336.507952 82.008 72.5441
338.946427 82.003 72.3475
341.402572 81.998 72.1515
343.876516 81.993 71.9572
346.368387 81.988 71.7650
348.878315 81.982 71.5753
351.406431 81.977 71.3878
353.952867 81.972 71.2021
356.517756 81.966 71.0182
359.101230 81.961 70.8357
361.703426 81.955 70.6543
364.324478 81.949 70.4739
366.964523 81.943 70.2954
369.623699 81.937 70.1204
372.302145 81.931 69.9512
375.000000 81.925 69.7906
377.717405 81.920 69.6397
380.454501 81.915 69.4985
383.211431 81.911 69.3646
385.988339 81.909 69.2349
388.785369 81.909 69.1058
391.602668 81.910 68.9737
394.440383 81.912 68.8352
397.298660 81.915 68.6878
400.177650 81.918 68.5315
403.077502 81.921 68.3686
405.998368 81.923 68.2024
408.940400 81.925 68.0350
411.903750 81.927 67.8676
414.888575 81.928 67.7008
417.895028 81.929 67.5351
420.923268 81.929 67.3708
423.973452 81.929 67.2088
427.045738 81.930 67.0497
430.140287 81.930 66.8937
433.257261 81.930 66.7408
436.396822 81.930 66.5906
439.559133 81.931 66.4431
442.744360 81.932 66.2979
445.952668 81.933 66.1546
449.184225 81.934 66.0127
452.439199 81.935 65.8723
455.717760 81.936 65.7337
459.020079 81.937 65.5969
462.346327 81.938 65.4617
465.696680 81.939 65.3284
469.071310 81.940 65.1972
472.470394 81.942 65.0684
475.894109 81.944 64.9423
479.342634 81.945 64.8188
482.816148 81.947 64.6982
486.314833 81.949 64.5804
489.838871 81.951 64.4656
493.388445 81.953 64.3536
496.963741 81.956 64.2437
500.564945 81.958 64.1359
504.192245 81.960 64.0306
507.845830 81.962 63.9285
511.525890 81.964 63.8299
515.232618 81.967 63.7340
518.966206 81.969 63.6397
522.726849 81.972 63.5466
526.514743 81.975 63.4553
530.330086 81.978 63.3661
534.173076 81.982 63.2794
538.043915 81.986 63.1953
541.942803 81.990 63.1138
545.869944 81.995 63.0353
549.825542 81.999 62.9599
553.809805 82.004 62.8873
557.822939 82.009 62.8167
561.865154 82.014 62.7476
565.936660 82.018 62.6797
570.037671 82.023 62.6136
574.168399 82.028 62.5501
578.329060 82.034 62.4900
582.519870 82.040 62.4334
586.741049 82.046 62.3803
590.992817 82.052 62.3304
595.275394 82.058 62.2838
599.589005 82.065 62.2401
603.933874 82.072 62.1995
608.310228 82.078 62.1619
612.718295 82.085 62.1276
617.158304 82.092 62.0965
621.630488 82.099 62.0689
626.135079 82.106 62.0448
630.672311 82.113 62.0241
635.242423 82.121 62.0068
639.845651 82.129 61.9928
644.482237 82.137 61.9819
649.152421 82.146 61.9745
653.856447 82.155 61.9710
658.594560 82.165 61.9721
663.367008 82.175 61.9778
668.174039 82.185 61.9874
673.015903 82.195 62.0008
677.892854 82.206 62.0178
682.805145 82.217 62.0385
687.753032 82.229 62.0625
692.736774 82.240 62.0893
697.756631 82.253 62.1186
702.812863 82.266 62.1505
707.905735 82.279 62.1860
713.035511 82.293 62.2263
718.202461 82.308 62.2722
723.406852 82.322 62.3234
728.648956 82.337 62.3793
733.929047 82.353 62.4390
739.247399 82.369 62.5020
744.604290 82.385 62.5677
750.000000 82.403 62.6356
755.434809 82.420 62.7057
760.909001 82.439 62.7783
766.422861 82.458 62.8532
771.976677 82.478 62.9306
777.570739 82.498 63.0107
783.205337 82.519 63.0937
788.880766 82.540 63.1795
794.597321 82.563 63.2680
800.355301 82.586 63.3585
806.155005 82.611 63.4508
811.996736 82.636 63.5447
817.880799 82.662 63.6401
823.807501 82.690 63.7368
829.777150 82.718 63.8340
835.790057 82.747 63.9316
841.846536 82.776 64.0298
847.946903 82.807 64.1290
854.091476 82.838 64.2291
860.280575 82.870 64.3299
866.514523 82.902 64.4316
872.793644 82.936 64.5339
879.118267 82.971 64.6361
885.488720 83.006 64.7374
891.905336 83.043 64.8368
898.368450 83.081 64.9339
904.878398 83.119 65.0287
911.435520 83.159 65.1215
918.040157 83.199 65.2122
924.692655 83.241 65.3007
931.393359 83.284 65.3869
938.142619 83.328 65.4703
944.940787 83.373 65.5502
951.788218 83.419 65.6263
958.685268 83.466 65.6980
965.632296 83.513 65.7651
972.629666 83.562 65.8275
979.677741 83.612 65.8851
986.776890 83.663 65.9382
993.927482 83.714 65.9866
1001.129891 83.766 66.0299
1008.384491 83.820 66.0681
1015.691660 83.874 66.1017
1023.051781 83.928 66.1318
1030.465236 83.984 66.1588
1037.932411 84.040 66.1832
1045.453698 84.096 66.2050
1053.029486 84.154 66.2248
1060.660172 84.213 66.2429
1068.346153 84.274 66.2591
1076.087829 84.336 66.2723
1083.885605 84.400 66.2805
1091.739887 84.466 66.2812
1099.651084 84.534 66.2717
1107.619609 84.604 66.2491
1115.645878 84.677 66.2097
1123.730308 84.751 66.1497
1131.873321 84.827 66.0652
1140.075341 84.903 65.9539
1148.336797 84.980 65.8148
1156.658119 85.056 65.6483
1165.039741 85.131 65.4561
1173.482099 85.204 65.2407
1181.985634 85.275 65.0050
1190.550789 85.344 64.7523
1199.178011 85.410 64.4867
1207.867749 85.473 64.2121
1216.620457 85.535 63.9318
1225.436590 85.594 63.6480
1234.316609 85.651 63.3619
1243.260976 85.706 63.0739
1252.270157 85.759 62.7846
1261.344623 85.810 62.4944
1270.484846 85.860 62.2033
1279.691303 85.908 61.9112
1288.964474 85.955 61.6182
1298.304842 86.000 61.3247
1307.712894 86.044 61.0314
1317.189120 86.087 60.7387
1326.734016 86.130 60.4464
1336.348077 86.172 60.1545
1346.031806 86.215 59.8632
1355.785708 86.257 59.5728
1365.610290 86.301 59.2833
1375.506065 86.346 58.9944
1385.473549 86.390 58.7054
1395.513261 86.435 58.4163
1405.625726 86.480 58.1274
1415.811469 86.525 57.8392
1426.071023 86.568 57.5518
1436.404921 86.611 57.2656
1446.813703 86.653 56.9801
1457.297912 86.693 56.6949
1467.858093 86.732 56.4099
1478.494798 86.770 56.1248
1489.208581 86.804 55.8401
1500.000000 86.836 55.5564
1510.869618 86.864 55.2740
1521.818002 86.887 54.9929
1532.845723 86.905 54.7132
1543.953355 86.918 54.4352
1555.141477 86.926 54.1589
1566.410674 86.931 53.8848
1577.761531 86.933 53.6131
1589.194642 86.932 53.3443
1600.710601 86.929 53.0789
1612.310010 86.925 52.8176
1623.993473 86.918 52.5609
1635.761599 86.911 52.3094
1647.615002 86.901 52.0631
1659.554299 86.891 51.8223
1671.580114 86.879 51.5875
1683.693072 86.866 51.3598
1695.893807 86.851 51.1408
1708.182952 86.835 50.9323
1720.561150 86.817 50.7364
1733.029045 86.796 50.5551
1745.587288 86.773 50.3906
1758.236533 86.747 50.2446
1770.977440 86.721 50.1187
1783.810673 86.694 50.0141
1796.736900 86.667 49.9315
1809.756796 86.641 49.8705
1822.871040 86.617 49.8291
1836.080315 86.596 49.8031
1849.385310 86.578 49.7866
1862.786718 86.562 49.7724
1876.285239 86.551 49.7539
1889.881575 86.542 49.7257
1903.576436 86.537 49.6850
1917.370535 86.534 49.6320
1931.264593 86.533 49.5706
1945.259332 86.532 49.5072
1959.355483 86.531 49.4501
1973.553781 86.528 49.4083
1987.854965 86.524 49.3906
2002.259781 86.518 49.4052
2016.768981 86.511 49.4581
2031.383320 86.503 49.5537
2046.103561 86.495 49.6954
2060.930471 86.488 49.8861
2075.864823 86.482 50.1288
2090.907395 86.480 50.4262
2106.058972 86.482 50.7804
2121.320344 86.491 51.1927
2136.692305 86.507 51.6618
2152.175658 86.533 52.1830
2167.771210 86.571 52.7467
2183.479774 86.624 53.3374
2199.302169 86.693 53.9337
2215.239219 86.779 54.5093
2231.291755 86.882 55.0355
2247.460615 86.999 55.4852
2263.746641 87.128 55.8372
2280.150683 87.264 56.0794
2296.673595 87.405 56.2088
2313.316238 87.547 56.2304
2330.079481 87.687 56.1537
2346.964198 87.824 55.9901
2363.971268 87.957 55.7504
2381.101578 88.086 55.4425
2398.356022 88.211 55.0701
2415.735498 88.332 54.6324
2433.240913 88.449 54.1256
2450.873180 88.561 53.5441
2468.633217 88.666 52.8833
2486.521951 88.762 52.1415
2504.540314 88.846 51.3209
2522.689246 88.917 50.4292
2540.969692 88.970 49.4789
2559.382606 89.005 48.4875
2577.928947 89.019 47.4765
2596.609683 89.013 46.4711
2615.425787 88.985 45.4996
2634.378241 88.936 44.5929
2653.468031 88.869 43.7834
2672.696154 88.787 43.1030
2692.063613 88.694 42.5783
2711.571415 88.598 42.2249
2731.220579 88.507 42.0412
2751.012130 88.427 42.0055
2770.947098 88.364 42.0797
2791.026522 88.321 42.2167
2811.251451 88.297 42.3706
2831.622938 88.290 42.5034
2852.142045 88.295 42.5896
2872.809842 88.308 42.6168
2893.627406 88.324 42.5841
2914.595823 88.341 42.4986
2935.716186 88.356 42.3718
2956.989596 88.368 42.2166
2978.417161 88.377 42.0447
3000.000000 88.382 41.8657
3021.739237 88.384 41.6869
3043.636005 88.383 41.5134
3065.691446 88.381 41.3487
3087.906710 88.378 41.1938
3110.282955 88.374 41.0477
3132.821347 88.370 40.9074
3155.523062 88.365 40.7685
3178.389283 88.358 40.6267
3201.421202 88.349 40.4800
3224.620020 88.336 40.3310
3247.986946 88.317 40.1885
3271.523198 88.289 40.0694
3295.230004 88.254 39.9988
3319.108599 88.211 40.0089
3343.160228 88.163 40.1350
3367.386145 88.115 40.4084
3391.787613 88.075 40.8484
3416.365904 88.052 41.4540
3441.122300 88.054 42.1995
3466.058091 88.089 43.0359
3491.174576 88.158 43.8998
3516.473066 88.263 44.7256
3541.954880 88.400 45.4561
3567.621345 88.562 46.0490
3593.473800 88.744 46.4787
3619.513592 88.940 46.7339
3645.742080 89.144 46.8136
3672.160630 89.352 46.7233
3698.770620 89.561 46.4707
3725.573436 89.769 46.0640
3752.570477 89.972 45.5100
3779.763150 90.169 44.8143
3807.152872 90.358 43.9814
3834.741071 90.536 43.0154
3862.529185 90.701 41.9209
3890.518664 90.852 40.7036
3918.710966 90.985 39.3709
3947.107561 91.099 37.9329
3975.709929 91.192 36.4018
4004.519563 91.262 34.7925
4033.537962 91.307 33.1223
4062.766641 91.325 31.4109
4092.207123 91.316 29.6808
4121.860942 91.277 27.9572
4151.729646 91.209 26.2676
4181.814790 91.113 24.6409
4212.117944 90.988 23.1068
4242.640687 90.838 21.6947
4273.384610 90.665 20.4312
4304.351317 90.474 19.3384
4335.542421 90.268 18.4313
4366.959549 90.054 17.7168
4398.604338 89.838 17.1927
4430.478438 89.623 16.8491
4462.583511 89.415 16.6689
4494.921231 89.217 16.6308
4527.493283 89.030 16.7117
4560.301365 88.855 16.8900
4593.347189 88.693 17.1482
4626.632476 88.543 17.4745
4660.158962 88.404 17.8623
4693.928395 88.276 18.3090
4727.942535 88.159 18.8132
4762.203156 88.055 19.3725
4796.712043 87.964 19.9808
4831.470996 87.889 20.6263
4866.481826 87.829 21.2905
4901.746360 87.787 21.9511
4937.266434 87.759 22.5860
4973.043902 87.744 23.1792
5009.080628 87.737 23.7245
5045.378492 87.737 24.2265
5081.939384 87.740 24.6981
5118.765212 87.746 25.1561
5155.857894 87.754 25.6168
5193.219366 87.766 26.0934
5230.851574 87.784 26.5945
5268.756481 87.810 27.1226
5306.936062 87.845 27.6750
5345.392309 87.894 28.2443
5384.127225 87.956 28.8187
5423.142830 88.034 29.3833
5462.441159 88.128 29.9217
5502.024259 88.240 30.4166
5541.894195 88.371 30.8502
5582.053045 88.522 31.2021
5622.502902 88.693 31.4472
5663.245876 88.886 31.5538
5704.284090 89.099 31.4830
5745.619684 89.329 31.1914
5787.254813 89.571 30.6356
5829.191647 89.816 29.7793
5871.432373 90.056 28.5998
5913.979192 90.278 27.0937
5956.834323 90.471 25.2789
6000.000000 90.625 23.1946
6043.478473 90.732 20.8970
6087.272010 90.786 18.4545
6131.382892 90.785 15.9407
6175.813420 90.728 13.4292
6220.565910 90.618 10.9875
6265.642695 90.459 8.6744
6311.046124 90.256 6.5377
6356.778566 90.017 4.6141
6402.842404 89.747 2.9302
6449.240040 89.454 1.5040
6495.973891 89.142 0.3469
6543.046396 88.820 -0.5364
6590.460007 88.492 -1.1470
6638.217197 88.167 -1.4931
6686.320456 87.849 -1.5892
6734.772290 87.543 -1.4556
6783.575226 87.254 -1.1176
6832.731809 86.985 -0.6036
6882.244600 86.738 0.0563
6932.116181 86.513 0.8333
6982.349153 86.311 1.7015
7032.946133 86.130 2.6404
7083.909760 85.972 3.6349
7135.242690 85.836 4.6755
7186.947600 85.724 5.7552
7239.027185 85.637 6.8662
7291.484160 85.577 7.9957
7344.321260 85.549 9.1226
7397.541239 85.554 10.2156
7451.146872 85.595 11.2333
7505.140954 85.671 12.1265
7559.526299 85.782 12.8402
7614.305743 85.924 13.3188
7669.482141 86.091 13.5099
7725.058371 86.274 13.3694
7781.037328 86.463 12.8668
7837.421932 86.644 11.9894
7894.215122 86.805 10.7461
7951.419859 86.933 9.1687
8009.039125 87.017 7.3110
8067.075924 87.047 5.2449
8125.533282 87.018 3.0544
8184.414245 86.928 0.8285
8243.721885 86.777 -1.3464
8303.459292 86.571 -3.3927
8363.629581 86.316 -5.2462
8424.235888 86.019 -6.8589
8485.281374 85.691 -8.1996
8546.769221 85.340 -9.2518
8608.702634 84.974 -10.0122
8671.084842 84.602 -10.4868
8733.919097 84.228 -10.6879
8797.208675 83.860 -10.6304
8860.956876 83.500 -10.3292
8925.167022 83.152 -9.7971
8989.842461 82.820 -9.0441
9054.986566 82.506 -8.0780
9120.602731 82.215 -6.9069
9186.694378 81.950 -5.5406
9253.264952 81.717 -3.9954
9320.317925 81.521 -2.2966
9387.856790 81.368 -0.4812
9455.885071 81.262 1.4033
9524.406312 81.207 3.3017
9593.424086 81.203 5.1538
9662.941992 81.250 6.8995
9732.963653 81.345 8.4813
9803.492719 81.483 9.8468
9874.532869 81.658 10.9512
9946.087805 81.862 11.7583
10018.161257 82.085 12.2422
10090.756983 82.318 12.3881
10163.878768 82.552 12.1937
10237.530423 82.776 11.6693
10311.715789 82.982 10.8384
10386.438732 83.163 9.7368
10461.703149 83.311 8.4102
10537.512962 83.422 6.9118
10613.872125 83.494 5.2988
10690.784618 83.528 3.6277
10768.254450 83.525 1.9498
10846.285661 83.489 0.3069
10924.882318 83.427 -1.2716
11004.048518 83.343 -2.7704
11083.788390 83.243 -4.1870
11164.106090 83.133 -5.5295
11245.005805 83.015 -6.8121
11326.491752 82.893 -8.0514
11408.568180 82.769 -9.2657
11491.239368 82.645 -10.4778
11574.509626 82.521 -11.7200
11658.383294 82.397 -13.0341
11742.864745 82.266 -14.4588
11827.958384 82.120 -16.0114
11913.668646 81.946 -17.6752
12000.000000 81.735 -19.4016
12086.956947 81.482 -21.1195
12174.544019 81.184 -22.7491
12262.765784 80.843 -24.2137
12351.626840 80.466 -25.4484
12441.131819 80.061 -26.4069
12531.285389 79.638 -27.0646
12622.092249 79.208 -27.4196
12713.557132 78.783 -27.4889
12805.684808 78.370 -27.3044
12898.480079 77.976 -26.9061
12991.947783 77.607 -26.3358
13086.092792 77.266 -25.6350
13180.920015 76.955 -24.8489
13276.434395 76.675 -24.0302
13372.640911 76.424 -23.2288
13469.544580 76.195 -22.4764
13567.150452 75.984 -21.7792
13665.463617 75.783 -21.1217
13764.489200 75.591 -20.4761
13864.232362 75.407 -19.8098
13964.698305 75.235 -19.0920
14065.892266 75.082 -18.2987
14167.819519 74.959 -17.4177
14270.485380 74.878 -16.4541
14373.895200 74.854 -15.4388
14478.054370 74.907 -14.4377
14582.968320 75.055 -13.5583
14688.642520 75.313 -12.9512
14795.082478 75.691 -12.8031
14902.293745 76.186 -13.3223
15010.281908 76.785 -14.7157
15119.052599 77.462 -17.1667
15228.611486 78.181 -20.8185
15338.964283 78.900 -25.7645
15450.116741 79.570 -32.0433
15562.074656 80.141 -39.6344
15674.843864 80.562 -48.4481
15788.430244 80.780 -58.3091
15902.839718 80.753 -68.9407
16018.078250 80.446 -79.9679
16134.151848 79.843 -90.9524
16251.066563 78.948 -101.4546
16368.828491 77.782 -111.0941
16487.443769 76.374 -119.5802
16606.918584 74.759 -126.7125
16727.259161 72.974 -132.3650
16848.471777 71.052 -136.4690
16970.562748 69.025 -138.9996
17093.538442 66.923 -139.9675
17217.405268 64.776 -139.4147
17342.169684 62.613 -137.4150
17467.838194 60.463 -134.0742
17594.417350 58.355 -129.5254
17721.913751 56.320 -123.9114
17850.334044 54.385 -117.3542
17979.684923 52.576 -109.9340
18109.973131 50.915 -101.6963
18241.205462 49.426 -92.6819
18373.388756 48.128 -82.9657
18506.529905 47.037 -72.7269
18640.635849 46.162 -62.2901
18775.713581 45.500 -52.0701
18911.770141 45.036 -42.4839
19048.812624 44.740 -33.8613
19186.848172 44.572 -26.4011
19325.883983 44.489 -20.1908
19465.927305 44.454 -15.2258
19606.985439 44.437 -11.4143
19749.065738 44.421 -8.6289
19892.175609 44.401 -6.7817
20036.322514 44.385 -5.8529
