* Measurement data measured by REW V5.30.9
* Source: EXCL: Microphone (USB Sound Device        ), no input selected, L, volume: no control
* Format: 256k Log Swept Sine, 1 sweep at -9.0 dBFS with no timing reference
* Dated: Mar 24, 2024 3:55:36 PM
* REW Settings:
*  C-weighting compensation: Off
*  Target level: 75.0 dB
* Note: EPZ Q1 Pro L
* Measurement: L EPZ Q1 Pro
* Smoothing: 1/12 octave
* Frequency Step: 96 ppo
* Start Frequency: 0.36621094 Hz
*
* Freq(Hz) SPL(dB) Phase(degrees)
0.366211 78.152 172.8888
0.368865 78.147 172.8786
0.371538 78.139 172.8633
0.374230 78.130 172.8442
0.376942 78.119 172.8222
0.379673 78.107 172.7981
0.382424 78.095 172.7723
0.385196 78.083 172.7451
0.387987 78.070 172.7168
0.390798 78.057 172.6873
0.393630 78.045 172.6569
0.396483 78.032 172.6254
0.399356 78.018 172.5928
0.402250 78.005 172.5592
0.405165 77.992 172.5246
0.408101 77.978 172.4890
0.411058 77.965 172.4523
0.414037 77.951 172.4146
0.417037 77.938 172.3757
0.420059 77.924 172.3358
0.423103 77.910 172.2948
0.426169 77.896 172.2527
0.429257 77.882 172.2095
0.432367 77.868 172.1652
0.435501 77.853 172.1198
0.438656 77.839 172.0732
0.441835 77.824 172.0255
0.445037 77.810 171.9766
0.448262 77.795 171.9266
0.451510 77.780 171.8754
0.454782 77.765 171.8230
0.458077 77.750 171.7695
0.461397 77.735 171.7148
0.464740 77.720 171.6588
0.468108 77.704 171.6017
0.471500 77.689 171.5433
0.474917 77.673 171.4838
0.478358 77.657 171.4230
0.481825 77.642 171.3610
0.485316 77.626 171.2977
0.488833 77.610 171.2332
0.492375 77.593 171.1675
0.495943 77.577 171.1005
0.499537 77.561 171.0323
0.503157 77.544 170.9628
0.506803 77.527 170.8920
0.510475 77.511 170.8200
0.514174 77.494 170.7467
0.517900 77.477 170.6722
0.521653 77.460 170.5964
0.525433 77.442 170.5193
0.529241 77.425 170.4409
0.533076 77.407 170.3613
0.536939 77.390 170.2805
0.540830 77.372 170.1983
0.544749 77.354 170.1149
0.548696 77.336 170.0302
0.552673 77.318 169.9443
0.556677 77.300 169.8572
0.560711 77.281 169.7687
0.564774 77.263 169.6791
0.568867 77.244 169.5882
0.572989 77.225 169.4961
0.577141 77.206 169.4028
0.581324 77.187 169.3082
0.585536 77.168 169.2125
0.589779 77.148 169.1156
0.594053 77.129 169.0176
0.598358 77.109 168.9183
0.602694 77.089 168.8180
0.607061 77.069 168.7165
0.611460 77.049 168.6139
0.615891 77.029 168.5103
0.620354 77.009 168.4056
0.624849 76.988 168.2998
0.629377 76.967 168.1930
0.633938 76.947 168.0853
0.638532 76.926 167.9766
0.643159 76.905 167.8670
0.647819 76.883 167.7564
0.652514 76.862 167.6451
0.657242 76.840 167.5329
0.662005 76.818 167.4198
0.666802 76.796 167.3061
0.671634 76.774 167.1917
0.676501 76.752 167.0766
0.681403 76.730 166.9609
0.686341 76.707 166.8446
0.691314 76.684 166.7278
0.696324 76.661 166.6106
0.701369 76.638 166.4929
0.706452 76.614 166.3748
0.711571 76.590 166.2562
0.716727 76.564 166.1372
0.721921 76.537 166.0174
0.727153 76.509 165.8966
0.732422 76.477 165.7745
0.737729 76.443 165.6503
0.743075 76.407 165.5237
0.748460 76.369 165.3941
0.753883 76.330 165.2612
0.759346 76.291 165.1246
0.764849 76.252 164.9842
0.770391 76.212 164.8400
0.775974 76.173 164.6917
0.781597 76.134 164.5394
0.787261 76.095 164.3829
0.792965 76.056 164.2223
0.798712 76.017 164.0574
0.804499 75.978 163.8884
0.810329 75.939 163.7151
0.816201 75.899 163.5375
0.822116 75.859 163.3556
0.828073 75.819 163.1693
0.834073 75.778 162.9786
0.840118 75.737 162.7835
0.846205 75.695 162.5840
0.852337 75.651 162.3799
0.858514 75.607 162.1714
0.864735 75.562 161.9584
0.871001 75.515 161.7409
0.877313 75.467 161.5189
0.883670 75.418 161.2923
0.890074 75.366 161.0611
0.896523 75.313 160.8254
0.903020 75.258 160.5851
0.909564 75.200 160.3402
0.916155 75.140 160.0908
0.922793 75.078 159.8369
0.929480 75.012 159.5784
0.936216 74.944 159.3155
0.943000 74.873 159.0481
0.949833 74.798 158.7762
0.956716 74.720 158.5000
0.963649 74.638 158.2194
0.970632 74.552 157.9345
0.977666 74.462 157.6455
0.984750 74.367 157.3523
0.991886 74.267 157.0550
0.999074 74.163 156.7539
1.006313 74.053 156.4489
1.013605 73.937 156.1402
1.020950 73.816 155.8279
1.028349 73.689 155.5123
1.035801 73.555 155.1934
1.043306 73.414 154.8714
1.050867 73.266 154.5465
1.058482 73.111 154.2188
1.066152 72.947 153.8883
1.073878 72.774 153.5548
1.081659 72.592 153.2180
1.089498 72.398 152.8771
1.097393 72.192 152.5308
1.105345 71.971 152.1773
1.113355 71.733 151.8146
1.121422 71.476 151.4407
1.129549 71.200 151.0539
1.137734 70.905 150.6523
1.145978 70.589 150.2345
1.154283 70.254 149.7990
1.162647 69.900 149.3444
1.171072 69.528 148.8689
1.179558 69.139 148.3709
1.188106 68.734 147.8485
1.196715 68.313 147.2995
1.205387 67.879 146.7214
1.214122 67.432 146.1116
1.222920 66.973 145.4669
1.231781 66.505 144.7837
1.240708 66.028 144.0578
1.249698 65.544 143.2844
1.258754 65.055 142.4579
1.267875 64.562 141.5717
1.277063 64.067 140.6179
1.286317 63.573 139.5874
1.295638 63.081 138.4690
1.305027 62.594 137.2494
1.314484 62.113 135.9122
1.324009 61.642 134.4376
1.333603 61.182 132.8008
1.343267 60.736 130.9710
1.353001 60.308 128.9095
1.362805 59.901 126.5673
1.372681 59.517 123.8815
1.382628 59.160 120.7716
1.392647 58.834 117.1346
1.402739 58.543 112.8391
1.412904 58.290 107.7227
1.423142 58.081 101.5958
1.433455 57.918 94.2636
1.443842 57.806 85.5857
1.454305 57.749 75.5853
1.464843 57.750 64.5778
1.475458 57.810 53.2015
1.486150 57.930 42.2429
1.496919 58.109 32.3354
1.507766 58.347 23.7847
1.518692 58.640 16.6015
1.529697 58.986 10.6337
1.540782 59.383 5.6774
1.551947 59.826 1.5363
1.563193 60.312 -1.9559
1.574521 60.837 -4.9333
1.585931 61.399 -7.5003
1.597423 61.992 -9.7383
1.608998 62.613 -11.7105
1.620658 63.258 -13.4662
1.632402 63.923 -15.0443
1.644231 64.603 -16.4755
1.656146 65.294 -17.7844
1.668147 65.991 -18.9911
1.680235 66.691 -20.1117
1.692410 67.388 -21.1596
1.704674 68.079 -22.1460
1.717027 68.758 -23.0802
1.729469 69.422 -23.9699
1.742002 70.065 -24.8220
1.754625 70.685 -25.6420
1.767340 71.277 -26.4349
1.780147 71.838 -27.2051
1.793046 72.366 -27.9560
1.806040 72.860 -28.6908
1.819127 73.320 -29.4120
1.832309 73.749 -30.1214
1.845587 74.150 -30.8204
1.858961 74.527 -31.5099
1.872431 74.882 -32.1900
1.886000 75.220 -32.8611
1.899666 75.540 -33.5232
1.913432 75.845 -34.1762
1.927298 76.135 -34.8203
1.941264 76.412 -35.4555
1.955331 76.677 -36.0820
1.969500 76.930 -36.6999
1.983772 77.172 -37.3094
1.998147 77.405 -37.9108
2.012626 77.629 -38.5044
2.027211 77.845 -39.0905
2.041901 78.054 -39.6695
2.056697 78.258 -40.2417
2.071601 78.458 -40.8076
2.086613 78.654 -41.3676
2.101733 78.849 -41.9223
2.116963 79.043 -42.4721
2.132303 79.237 -43.0178
2.147755 79.432 -43.5602
2.163318 79.628 -44.1003
2.178995 79.826 -44.6392
2.194785 80.024 -45.1784
2.210689 80.222 -45.7192
2.226709 80.417 -46.2627
2.242844 80.608 -46.8095
2.259097 80.796 -47.3596
2.275467 80.979 -47.9127
2.291956 81.157 -48.4683
2.308565 81.330 -49.0254
2.325294 81.498 -49.5832
2.342144 81.662 -50.1410
2.359116 81.822 -50.6978
2.376211 81.978 -51.2530
2.393430 82.130 -51.8058
2.410774 82.280 -52.3555
2.428243 82.427 -52.9016
2.445839 82.571 -53.4436
2.463562 82.713 -53.9810
2.481415 82.854 -54.5138
2.499396 82.994 -55.0419
2.517508 83.132 -55.5658
2.535750 83.269 -56.0862
2.554126 83.405 -56.6043
2.572634 83.539 -57.1218
2.591276 83.671 -57.6404
2.610054 83.801 -58.1612
2.628967 83.928 -58.6851
2.648018 84.052 -59.2120
2.667206 84.173 -59.7414
2.686534 84.290 -60.2725
2.706002 84.406 -60.8044
2.725610 84.518 -61.3360
2.745361 84.628 -61.8661
2.765255 84.735 -62.3936
2.785294 84.841 -62.9174
2.805477 84.944 -63.4364
2.825807 85.046 -63.9497
2.846284 85.147 -64.4564
2.866909 85.245 -64.9562
2.887684 85.343 -65.4490
2.908609 85.439 -65.9352
2.929686 85.533 -66.4160
2.950916 85.626 -66.8929
2.972299 85.716 -67.3672
2.993838 85.804 -67.8402
3.015532 85.890 -68.3121
3.037384 85.974 -68.7831
3.059394 86.055 -69.2526
3.081564 86.134 -69.7198
3.103894 86.212 -70.1839
3.126386 86.287 -70.6437
3.149041 86.361 -71.0980
3.171861 86.434 -71.5459
3.194845 86.505 -71.9861
3.217996 86.576 -72.4178
3.241315 86.645 -72.8403
3.264803 86.714 -73.2532
3.288461 86.781 -73.6566
3.312291 86.847 -74.0512
3.336293 86.912 -74.4378
3.360469 86.976 -74.8173
3.384820 87.037 -75.1903
3.409348 87.098 -75.5571
3.434054 87.157 -75.9180
3.458938 87.215 -76.2728
3.484003 87.272 -76.6215
3.509250 87.328 -76.9637
3.534679 87.383 -77.2990
3.560293 87.439 -77.6269
3.586092 87.493 -77.9472
3.612079 87.548 -78.2593
3.638253 87.603 -78.5628
3.664618 87.658 -78.8574
3.691173 87.713 -79.1432
3.717921 87.767 -79.4202
3.744862 87.821 -79.6888
3.771999 87.875 -79.9496
3.799332 87.929 -80.2034
3.826864 87.982 -80.4510
3.854595 88.036 -80.6932
3.882527 88.090 -80.9307
3.910661 88.144 -81.1644
3.938999 88.198 -81.3947
3.967543 88.254 -81.6221
3.996294 88.310 -81.8466
4.025252 88.367 -82.0679
4.054421 88.424 -82.2859
4.083801 88.483 -82.5000
4.113394 88.542 -82.7106
4.143201 88.602 -82.9180
4.173225 88.662 -83.1231
4.203466 88.723 -83.3273
4.233926 88.785 -83.5319
4.264606 88.847 -83.7381
4.295509 88.910 -83.9474
4.326636 88.974 -84.1609
4.357989 89.038 -84.3791
4.389569 89.103 -84.6024
4.421378 89.168 -84.8307
4.453417 89.235 -85.0637
4.485688 89.301 -85.3011
4.518193 89.369 -85.5431
4.550934 89.437 -85.7900
4.583912 89.505 -86.0424
4.617129 89.574 -86.3009
4.650587 89.642 -86.5664
4.684287 89.711 -86.8395
4.718231 89.779 -87.1209
4.752421 89.847 -87.4111
4.786859 89.915 -87.7102
4.821547 89.982 -88.0182
4.856485 90.049 -88.3347
4.891677 90.116 -88.6592
4.927125 90.182 -88.9913
4.962829 90.248 -89.3304
4.998791 90.313 -89.6761
5.035015 90.378 -90.0282
5.071500 90.441 -90.3864
5.108251 90.503 -90.7508
5.145267 90.564 -91.1217
5.182552 90.624 -91.4992
5.220107 90.683 -91.8832
5.257934 90.741 -92.2730
5.296035 90.797 -92.6677
5.334412 90.853 -93.0663
5.373067 90.907 -93.4675
5.412003 90.960 -93.8704
5.451221 91.012 -94.2743
5.490722 91.062 -94.6788
5.530510 91.111 -95.0841
5.570587 91.159 -95.4900
5.610953 91.206 -95.8966
5.651613 91.252 -96.3033
5.692567 91.296 -96.7093
5.733818 91.340 -97.1136
5.775367 91.383 -97.5154
5.817218 91.425 -97.9139
5.859372 91.466 -98.3085
5.901831 91.507 -98.6993
5.944598 91.547 -99.0861
5.987675 91.586 -99.4693
6.031065 91.626 -99.8489
6.074768 91.664 -100.2251
6.118788 91.703 -100.5976
6.163127 91.742 -100.9665
6.207788 91.781 -101.3315
6.252772 91.820 -101.6926
6.298082 91.860 -102.0500
6.343721 91.899 -102.4040
6.389690 91.940 -102.7552
6.435992 91.980 -103.1045
6.482630 92.021 -103.4527
6.529606 92.063 -103.8003
6.576922 92.106 -104.1480
6.624581 92.149 -104.4960
6.672585 92.193 -104.8447
6.720938 92.238 -105.1944
6.769640 92.283 -105.5457
6.818696 92.329 -105.8996
6.868107 92.376 -106.2567
6.917876 92.423 -106.6179
6.968006 92.471 -106.9835
7.018499 92.519 -107.3540
7.069358 92.567 -107.7294
7.120586 92.616 -108.1096
7.172184 92.664 -108.4948
7.224157 92.713 -108.8849
7.276506 92.762 -109.2802
7.329235 92.810 -109.6807
7.382345 92.859 -110.0863
7.435841 92.906 -110.4968
7.489724 92.954 -110.9116
7.543997 93.001 -111.3301
7.598664 93.047 -111.7516
7.653728 93.093 -112.1755
7.709189 93.138 -112.6012
7.765053 93.183 -113.0285
7.821322 93.226 -113.4569
7.877998 93.269 -113.8855
7.935086 93.312 -114.3136
7.992587 93.353 -114.7403
8.050504 93.394 -115.1649
8.108841 93.435 -115.5870
8.167601 93.475 -116.0063
8.226787 93.514 -116.4224
8.286402 93.553 -116.8351
8.346449 93.592 -117.2440
8.406931 93.631 -117.6488
8.467851 93.670 -118.0494
8.529212 93.709 -118.4457
8.591018 93.748 -118.8382
8.653272 93.787 -119.2269
8.715977 93.826 -119.6124
8.779137 93.865 -119.9949
8.842754 93.905 -120.3748
8.906833 93.945 -120.7523
8.971375 93.986 -121.1280
9.036386 94.027 -121.5025
9.101867 94.068 -121.8763
9.167823 94.109 -122.2498
9.234257 94.151 -122.6236
9.301172 94.192 -122.9977
9.368572 94.234 -123.3725
9.436460 94.276 -123.7481
9.504841 94.317 -124.1248
9.573717 94.358 -124.5026
9.643092 94.399 -124.8815
9.712970 94.440 -125.2612
9.783354 94.480 -125.6414
9.854248 94.520 -126.0218
9.925656 94.559 -126.4022
9.997581 94.597 -126.7821
10.070028 94.635 -127.1611
10.143000 94.672 -127.5388
10.216500 94.708 -127.9147
10.290533 94.743 -128.2884
10.365103 94.778 -128.6595
10.440212 94.812 -129.0280
10.515866 94.846 -129.3934
10.592069 94.879 -129.7557
10.668823 94.912 -130.1148
10.746134 94.944 -130.4707
10.824005 94.976 -130.8237
10.902440 95.007 -131.1739
10.981443 95.039 -131.5215
11.061020 95.069 -131.8670
11.141172 95.100 -132.2107
11.221906 95.130 -132.5529
11.303225 95.160 -132.8941
11.385133 95.190 -133.2346
11.467634 95.219 -133.5748
11.550734 95.248 -133.9149
11.634435 95.277 -134.2552
11.718742 95.305 -134.5958
11.803661 95.333 -134.9369
11.889195 95.360 -135.2785
11.975349 95.386 -135.6205
12.062128 95.412 -135.9630
12.149535 95.437 -136.3057
12.237576 95.461 -136.6486
12.326254 95.484 -136.9916
12.415575 95.507 -137.3345
12.505544 95.530 -137.6772
12.596164 95.551 -138.0197
12.687441 95.572 -138.3621
12.779379 95.593 -138.7043
12.871984 95.613 -139.0466
12.965260 95.633 -139.3889
13.059211 95.652 -139.7316
13.153843 95.670 -140.0749
13.249161 95.689 -140.4189
13.345170 95.706 -140.7640
13.441875 95.724 -141.1102
13.539280 95.741 -141.4578
13.637391 95.757 -141.8068
13.736214 95.773 -142.1574
13.835752 95.789 -142.5094
13.936011 95.804 -142.8628
14.036998 95.819 -143.2175
14.138716 95.833 -143.5734
14.241171 95.847 -143.9302
14.344368 95.860 -144.2877
14.448313 95.873 -144.6459
14.553011 95.886 -145.0045
14.658468 95.898 -145.3635
14.764689 95.910 -145.7229
14.871680 95.922 -146.0826
14.979446 95.934 -146.4428
15.087994 95.946 -146.8035
15.197328 95.958 -147.1648
15.307454 95.969 -147.5269
15.418378 95.981 -147.8899
15.530106 95.993 -148.2539
15.642643 96.004 -148.6187
15.755996 96.016 -148.9844
15.870171 96.027 -149.3508
15.985172 96.038 -149.7178
16.101007 96.050 -150.0850
16.217682 96.061 -150.4521
16.335201 96.072 -150.8190
16.453573 96.083 -151.1853
16.572803 96.093 -151.5507
16.692898 96.104 -151.9152
16.813862 96.115 -152.2785
16.935701 96.125 -152.6407
17.058424 96.136 -153.0017
17.182035 96.147 -153.3616
17.306543 96.157 -153.7206
17.431953 96.168 -154.0785
17.558273 96.179 -154.4355
17.685509 96.189 -154.7914
17.813665 96.199 -155.1462
17.942751 96.209 -155.4996
18.072771 96.218 -155.8513
18.203733 96.227 -156.2008
18.335646 96.235 -156.5478
18.468513 96.244 -156.8919
18.602345 96.251 -157.2328
18.737144 96.258 -157.5701
18.872921 96.265 -157.9039
19.009682 96.272 -158.2339
19.147434 96.278 -158.5606
19.286184 96.284 -158.8840
19.425940 96.290 -159.2046
19.566708 96.295 -159.5227
19.708496 96.300 -159.8389
19.851313 96.305 -160.1533
19.995163 96.310 -160.4665
20.140057 96.314 -160.7785
20.285999 96.317 -161.0897
20.433001 96.320 -161.4000
20.581066 96.322 -161.7095
20.730206 96.324 -162.0183
20.880424 96.326 -162.3263
21.031733 96.326 -162.6337
21.184137 96.327 -162.9405
21.337646 96.326 -163.2469
21.492268 96.326 -163.5532
21.648010 96.324 -163.8596
21.804880 96.323 -164.1663
21.962887 96.320 -164.4734
22.122040 96.318 -164.7811
22.282345 96.315 -165.0894
22.443811 96.311 -165.3984
22.606449 96.307 -165.7080
22.770266 96.303 -166.0181
22.935268 96.298 -166.3287
23.101467 96.293 -166.6396
23.268869 96.288 -166.9510
23.437485 96.282 -167.2626
23.607323 96.277 -167.5746
23.778391 96.271 -167.8867
23.950699 96.265 -168.1991
24.124256 96.259 -168.5113
24.299070 96.253 -168.8234
24.475151 96.246 -169.1351
24.652508 96.240 -169.4462
24.831150 96.233 -169.7563
25.011087 96.227 -170.0655
25.192327 96.221 -170.3735
25.374882 96.214 -170.6802
25.558758 96.208 -170.9857
25.743967 96.202 -171.2898
25.930519 96.195 -171.5924
26.118422 96.189 -171.8935
26.307686 96.182 -172.1929
26.498322 96.176 -172.4903
26.690340 96.169 -172.7855
26.883749 96.162 -173.0784
27.078560 96.155 -173.3688
27.274782 96.148 -173.6566
27.472427 96.140 -173.9417
27.671503 96.132 -174.2243
27.872023 96.124 -174.5044
28.073996 96.115 -174.7822
28.277431 96.106 -175.0578
28.482342 96.097 -175.3312
28.688736 96.087 -175.6024
28.896626 96.077 -175.8717
29.106022 96.066 -176.1390
29.316936 96.055 -176.4044
29.529379 96.044 -176.6682
29.743361 96.032 -176.9305
29.958893 96.020 -177.1917
30.175987 96.007 -177.4520
30.394655 95.994 -177.7117
30.614908 95.981 -177.9712
30.836756 95.967 -178.2307
31.060211 95.954 -178.4905
31.285286 95.939 -178.7505
31.511992 95.925 -179.0108
31.740341 95.910 -179.2714
31.970345 95.895 -179.5321
32.202015 95.880 -179.7929
32.435364 95.865 179.9463
32.670403 95.850 179.6854
32.907146 95.834 179.4246
33.145607 95.818 179.1636
33.385796 95.803 178.9026
33.627724 95.787 178.6416
33.871403 95.771 178.3810
34.116848 95.755 178.1210
34.364071 95.738 177.8622
34.613087 95.721 177.6051
34.863907 95.704 177.3499
35.116547 95.687 177.0970
35.371017 95.669 176.8464
35.627331 95.651 176.5981
35.885502 95.633 176.3526
36.145542 95.615 176.1101
36.407467 95.595 175.8713
36.671291 95.576 175.6365
36.937027 95.556 175.4063
37.204689 95.536 175.1805
37.474289 95.516 174.9585
37.745842 95.496 174.7393
38.019363 95.476 174.5214
38.294868 95.456 174.3038
38.572369 95.436 174.0854
38.851879 95.416 173.8660
39.133415 95.395 173.6459
39.416992 95.374 173.4259
39.702625 95.352 173.2069
39.990326 95.329 172.9897
40.280113 95.307 172.7749
40.571999 95.284 172.5624
40.866001 95.261 172.3523
41.162132 95.237 172.1441
41.460411 95.214 171.9377
41.760849 95.191 171.7328
42.063465 95.168 171.5293
42.368275 95.145 171.3272
42.675293 95.122 171.1266
42.984535 95.098 170.9275
43.296021 95.075 170.7303
43.609760 95.051 170.5355
43.925774 95.028 170.3430
44.244080 95.004 170.1530
44.564690 94.980 169.9648
44.887623 94.956 169.7778
45.212898 94.932 169.5913
45.540531 94.908 169.4052
45.870537 94.883 169.2201
46.202934 94.857 169.0374
46.537739 94.831 168.8586
46.874969 94.805 168.6849
47.214645 94.779 168.5164
47.556782 94.752 168.3517
47.901398 94.727 168.1889
48.248512 94.701 168.0261
48.598141 94.676 167.8623
48.950302 94.650 167.6977
49.305016 94.624 167.5333
49.662300 94.598 167.3704
50.022175 94.571 167.2100
50.384655 94.544 167.0524
50.749763 94.516 166.8978
51.117516 94.489 166.7462
51.487934 94.461 166.5976
51.861038 94.433 166.4520
52.236843 94.405 166.3088
52.615372 94.377 166.1675
52.996643 94.349 166.0271
53.380680 94.321 165.8875
53.767498 94.293 165.7491
54.157120 94.264 165.6129
54.549564 94.235 165.4799
54.944855 94.206 165.3507
55.343006 94.177 165.2250
55.744045 94.149 165.1014
56.147991 94.121 164.9781
56.554863 94.094 164.8532
56.964684 94.068 164.7254
57.377472 94.041 164.5944
57.793251 94.015 164.4610
58.212044 93.987 164.3269
58.633873 93.960 164.1937
59.058758 93.931 164.0628
59.486721 93.903 163.9346
59.917786 93.873 163.8094
60.351974 93.843 163.6877
60.789310 93.813 163.5705
61.229816 93.781 163.4592
61.673512 93.750 163.3546
62.120422 93.718 163.2567
62.570572 93.686 163.1638
63.023983 93.654 163.0737
63.480682 93.623 162.9840
63.940689 93.592 162.8933
64.404030 93.561 162.8014
64.870728 93.530 162.7098
65.340805 93.499 162.6208
65.814293 93.468 162.5360
66.291214 93.437 162.4550
66.771591 93.408 162.3760
67.255447 93.378 162.2968
67.742805 93.349 162.2175
68.233696 93.319 162.1404
68.728142 93.289 162.0690
69.226173 93.258 162.0062
69.727814 93.227 161.9525
70.233093 93.195 161.9073
70.742035 93.164 161.8690
71.254662 93.131 161.8368
71.771004 93.098 161.8121
72.291084 93.065 161.7975
72.814934 93.033 161.7932
73.342583 93.003 161.7919
73.874054 92.977 161.7786
74.409378 92.952 161.7383
74.948578 92.927 161.6663
75.491684 92.900 161.5714
76.038727 92.870 161.4688
76.589737 92.838 161.3698
77.144737 92.807 161.2780
77.703758 92.777 161.1913
78.266830 92.748 161.1067
78.833984 92.720 161.0220
79.405251 92.694 160.9358
79.980652 92.668 160.8471
80.560226 92.643 160.7558
81.143997 92.617 160.6618
81.732002 92.591 160.5652
82.324265 92.562 160.4668
82.920822 92.531 160.3681
83.521698 92.497 160.2722
84.126930 92.461 160.1829
84.736549 92.421 160.1041
85.350586 92.380 160.0383
85.969070 92.337 159.9866
86.592041 92.293 159.9486
87.219521 92.250 159.9237
87.851547 92.206 159.9113
88.488159 92.164 159.9102
89.129379 92.123 159.9185
89.775246 92.083 159.9346
90.425797 92.044 159.9580
91.081062 92.006 159.9889
91.741074 91.969 160.0276
92.405869 91.933 160.0746
93.075478 91.897 160.1299
93.749939 91.862 160.1931
94.429291 91.829 160.2627
95.113564 91.796 160.3360
95.802795 91.766 160.4108
96.497025 91.737 160.4855
97.196281 91.710 160.5591
97.900604 91.685 160.6302
98.610031 91.663 160.6967
99.324600 91.642 160.7564
100.044350 91.622 160.8072
100.769310 91.604 160.8483
101.499527 91.586 160.8798
102.235031 91.567 160.9021
102.975868 91.547 160.9156
103.722076 91.527 160.9203
104.473686 91.505 160.9161
105.230743 91.483 160.9031
105.993286 91.459 160.8816
106.761360 91.435 160.8523
107.534996 91.409 160.8170
108.314240 91.384 160.7780
109.099129 91.357 160.7377
109.889709 91.330 160.6980
110.686012 91.301 160.6602
111.488091 91.271 160.6258
112.295982 91.238 160.5954
113.109726 91.202 160.5681
113.929367 91.163 160.5425
114.754944 91.120 160.5182
115.586502 91.074 160.4971
116.424088 91.025 160.4841
117.267746 90.974 160.4866
118.117516 90.925 160.5125
118.973442 90.878 160.5687
119.835571 90.836 160.6563
120.703949 90.801 160.7657
121.578621 90.773 160.8803
122.459633 90.750 160.9876
123.347023 90.729 161.0850
124.240845 90.706 161.1758
125.141144 90.683 161.2638
126.047966 90.657 161.3500
126.961365 90.630 161.4332
127.881378 90.601 161.5117
128.808060 90.572 161.5847
129.741455 90.543 161.6523
130.681610 90.515 161.7157
131.628586 90.486 161.7762
132.582428 90.457 161.8361
133.543182 90.427 161.8987
134.510895 90.396 161.9671
135.485611 90.364 162.0427
136.467392 90.330 162.1243
137.456284 90.297 162.2101
138.452347 90.263 162.2987
139.455627 90.230 162.3896
140.466187 90.198 162.4823
141.484070 90.167 162.5750
142.509323 90.137 162.6657
143.542007 90.108 162.7528
144.582169 90.079 162.8356
145.629868 90.050 162.9154
146.685165 90.020 162.9951
147.748108 89.990 163.0790
148.818756 89.960 163.1703
149.897156 89.929 163.2711
150.983368 89.898 163.3829
152.077454 89.867 163.5080
153.179474 89.835 163.6479
154.289474 89.804 163.8007
155.407516 89.775 163.9615
156.533661 89.747 164.1239
157.667969 89.721 164.2815
158.810501 89.696 164.4300
159.961304 89.673 164.5677
161.120453 89.650 164.6957
162.287994 89.628 164.8167
163.464005 89.604 164.9335
164.648529 89.580 165.0486
165.841644 89.554 165.1647
167.043396 89.527 165.2844
168.253860 89.499 165.4113
169.473099 89.470 165.5480
170.701172 89.441 165.6953
171.938141 89.414 165.8516
173.184082 89.387 166.0134
174.439041 89.362 166.1775
175.703094 89.338 166.3408
176.976318 89.314 166.5017
178.258759 89.292 166.6591
179.550491 89.270 166.8123
180.851593 89.249 166.9606
182.162125 89.228 167.1037
183.482147 89.207 167.2419
184.811737 89.187 167.3763
186.150955 89.165 167.5088
187.499878 89.144 167.6416
188.858582 89.121 167.7764
190.227127 89.098 167.9139
191.605591 89.074 168.0545
192.994049 89.050 168.1987
194.392563 89.025 168.3470
195.801208 89.000 168.5002
197.220062 88.975 168.6592
198.649200 88.950 168.8253
200.088699 88.926 168.9986
201.538620 88.902 169.1782
202.999054 88.880 169.3611
204.470062 88.859 169.5432
205.951736 88.839 169.7204
207.444153 88.820 169.8904
208.947372 88.801 170.0531
210.461487 88.781 170.2108
211.986572 88.760 170.3669
213.522720 88.738 170.5258
215.069992 88.715 170.6927
216.628479 88.691 170.8718
218.198257 88.669 171.0649
219.779419 88.647 171.2699
221.372025 88.628 171.4814
222.976181 88.610 171.6933
224.591965 88.593 171.9014
226.219452 88.577 172.1035
227.858734 88.562 172.2991
229.509888 88.547 172.4888
231.173004 88.532 172.6738
232.848175 88.517 172.8549
234.535492 88.502 173.0322
236.235031 88.487 173.2047
237.946884 88.473 173.3716
239.671143 88.457 173.5333
241.407898 88.441 173.6918
243.157242 88.424 173.8502
244.919266 88.406 174.0124
246.694046 88.386 174.1824
248.481689 88.366 174.3640
250.282288 88.345 174.5596
252.095932 88.324 174.7702
253.922729 88.305 174.9940
255.762756 88.289 175.2248
257.616119 88.275 175.4529
259.482910 88.264 175.6688
261.363220 88.253 175.8678
263.257172 88.242 176.0522
265.164856 88.230 176.2286
267.086365 88.216 176.4049
269.021790 88.200 176.5877
270.971222 88.184 176.7811
272.934784 88.167 176.9862
274.912567 88.151 177.2015
276.904694 88.137 177.4245
278.911255 88.124 177.6527
280.932373 88.112 177.8834
282.968140 88.103 178.1130
285.018646 88.096 178.3355
287.084015 88.090 178.5439
289.164337 88.086 178.7322
291.259735 88.081 178.8987
293.370331 88.073 179.0486
295.496216 88.064 179.1914
297.637512 88.051 179.3369
299.794312 88.037 179.4918
301.966736 88.021 179.6591
304.154907 88.005 179.8383
306.358948 87.989 -179.9735
308.578949 87.973 -179.7804
310.815033 87.958 -179.5861
313.067322 87.943 -179.3926
315.335938 87.927 -179.1988
317.621002 87.910 -179.0008
319.922607 87.893 -178.7939
322.240906 87.877 -178.5753
324.575989 87.861 -178.3458
326.928009 87.846 -178.1088
329.297058 87.832 -177.8683
331.683289 87.820 -177.6281
334.086792 87.809 -177.3913
336.507721 87.798 -177.1598
338.946198 87.788 -176.9339
341.402344 87.777 -176.7120
343.876282 87.765 -176.4911
346.368164 87.753 -176.2687
348.878082 87.741 -176.0433
351.406189 87.729 -175.8144
353.952637 87.717 -175.5822
356.517517 87.706 -175.3473
359.100983 87.694 -175.1104
361.703186 87.683 -174.8718
364.324249 87.672 -174.6316
366.964294 87.662 -174.3893
369.623474 87.651 -174.1446
372.301910 87.641 -173.8975
374.999756 87.631 -173.6481
377.717163 87.622 -173.3972
380.454254 87.612 -173.1456
383.211182 87.603 -172.8937
385.988098 87.594 -172.6411
388.785126 87.586 -172.3870
391.602417 87.577 -172.1303
394.440125 87.569 -171.8710
397.298401 87.562 -171.6099
400.177399 87.555 -171.3483
403.077240 87.548 -171.0879
405.998108 87.542 -170.8300
408.940125 87.535 -170.5747
411.903473 87.528 -170.3201
414.888306 87.520 -170.0628
417.894745 87.512 -169.7989
420.922974 87.504 -169.5257
423.973145 87.497 -169.2428
427.045441 87.491 -168.9520
430.139984 87.487 -168.6572
433.256958 87.485 -168.3629
436.396515 87.484 -168.0722
439.558838 87.484 -167.7856
442.744049 87.485 -167.5038
445.952362 87.488 -167.2293
449.183929 87.491 -166.9675
452.438904 87.495 -166.7241
455.717468 87.497 -166.5013
459.019775 87.498 -166.2941
462.346008 87.496 -166.0910
465.696350 87.490 -165.8799
469.070984 87.483 -165.6541
472.470062 87.475 -165.4128
475.893768 87.467 -165.1597
479.342285 87.460 -164.9006
482.815796 87.453 -164.6407
486.314484 87.446 -164.3815
489.838531 87.438 -164.1178
493.388092 87.429 -163.8417
496.963379 87.420 -163.5492
500.564575 87.413 -163.2441
504.191864 87.407 -162.9348
507.845459 87.403 -162.6287
511.525513 87.399 -162.3293
515.232239 87.396 -162.0355
518.965820 87.392 -161.7432
522.726440 87.387 -161.4470
526.514343 87.382 -161.1421
530.329712 87.378 -160.8265
534.172729 87.374 -160.5029
538.043579 87.371 -160.1766
541.942444 87.370 -159.8503
545.869568 87.368 -159.5228
549.825134 87.368 -159.1927
553.809387 87.368 -158.8614
557.822510 87.369 -158.5316
561.864746 87.371 -158.2057
565.936279 87.372 -157.8831
570.037292 87.373 -157.5612
574.168030 87.374 -157.2368
578.328674 87.374 -156.9080
582.519470 87.374 -156.5750
586.740662 87.373 -156.2379
590.992432 87.373 -155.8948
595.275024 87.373 -155.5434
599.588623 87.374 -155.1849
603.933472 87.377 -154.8234
608.309814 87.380 -154.4629
612.717896 87.383 -154.1044
617.157898 87.386 -153.7451
621.630066 87.389 -153.3788
626.134644 87.391 -152.9989
630.671875 87.394 -152.6033
635.242004 87.399 -152.1963
639.845215 87.407 -151.7840
644.481812 87.416 -151.3688
649.151978 87.427 -150.9498
653.856018 87.441 -150.5288
658.594116 87.458 -150.1128
663.366577 87.477 -149.7121
668.173584 87.498 -149.3343
673.015442 87.518 -148.9789
677.892395 87.536 -148.6380
682.804688 87.552 -148.3021
687.752563 87.567 -147.9639
692.736328 87.579 -147.6179
697.756165 87.591 -147.2598
702.812378 87.603 -146.8888
707.905273 87.615 -146.5075
713.035034 87.628 -146.1205
718.201965 87.642 -145.7310
723.406372 87.657 -145.3393
728.648499 87.672 -144.9437
733.928589 87.688 -144.5429
739.246948 87.704 -144.1365
744.603821 87.721 -143.7247
749.999512 87.738 -143.3076
755.434326 87.757 -142.8853
760.908508 87.777 -142.4579
766.422363 87.797 -142.0261
771.976196 87.819 -141.5907
777.570251 87.842 -141.1526
783.204834 87.867 -140.7118
788.880249 87.892 -140.2669
794.596802 87.919 -139.8146
800.354797 87.947 -139.3527
806.154480 87.979 -138.8828
811.996216 88.014 -138.4111
817.880249 88.052 -137.9468
823.806946 88.094 -137.4999
829.776611 88.138 -137.0789
835.789490 88.182 -136.6860
841.845947 88.224 -136.3140
847.946289 88.265 -135.9518
854.090881 88.304 -135.5906
860.279968 88.342 -135.2259
866.513916 88.379 -134.8546
872.793030 88.416 -134.4738
879.117676 88.454 -134.0837
885.488098 88.493 -133.6888
891.904724 88.533 -133.2934
898.367859 88.574 -132.8980
904.877808 88.617 -132.5008
911.434937 88.660 -132.1006
918.039551 88.705 -131.6988
924.692017 88.752 -131.2982
931.392700 88.801 -130.9023
938.141968 88.852 -130.5149
944.940125 88.903 -130.1374
951.787537 88.955 -129.7688
958.684570 89.007 -129.4063
965.631592 89.059 -129.0474
972.628967 89.111 -128.6898
979.677063 89.164 -128.3329
986.776184 89.218 -127.9770
993.926758 89.272 -127.6206
1001.129150 89.326 -127.2591
1008.383728 89.382 -126.8885
1015.690918 89.441 -126.5104
1023.051025 89.503 -126.1300
1030.464478 89.568 -125.7553
1037.931641 89.638 -125.3976
1045.452881 89.710 -125.0690
1053.028687 89.783 -124.7751
1060.659424 89.855 -124.5124
1068.345459 89.926 -124.2721
1076.087158 89.994 -124.0446
1083.884888 90.061 -123.8230
1091.739136 90.128 -123.6050
1099.650269 90.193 -123.3907
1107.618774 90.258 -123.1800
1115.645020 90.323 -122.9723
1123.729492 90.387 -122.7671
1131.872559 90.451 -122.5640
1140.074585 90.516 -122.3631
1148.336060 90.581 -122.1647
1156.657349 90.646 -121.9692
1165.038940 90.712 -121.7765
1173.481323 90.778 -121.5864
1181.984863 90.847 -121.4010
1190.550049 90.918 -121.2279
1199.177246 90.992 -121.0798
1207.866943 91.066 -120.9698
1216.619629 91.139 -120.9046
1225.435791 91.207 -120.8799
1234.315796 91.270 -120.8843
1243.260132 91.324 -120.9025
1252.269287 91.371 -120.9165
1261.343750 91.411 -120.9088
1270.484009 91.444 -120.8633
1279.690430 91.474 -120.7658
1288.963623 91.504 -120.6082
1298.303955 91.536 -120.3932
1307.712036 91.573 -120.1344
1317.188232 91.618 -119.8526
1326.733154 91.670 -119.5686
1336.347168 91.727 -119.2974
1346.030884 91.788 -119.0465
1355.784790 91.851 -118.8171
1365.609375 91.915 -118.6062
1375.505127 91.979 -118.4072
1385.472656 92.043 -118.2121
1395.512329 92.109 -118.0160
1405.624756 92.176 -117.8210
1415.810547 92.247 -117.6355
1426.070068 92.321 -117.4714
1436.403931 92.395 -117.3357
1446.812744 92.469 -117.2271
1457.296997 92.541 -117.1392
1467.857178 92.611 -117.0648
1478.493896 92.679 -116.9986
1489.207642 92.745 -116.9365
1499.999023 92.810 -116.8746
1510.868652 92.873 -116.8094
1521.817017 92.936 -116.7380
1532.844727 92.998 -116.6580
1543.952393 93.061 -116.5681
1555.140503 93.126 -116.4683
1566.409668 93.193 -116.3629
1577.760498 93.264 -116.2626
1589.193604 93.339 -116.1811
1600.709595 93.414 -116.1273
1612.308960 93.490 -116.1020
1623.992432 93.564 -116.1003
1635.760498 93.637 -116.1153
1647.613892 93.707 -116.1413
1659.553223 93.776 -116.1740
1671.578979 93.843 -116.2103
1683.691895 93.910 -116.2495
1695.892578 93.975 -116.2933
1708.181763 94.040 -116.3437
1720.559937 94.103 -116.4002
1733.027832 94.165 -116.4596
1745.586060 94.224 -116.5163
1758.235352 94.282 -116.5633
1770.976196 94.339 -116.5944
1783.809448 94.398 -116.6094
1796.735718 94.460 -116.6166
1809.755615 94.524 -116.6289
1822.869873 94.590 -116.6560
1836.079102 94.657 -116.7006
1849.384033 94.724 -116.7601
1862.785400 94.789 -116.8297
1876.283936 94.854 -116.9040
1889.880249 94.917 -116.9772
1903.575073 94.981 -117.0445
1917.369141 95.046 -117.1028
1931.263184 95.114 -117.1527
1945.257935 95.186 -117.2013
1959.354126 95.263 -117.2640
1973.552368 95.345 -117.3612
1987.853516 95.430 -117.5093
2002.258301 95.515 -117.7160
2016.767456 95.598 -117.9799
2031.381836 95.676 -118.2940
2046.102051 95.749 -118.6480
2060.928955 95.815 -119.0313
2075.863281 95.874 -119.4353
2090.905762 95.926 -119.8525
2106.057373 95.970 -120.2744
2121.318848 96.007 -120.6899
2136.690918 96.036 -121.0856
2152.174316 96.059 -121.4473
2167.769775 96.077 -121.7664
2183.478271 96.094 -122.0420
2199.300537 96.108 -122.2779
2215.237549 96.123 -122.4761
2231.290039 96.136 -122.6336
2247.458984 96.150 -122.7450
2263.745117 96.166 -122.8041
2280.149170 96.187 -122.8065
2296.672119 96.215 -122.7530
2313.314697 96.253 -122.6531
2330.077881 96.306 -122.5290
2346.962646 96.375 -122.4168
2363.969727 96.459 -122.3592
2381.100098 96.556 -122.3936
2398.354492 96.659 -122.5441
2415.733887 96.763 -122.8202
2433.239258 96.864 -123.2177
2450.871582 96.957 -123.7226
2468.631592 97.040 -124.3158
2486.520264 97.109 -124.9736
2504.538574 97.164 -125.6691
2522.687500 97.206 -126.3731
2540.968018 97.234 -127.0590
2559.380859 97.254 -127.7097
2577.927246 97.267 -128.3206
2596.607910 97.276 -128.8943
2615.424072 97.282 -129.4365
2634.376465 97.286 -129.9528
2653.466309 97.288 -130.4470
2672.694336 97.288 -130.9203
2692.061768 97.287 -131.3723
2711.569580 97.286 -131.8033
2731.218750 97.285 -132.2193
2751.010254 97.285 -132.6302
2770.945312 97.285 -133.0442
2791.024658 97.284 -133.4653
2811.249512 97.281 -133.8934
2831.621094 97.275 -134.3260
2852.140137 97.266 -134.7607
2872.807861 97.254 -135.1942
2893.625488 97.237 -135.6202
2914.593994 97.216 -136.0285
2935.714355 97.191 -136.4098
2956.987793 97.164 -136.7611
2978.415283 97.137 -137.0855
2999.998047 97.108 -137.3879
3021.737305 97.079 -137.6713
3043.634033 97.047 -137.9344
3065.689453 97.014 -138.1709
3087.904785 96.980 -138.3725
3110.281006 96.946 -138.5352
3132.819336 96.914 -138.6626
3155.520996 96.886 -138.7633
3178.387207 96.860 -138.8465
3201.419189 96.837 -138.9187
3224.617920 96.816 -138.9840
3247.984863 96.796 -139.0441
3271.520996 96.777 -139.0966
3295.227783 96.758 -139.1337
3319.106445 96.739 -139.1460
3343.157959 96.723 -139.1297
3367.383789 96.711 -139.0894
3391.785156 96.704 -139.0346
3416.363525 96.701 -138.9746
3441.119873 96.701 -138.9137
3466.055664 96.704 -138.8495
3491.172119 96.711 -138.7780
3516.470703 96.722 -138.6996
3541.952393 96.738 -138.6200
3567.618896 96.760 -138.5475
3593.471436 96.786 -138.4900
3619.511230 96.817 -138.4544
3645.739746 96.850 -138.4452
3672.158203 96.886 -138.4619
3698.768066 96.924 -138.4983
3725.570801 96.962 -138.5487
3752.567871 97.004 -138.6126
3779.760498 97.047 -138.6943
3807.150146 97.093 -138.7977
3834.738281 97.140 -138.9215
3862.526367 97.187 -139.0585
3890.515869 97.237 -139.2016
3918.708252 97.291 -139.3505
3947.104736 97.350 -139.5122
3975.707031 97.415 -139.6992
4004.516602 97.487 -139.9274
4033.534912 97.563 -140.2121
4062.763672 97.643 -140.5634
4092.204102 97.725 -140.9842
4121.857910 97.807 -141.4757
4151.726562 97.890 -142.0414
4181.811523 97.971 -142.6866
4212.114746 98.049 -143.4132
4242.637695 98.122 -144.2165
4273.381836 98.189 -145.0874
4304.348633 98.249 -146.0187
4335.539551 98.304 -147.0081
4366.956543 98.352 -148.0575
4398.601074 98.392 -149.1712
4430.475098 98.424 -150.3519
4462.580078 98.444 -151.5955
4494.917969 98.452 -152.8912
4527.490234 98.446 -154.2265
4560.298340 98.425 -155.5906
4593.344238 98.389 -156.9725
4626.629395 98.336 -158.3569
4660.155762 98.267 -159.7244
4693.925293 98.182 -161.0560
4727.939453 98.084 -162.3383
4762.200195 97.973 -163.5648
4796.708984 97.853 -164.7357
4831.467773 97.723 -165.8537
4866.478516 97.583 -166.9179
4901.743164 97.434 -167.9250
4937.263184 97.276 -168.8719
4973.040527 97.109 -169.7574
5009.077148 96.934 -170.5771
5045.375000 96.749 -171.3206
5081.936035 96.556 -171.9746
5118.761719 96.355 -172.5282
5155.854492 96.151 -172.9767
5193.215820 95.945 -173.3235
5230.848145 95.738 -173.5758
5268.752930 95.531 -173.7403
5306.932617 95.326 -173.8224
5345.388672 95.123 -173.8291
5384.123535 94.922 -173.7678
5423.139160 94.723 -173.6400
5462.437500 94.524 -173.4410
5502.020508 94.328 -173.1632
5541.890625 94.134 -172.8020
5582.049316 93.946 -172.3596
5622.499023 93.764 -171.8440
5663.242188 93.590 -171.2637
5704.280273 93.424 -170.6277
5745.615723 93.266 -169.9458
5787.250977 93.115 -169.2272
5829.187988 92.972 -168.4746
5871.428711 92.834 -167.6837
5913.975586 92.703 -166.8466
5956.830566 92.579 -165.9586
5999.996094 92.463 -165.0206
6043.474609 92.356 -164.0374
6087.268066 92.260 -163.0154
6131.378906 92.175 -161.9637
6175.809570 92.101 -160.8927
6220.562012 92.037 -159.8084
6265.638672 91.983 -158.7101
6311.041992 91.939 -157.5925
6356.774414 91.905 -156.4510
6402.838379 91.882 -155.2849
6449.235840 91.872 -154.0970
6495.969727 91.877 -152.8942
6543.041992 91.896 -151.6880
6590.455566 91.931 -150.4915
6638.212891 91.980 -149.3140
6686.315918 92.044 -148.1595
6734.767578 92.122 -147.0277
6783.570312 92.215 -145.9181
6832.727051 92.324 -144.8313
6882.239746 92.450 -143.7716
6932.111328 92.595 -142.7492
6982.344238 92.760 -141.7774
7032.941406 92.946 -140.8694
7083.904785 93.155 -140.0366
7135.237793 93.388 -139.2933
7186.942871 93.647 -138.6603
7239.022461 93.934 -138.1673
7291.479492 94.250 -137.8552
7344.316406 94.595 -137.7760
7397.536133 94.966 -137.9865
7451.141602 95.358 -138.5419
7505.135742 95.764 -139.4924
7559.520996 96.175 -140.8833
7614.300293 96.581 -142.7520
7669.476562 96.970 -145.1252
7725.052734 97.327 -148.0153
7781.031738 97.635 -151.4127
7837.416504 97.880 -155.2774
7894.209473 98.044 -159.5331
7951.414062 98.117 -164.0717
8009.033203 98.089 -168.7589
8067.069824 97.958 -173.4472
8125.527344 97.727 -177.9915
8184.408203 97.402 177.7379
8243.715820 96.993 173.8490
8303.453125 96.511 170.4252
8363.623047 95.971 167.5244
8424.229492 95.386 165.1800
8485.275391 94.771 163.4019
8546.763672 94.141 162.1760
8608.697266 93.508 161.4697
8671.079102 92.883 161.2418
8733.913086 92.273 161.4518
8797.202148 91.683 162.0666
8860.950195 91.118 163.0622
8925.160156 90.582 164.4200
8989.835938 90.078 166.1226
9054.980469 89.610 168.1568
9120.596680 89.183 170.5185
9186.688477 88.802 173.2159
9253.258789 88.475 176.2684
9320.311523 88.213 179.6925
9387.850586 88.034 -176.5177
9455.878906 87.957 -172.4090
9524.400391 88.003 -168.0849
9593.417969 88.187 -163.7130
9662.935547 88.518 -159.5209
9732.957031 88.990 -155.7752
9803.486328 89.582 -152.7387
9874.526367 90.262 -150.6167
9946.081055 90.991 -149.5196
10018.154297 91.734 -149.4575
10090.750000 92.462 -150.3633
10163.872070 93.153 -152.1297
10237.523438 93.795 -154.6413
10311.708984 94.382 -157.7957
10386.431641 94.911 -161.5135
10461.696289 95.381 -165.7404
10537.505859 95.787 -170.4448
10613.865234 96.124 -175.6097
10690.777344 96.381 178.7837
10768.247070 96.543 172.7762
10846.278320 96.593 166.4492
10924.875000 96.516 159.9316
11004.041016 96.303 153.3912
11083.781250 95.951 147.0157
11164.098633 95.463 140.9894
11244.998047 94.852 135.4761
11326.484375 94.131 130.6058
11408.560547 93.322 126.4670
11491.231445 92.447 123.1029
11574.501953 91.529 120.5150
11658.375977 90.591 118.6730
11742.857422 89.650 117.5270
11827.951172 88.724 117.0141
11913.661133 87.825 117.0611
11999.992188 86.965 117.5884
12086.949219 86.150 118.5192
12174.536133 85.382 119.7870
12262.757812 84.664 121.3372
12351.619141 83.997 123.1208
12441.124023 83.379 125.0930
12531.277344 82.809 127.2168
12622.083984 82.285 129.4647
12713.548828 81.806 131.8149
12805.676758 81.370 134.2449
12898.471680 80.978 136.7327
12991.939453 80.626 139.2618
13086.083984 80.316 141.8193
13180.911133 80.046 144.3907
13276.425781 79.816 146.9573
13372.631836 79.627 149.5019
13469.535156 79.477 152.0114
13567.140625 79.369 154.4706
13665.454102 79.302 156.8599
13764.479492 79.278 159.1575
13864.222656 79.296 161.3437
13964.688477 79.360 163.3955
14065.882812 79.470 165.2806
14167.809570 79.628 166.9571
14270.475586 79.835 168.3777
14373.885742 80.091 169.4869
14478.044922 80.392 170.2189
14582.958984 80.734 170.5042
14688.632812 81.108 170.2791
14795.072266 81.503 169.4916
14902.283203 81.905 168.1055
15010.271484 82.298 166.1049
15119.041992 82.667 163.4957
15228.600586 82.996 160.3042
15338.953125 83.270 156.5777
15450.105469 83.476 152.3855
15562.063477 83.605 147.8151
15674.833008 83.653 142.9615
15788.418945 83.620 137.9143
15902.828125 83.511 132.7461
16018.066406 83.332 127.5048
16134.139648 83.093 122.2086
16251.054688 82.799 116.8495
16368.816406 82.453 111.4056
16487.431641 82.051 105.8564
16606.906250 81.586 100.1964
16727.246094 81.044 94.4501
16848.458984 80.413 88.6802
16970.550781 79.680 82.9854
17093.527344 78.835 77.4889
17217.394531 77.876 72.3274
17342.158203 76.803 67.6357
17467.826172 75.624 63.5327
17594.404297 74.351 60.1132
17721.900391 72.995 57.4435
17850.320312 71.574 55.5597
17979.671875 70.103 54.4713
18109.960938 68.598 54.1693
18241.193359 67.072 54.6323
18373.376953 65.538 55.8318
18506.517578 64.008 57.7366
18640.623047 62.489 60.3136
18775.701172 60.989 63.5298
18911.757812 59.516 67.3558
19048.800781 58.076 71.7672
19186.835938 56.674 76.7379
19325.871094 55.321 82.2250
19465.914062 54.032 88.1280
19606.972656 52.837 94.2062
19749.052734 51.793 99.9807
19892.162109 50.990 104.6861
20036.308594 50.544 107.3888
