* Measurement data measured by REW V5.31
* Source: EXCL: Microphone (USB Sound Device        ), MICROPHONE (Master Volume), R, volume: 0.390
* Format: 256k Log Swept Sine, 1 sweep at -15.0 dBFS with no timing reference
* Dated: Jan 12, 2025 12:50:03 AM
* REW Settings:
*  C-weighting compensation: Off
*  Target level: 75.0 dB
* Note: EPZ P50 L
* Measurement: L EPZ P50
* Smoothing: 1/12 octave
* Frequency Step: 96 ppo
* Start Frequency: 0.36621094 Hz
*
* Freq(Hz) SPL(dB) Phase(degrees)
0.366211 96.351 156.5578
0.368865 96.345 156.5334
0.371538 96.336 156.4968
0.374230 96.325 156.4509
0.376942 96.313 156.3980
0.379673 96.300 156.3398
0.382424 96.286 156.2775
0.385196 96.272 156.2117
0.387987 96.257 156.1430
0.390798 96.243 156.0714
0.393630 96.228 155.9971
0.396483 96.213 155.9201
0.399356 96.198 155.8405
0.402250 96.183 155.7582
0.405165 96.168 155.6732
0.408101 96.152 155.5854
0.411058 96.137 155.4950
0.414037 96.121 155.4017
0.417037 96.106 155.3057
0.420059 96.090 155.2069
0.423103 96.074 155.1052
0.426169 96.058 155.0006
0.429257 96.042 154.8931
0.432368 96.025 154.7827
0.435501 96.009 154.6693
0.438656 95.993 154.5530
0.441835 95.976 154.4337
0.445037 95.959 154.3113
0.448262 95.942 154.1859
0.451510 95.925 154.0574
0.454782 95.908 153.9258
0.458077 95.891 153.7912
0.461397 95.874 153.6533
0.464740 95.856 153.5124
0.468108 95.839 153.3682
0.471500 95.821 153.2209
0.474917 95.803 153.0703
0.478358 95.785 152.9165
0.481825 95.767 152.7596
0.485316 95.749 152.5993
0.488833 95.730 152.4358
0.492375 95.712 152.2690
0.495943 95.693 152.0989
0.499537 95.674 151.9255
0.503157 95.655 151.7488
0.506803 95.636 151.5688
0.510475 95.617 151.3855
0.514175 95.598 151.1989
0.517900 95.578 151.0090
0.521653 95.559 150.8158
0.525434 95.539 150.6192
0.529241 95.519 150.4194
0.533076 95.499 150.2163
0.536939 95.479 150.0100
0.540830 95.459 149.8004
0.544749 95.438 149.5875
0.548696 95.417 149.3714
0.552673 95.397 149.1522
0.556677 95.376 148.9297
0.560711 95.355 148.7042
0.564774 95.333 148.4755
0.568867 95.312 148.2438
0.572989 95.290 148.0091
0.577141 95.269 147.7714
0.581324 95.247 147.5308
0.585536 95.225 147.2873
0.589779 95.203 147.0410
0.594053 95.180 146.7920
0.598358 95.158 146.5403
0.602694 95.135 146.2860
0.607061 95.112 146.0293
0.611460 95.089 145.7701
0.615891 95.066 145.5085
0.620354 95.043 145.2448
0.624849 95.019 144.9789
0.629377 94.996 144.7110
0.633938 94.972 144.4411
0.638532 94.948 144.1696
0.643159 94.924 143.8964
0.647819 94.899 143.6217
0.652514 94.875 143.3457
0.657242 94.850 143.0685
0.662005 94.825 142.7903
0.666802 94.800 142.5113
0.671634 94.775 142.2317
0.676501 94.750 141.9516
0.681403 94.724 141.6712
0.686341 94.698 141.3908
0.691314 94.672 141.1106
0.696324 94.646 140.8308
0.701370 94.619 140.5516
0.706452 94.592 140.2732
0.711571 94.565 139.9956
0.716728 94.536 139.7187
0.721921 94.507 139.4424
0.727153 94.476 139.1662
0.732422 94.443 138.8892
0.737729 94.408 138.6104
0.743075 94.371 138.3286
0.748460 94.332 138.0429
0.753883 94.292 137.7525
0.759346 94.250 137.4569
0.764849 94.208 137.1557
0.770391 94.166 136.8486
0.775974 94.122 136.5355
0.781597 94.079 136.2162
0.787261 94.034 135.8907
0.792966 93.989 135.5589
0.798712 93.944 135.2206
0.804500 93.898 134.8759
0.810329 93.851 134.5246
0.816201 93.804 134.1668
0.822116 93.756 133.8023
0.828073 93.707 133.4312
0.834074 93.657 133.0533
0.840118 93.607 132.6687
0.846206 93.556 132.2774
0.852338 93.504 131.8793
0.858514 93.451 131.4744
0.864735 93.398 131.0627
0.871001 93.343 130.6443
0.877313 93.288 130.2192
0.883670 93.231 129.7873
0.890074 93.174 129.3488
0.896524 93.115 128.9038
0.903020 93.055 128.4523
0.909564 92.994 127.9943
0.916155 92.932 127.5301
0.922794 92.868 127.0598
0.929481 92.803 126.5835
0.936216 92.737 126.1014
0.943000 92.669 125.6138
0.949834 92.600 125.1208
0.956717 92.530 124.6227
0.963649 92.457 124.1198
0.970632 92.384 123.6124
0.977666 92.308 123.1010
0.984750 92.231 122.5858
0.991886 92.151 122.0673
0.999074 92.070 121.5460
1.006314 91.987 121.0224
1.013606 91.902 120.4971
1.020951 91.815 119.9706
1.028349 91.726 119.4437
1.035801 91.634 118.9170
1.043307 91.540 118.3913
1.050867 91.444 117.8673
1.058482 91.345 117.3460
1.066152 91.244 116.8279
1.073878 91.140 116.3139
1.081660 91.034 115.8045
1.089498 90.926 115.3000
1.097393 90.815 114.8002
1.105345 90.703 114.3048
1.113355 90.589 113.8129
1.121423 90.474 113.3238
1.129549 90.358 112.8367
1.137734 90.240 112.3509
1.145979 90.122 111.8657
1.154283 90.002 111.3806
1.162647 89.881 110.8951
1.171072 89.758 110.4088
1.179558 89.634 109.9212
1.188106 89.508 109.4317
1.196715 89.380 108.9398
1.205387 89.249 108.4452
1.214122 89.117 107.9471
1.222920 88.981 107.4450
1.231782 88.843 106.9384
1.240708 88.701 106.4267
1.249699 88.557 105.9090
1.258754 88.408 105.3849
1.267876 88.256 104.8535
1.277063 88.099 104.3142
1.286318 87.938 103.7660
1.295639 87.772 103.2083
1.305027 87.602 102.6401
1.314484 87.425 102.0605
1.324009 87.244 101.4687
1.333604 87.056 100.8636
1.343268 86.862 100.2443
1.353002 86.661 99.6097
1.362806 86.453 98.9589
1.372681 86.237 98.2908
1.382628 86.014 97.6045
1.392647 85.782 96.8989
1.402739 85.542 96.1732
1.412904 85.292 95.4266
1.423142 85.032 94.6587
1.433455 84.761 93.8691
1.443843 84.477 93.0578
1.454305 84.179 92.2253
1.464844 83.865 91.3720
1.475459 83.530 90.4986
1.486150 83.174 89.6052
1.496920 82.793 88.6909
1.507767 82.386 87.7540
1.518693 81.954 86.7920
1.529698 81.497 85.8012
1.540783 81.015 84.7775
1.551948 80.511 83.7152
1.563194 79.985 82.6083
1.574521 79.441 81.4491
1.585931 78.880 80.2284
1.597423 78.304 78.9356
1.608999 77.717 77.5574
1.620658 77.122 76.0777
1.632402 76.520 74.4769
1.644232 75.915 72.7306
1.656146 75.311 70.8083
1.668147 74.712 68.6714
1.680235 74.120 66.2712
1.692411 73.541 63.5450
1.704675 72.978 60.4125
1.717028 72.437 56.7705
1.729470 71.922 52.4876
1.742003 71.440 47.4008
1.754626 70.995 41.3191
1.767341 70.594 34.0450
1.780147 70.245 25.4308
1.793047 69.953 15.4817
1.806040 69.725 4.4754
1.819128 69.568 -7.0081
1.832310 69.486 -18.2453
1.845587 69.482 -28.6392
1.858961 69.558 -37.8786
1.872432 69.712 -45.9132
1.886001 69.941 -52.8432
1.899667 70.240 -58.8237
1.913433 70.603 -64.0127
1.927299 71.024 -68.5489
1.941265 71.496 -72.5466
1.955332 72.013 -76.0979
1.969501 72.568 -79.2756
1.983773 73.153 -82.1378
1.998148 73.761 -84.7301
2.012627 74.385 -87.0894
2.027212 75.018 -89.2449
2.041902 75.654 -91.2204
2.056698 76.284 -93.0353
2.071602 76.903 -94.7054
2.086614 77.504 -96.2440
2.101734 78.081 -97.6624
2.116964 78.627 -98.9708
2.132304 79.137 -100.1789
2.147756 79.607 -101.2968
2.163320 80.035 -102.3361
2.178996 80.419 -103.3108
2.194786 80.761 -104.2372
2.210690 81.064 -105.1335
2.226710 81.333 -106.0166
2.242845 81.572 -106.8994
2.259098 81.783 -107.7897
2.275468 81.970 -108.6914
2.291957 82.135 -109.6045
2.308566 82.279 -110.5273
2.325295 82.404 -111.4565
2.342145 82.510 -112.3879
2.359117 82.601 -113.3169
2.376212 82.675 -114.2381
2.393431 82.736 -115.1462
2.410775 82.784 -116.0354
2.428244 82.821 -116.8998
2.445840 82.848 -117.7333
2.463564 82.868 -118.5301
2.481416 82.880 -119.2848
2.499397 82.887 -119.9926
2.517509 82.889 -120.6509
2.535752 82.886 -121.2591
2.554127 82.878 -121.8202
2.572635 82.864 -122.3405
2.591277 82.841 -122.8285
2.610055 82.808 -123.2922
2.628968 82.765 -123.7375
2.648019 82.709 -124.1679
2.667208 82.642 -124.5840
2.686535 82.564 -124.9846
2.706003 82.475 -125.3670
2.725612 82.377 -125.7269
2.745363 82.269 -126.0590
2.765257 82.154 -126.3567
2.785295 82.031 -126.6126
2.805478 81.904 -126.8180
2.825808 81.771 -126.9634
2.846285 81.635 -127.0385
2.866910 81.495 -127.0323
2.887685 81.353 -126.9337
2.908611 81.206 -126.7319
2.929688 81.053 -126.4174
2.950917 80.892 -125.9815
2.972301 80.722 -125.4167
2.993839 80.541 -124.7160
3.015534 80.349 -123.8727
3.037386 80.149 -122.8804
3.059396 79.941 -121.7333
3.081565 79.731 -120.4264
3.103896 79.523 -118.9563
3.126388 79.319 -117.3222
3.149043 79.127 -115.5264
3.171862 78.951 -113.5753
3.194847 78.797 -111.4794
3.217998 78.670 -109.2534
3.241317 78.577 -106.9146
3.264805 78.522 -104.4814
3.288463 78.509 -101.9712
3.312293 78.539 -99.3999
3.336295 78.614 -96.7846
3.360471 78.730 -94.1482
3.384822 78.885 -91.5203
3.409350 79.075 -88.9356
3.434056 79.294 -86.4305
3.458940 79.537 -84.0395
3.484005 79.799 -81.7925
3.509252 80.074 -79.7135
3.534681 80.357 -77.8196
3.560295 80.644 -76.1214
3.586094 80.930 -74.6233
3.612081 81.213 -73.3243
3.638255 81.492 -72.2181
3.664620 81.767 -71.2942
3.691175 82.041 -70.5388
3.717923 82.315 -69.9364
3.744864 82.589 -69.4710
3.772001 82.864 -69.1274
3.799335 83.140 -68.8913
3.826866 83.414 -68.7495
3.854597 83.684 -68.6902
3.882529 83.948 -68.7033
3.910664 84.205 -68.7803
3.939002 84.451 -68.9145
3.967546 84.685 -69.1018
3.996296 84.907 -69.3403
4.025255 85.114 -69.6301
4.054423 85.307 -69.9724
4.083804 85.486 -70.3675
4.113396 85.653 -70.8131
4.143204 85.807 -71.3039
4.173227 85.949 -71.8322
4.203468 86.080 -72.3892
4.233928 86.200 -72.9653
4.264609 86.311 -73.5518
4.295512 86.411 -74.1410
4.326639 86.503 -74.7276
4.357992 86.585 -75.3091
4.389572 86.658 -75.8863
4.421380 86.720 -76.4627
4.453419 86.773 -77.0423
4.485691 86.815 -77.6269
4.518196 86.847 -78.2154
4.550936 86.869 -78.8036
4.583914 86.882 -79.3850
4.617131 86.887 -79.9513
4.650589 86.884 -80.4939
4.684289 86.874 -81.0049
4.718233 86.857 -81.4776
4.752424 86.834 -81.9079
4.786862 86.803 -82.2948
4.821549 86.765 -82.6389
4.856488 86.720 -82.9416
4.891680 86.668 -83.2037
4.927127 86.611 -83.4246
4.962831 86.550 -83.6026
4.998794 86.487 -83.7350
5.035017 86.423 -83.8178
5.071503 86.359 -83.8470
5.108253 86.297 -83.8179
5.145270 86.236 -83.7268
5.182555 86.177 -83.5716
5.220110 86.120 -83.3530
5.257937 86.066 -83.0750
5.296038 86.015 -82.7443
5.334415 85.970 -82.3698
5.373071 85.931 -81.9611
5.412006 85.900 -81.5274
5.451224 85.879 -81.0761
5.490725 85.870 -80.6124
5.530514 85.871 -80.1393
5.570590 85.885 -79.6602
5.610957 85.909 -79.1809
5.651616 85.943 -78.7107
5.692570 85.987 -78.2614
5.733821 86.038 -77.8458
5.775370 86.097 -77.4763
5.817221 86.162 -77.1626
5.859375 86.234 -76.9114
5.901834 86.312 -76.7252
5.944602 86.395 -76.6043
5.987679 86.483 -76.5480
6.031068 86.575 -76.5558
6.074771 86.668 -76.6278
6.118792 86.761 -76.7644
6.163131 86.853 -76.9669
6.207792 86.941 -77.2361
6.252776 87.026 -77.5723
6.298086 87.107 -77.9737
6.343725 87.183 -78.4362
6.389694 87.255 -78.9533
6.435996 87.321 -79.5172
6.482634 87.382 -80.1204
6.529610 87.436 -80.7568
6.576926 87.484 -81.4224
6.624585 87.524 -82.1152
6.672590 87.557 -82.8338
6.720942 87.582 -83.5748
6.769645 87.601 -84.3326
6.818700 87.614 -85.0994
6.868111 87.620 -85.8671
6.917881 87.621 -86.6287
6.968010 87.616 -87.3795
7.018504 87.606 -88.1169
7.069362 87.591 -88.8394
7.120590 87.573 -89.5450
7.172189 87.551 -90.2303
7.224161 87.527 -90.8911
7.276511 87.502 -91.5227
7.329239 87.478 -92.1215
7.382350 87.454 -92.6856
7.435845 87.432 -93.2153
7.489729 87.412 -93.7126
7.544002 87.396 -94.1805
7.598669 87.384 -94.6220
7.653732 87.378 -95.0398
7.709194 87.379 -95.4360
7.765058 87.387 -95.8128
7.821327 87.402 -96.1741
7.878004 87.425 -96.5257
7.935091 87.455 -96.8750
7.992592 87.494 -97.2290
8.050510 87.540 -97.5936
8.108847 87.593 -97.9729
8.167607 87.654 -98.3696
8.226793 87.722 -98.7866
8.286408 87.794 -99.2270
8.346454 87.872 -99.6941
8.406936 87.953 -100.1905
8.467856 88.037 -100.7172
8.529218 88.123 -101.2733
8.591024 88.211 -101.8568
8.653278 88.299 -102.4644
8.715983 88.387 -103.0931
8.779143 88.474 -103.7401
8.842760 88.560 -104.4025
8.906839 88.643 -105.0767
8.971381 88.724 -105.7581
9.036392 88.803 -106.4411
9.101873 88.879 -107.1202
9.167829 88.952 -107.7910
9.234263 89.023 -108.4499
9.301178 89.091 -109.0936
9.368578 89.157 -109.7187
9.436467 89.222 -110.3217
9.504847 89.285 -110.8994
9.573723 89.347 -111.4497
9.643099 89.408 -111.9718
9.712976 89.469 -112.4658
9.783361 89.528 -112.9320
9.854255 89.586 -113.3712
9.925663 89.644 -113.7845
9.997588 89.701 -114.1736
10.070035 89.757 -114.5409
10.143007 89.814 -114.8897
10.216507 89.871 -115.2230
10.290540 89.928 -115.5438
10.365109 89.985 -115.8546
10.440219 90.043 -116.1578
10.515873 90.102 -116.4558
10.592076 90.161 -116.7507
10.668830 90.219 -117.0442
10.746141 90.277 -117.3370
10.824012 90.335 -117.6294
10.902447 90.391 -117.9212
10.981451 90.446 -118.2122
11.061027 90.498 -118.5016
11.141180 90.549 -118.7885
11.221913 90.598 -119.0718
11.303232 90.644 -119.3499
11.385140 90.688 -119.6218
11.467641 90.729 -119.8865
11.550741 90.769 -120.1435
11.634442 90.807 -120.3923
11.718750 90.843 -120.6326
11.803669 90.878 -120.8647
11.889203 90.912 -121.0893
11.975357 90.944 -121.3074
12.062136 90.976 -121.5203
12.149543 91.007 -121.7292
12.237583 91.037 -121.9357
12.326262 91.066 -122.1413
12.415583 91.094 -122.3474
12.505552 91.121 -122.5555
12.596172 91.146 -122.7664
12.687449 91.169 -122.9808
12.779387 91.191 -123.1993
12.871992 91.210 -123.4221
12.965268 91.228 -123.6491
13.059220 91.244 -123.8800
13.153852 91.258 -124.1144
13.249170 91.270 -124.3521
13.345179 91.281 -124.5926
13.441884 91.291 -124.8360
13.539289 91.299 -125.0823
13.637401 91.307 -125.3319
13.736223 91.314 -125.5857
13.835761 91.320 -125.8447
13.936021 91.326 -126.1104
14.037007 91.332 -126.3841
14.138725 91.338 -126.6676
14.241180 91.343 -126.9625
14.344377 91.348 -127.2701
14.448323 91.353 -127.5917
14.553021 91.358 -127.9278
14.658478 91.362 -128.2787
14.764700 91.365 -128.6443
14.871691 91.368 -129.0236
14.979457 91.370 -129.4154
15.088005 91.371 -129.8181
15.197339 91.372 -130.2298
15.307465 91.372 -130.6485
15.418389 91.372 -131.0724
15.530117 91.372 -131.4998
15.642655 91.372 -131.9293
15.756008 91.373 -132.3600
15.870182 91.376 -132.7916
15.985184 91.379 -133.2240
16.101019 91.385 -133.6577
16.217694 91.392 -134.0936
16.335214 91.402 -134.5324
16.453586 91.414 -134.9751
16.572815 91.428 -135.4225
16.692909 91.444 -135.8748
16.813872 91.463 -136.3319
16.935713 91.483 -136.7934
17.058436 91.505 -137.2581
17.182048 91.528 -137.7246
17.306556 91.552 -138.1910
17.431967 91.576 -138.6553
17.558286 91.602 -139.1157
17.685521 91.627 -139.5700
17.813677 91.653 -140.0169
17.942762 91.680 -140.4548
18.072783 91.707 -140.8831
18.203746 91.734 -141.3010
18.335658 91.762 -141.7085
18.468526 91.791 -142.1053
18.602356 91.819 -142.4917
18.737156 91.848 -142.8677
18.872934 91.877 -143.2333
19.009695 91.906 -143.5885
19.147447 91.935 -143.9330
19.286197 91.963 -144.2668
19.425953 91.991 -144.5898
19.566721 92.018 -144.9021
19.708510 92.044 -145.2041
19.851326 92.069 -145.4966
19.995177 92.093 -145.7806
20.140070 92.117 -146.0577
20.286013 92.139 -146.3295
20.433014 92.160 -146.5976
20.581080 92.180 -146.8636
20.730219 92.199 -147.1288
20.880439 92.216 -147.3943
21.031747 92.231 -147.6606
21.184152 92.245 -147.9279
21.337661 92.257 -148.1962
21.492282 92.267 -148.4652
21.648024 92.275 -148.7349
21.804895 92.281 -149.0054
21.962902 92.286 -149.2770
22.122054 92.290 -149.5507
22.282360 92.292 -149.8275
22.443827 92.294 -150.1089
22.606464 92.296 -150.3965
22.770280 92.296 -150.6916
22.935283 92.296 -150.9954
23.101481 92.296 -151.3088
23.268884 92.296 -151.6321
23.437500 92.295 -151.9654
23.607338 92.293 -152.3084
23.778406 92.292 -152.6606
23.950714 92.290 -153.0214
24.124271 92.288 -153.3900
24.299086 92.287 -153.7658
24.475167 92.286 -154.1481
24.652524 92.285 -154.5360
24.831166 92.285 -154.9285
25.011103 92.285 -155.3244
25.192344 92.286 -155.7223
25.374898 92.288 -156.1205
25.558775 92.291 -156.5172
25.743984 92.294 -156.9110
25.930536 92.298 -157.3002
26.118439 92.302 -157.6835
26.307704 92.308 -158.0599
26.498341 92.314 -158.4285
26.690359 92.321 -158.7885
26.883768 92.329 -159.1393
27.078579 92.337 -159.4803
27.274801 92.345 -159.8112
27.472446 92.354 -160.1317
27.671522 92.363 -160.4420
27.872042 92.372 -160.7428
28.074014 92.381 -161.0351
28.277450 92.390 -161.3205
28.482360 92.399 -161.6005
28.688755 92.408 -161.8770
28.896645 92.416 -162.1514
29.106042 92.422 -162.4247
29.316957 92.428 -162.6976
29.529400 92.432 -162.9705
29.743382 92.434 -163.2433
29.958915 92.436 -163.5161
30.176009 92.435 -163.7893
30.394677 92.434 -164.0634
30.614929 92.431 -164.3393
30.836778 92.427 -164.6178
31.060234 92.423 -164.9002
31.285309 92.417 -165.1871
31.512015 92.411 -165.4795
31.740364 92.405 -165.7777
31.970368 92.398 -166.0821
32.202039 92.391 -166.3929
32.435388 92.383 -166.7102
32.670428 92.376 -167.0338
32.907171 92.368 -167.3633
33.145630 92.361 -167.6980
33.385817 92.353 -168.0368
33.627745 92.346 -168.3782
33.871425 92.339 -168.7208
34.116871 92.332 -169.0628
34.364096 92.326 -169.4029
34.613113 92.320 -169.7400
34.863934 92.314 -170.0730
35.116572 92.309 -170.4016
35.371041 92.304 -170.7253
35.627354 92.299 -171.0439
35.885525 92.294 -171.3574
36.145566 92.289 -171.6658
36.407492 92.284 -171.9688
36.671316 92.278 -172.2665
36.937051 92.272 -172.5585
37.204712 92.264 -172.8446
37.474313 92.256 -173.1247
37.745867 92.248 -173.3989
38.019389 92.238 -173.6678
38.294893 92.228 -173.9324
38.572394 92.217 -174.1938
38.851905 92.206 -174.4538
39.133442 92.194 -174.7135
39.417019 92.181 -174.9741
39.702651 92.168 -175.2363
39.990353 92.154 -175.5004
40.280140 92.140 -175.7664
40.572026 92.125 -176.0341
40.866028 92.110 -176.3033
41.162160 92.095 -176.5738
41.460438 92.079 -176.8453
41.760877 92.064 -177.1178
42.063494 92.048 -177.3915
42.368303 92.033 -177.6666
42.675322 92.018 -177.9431
42.984565 92.002 -178.2207
43.296048 91.986 -178.4986
43.609789 91.970 -178.7751
43.925804 91.952 -179.0487
44.244108 91.935 -179.3177
44.564719 91.917 -179.5813
44.887654 91.899 -179.8393
45.212928 91.880 179.9075
45.540560 91.862 179.6577
45.870565 91.844 179.4099
46.202962 91.826 179.1628
46.537768 91.808 178.9157
46.875000 91.789 178.6688
47.214676 91.770 178.4224
47.556813 91.751 178.1772
47.901429 91.731 177.9338
48.248542 91.711 177.6923
48.598171 91.692 177.4524
48.950334 91.672 177.2138
49.305048 91.652 176.9763
49.662333 91.633 176.7398
50.022206 91.613 176.5045
50.384688 91.593 176.2706
50.749796 91.572 176.0387
51.117550 91.551 175.8097
51.487969 91.529 175.5846
51.861072 91.506 175.3642
52.236879 91.483 175.1491
52.615409 91.460 174.9389
52.996681 91.437 174.7327
53.380717 91.413 174.5290
53.767536 91.390 174.3266
54.157158 91.366 174.1246
54.549603 91.342 173.9223
54.944892 91.319 173.7192
55.343045 91.295 173.5147
55.744084 91.272 173.3082
56.148028 91.248 173.0993
56.554900 91.225 172.8878
56.964720 91.201 172.6744
57.377510 91.177 172.4597
57.793291 91.153 172.2451
58.212085 91.129 172.0316
58.633914 91.104 171.8201
59.058799 91.079 171.6117
59.486764 91.053 171.4067
59.917829 91.026 171.2057
60.352019 90.999 171.0084
60.789354 90.971 170.8148
61.229859 90.942 170.6244
61.673556 90.912 170.4368
62.120468 90.882 170.2521
62.570618 90.850 170.0704
63.024031 90.817 169.8918
63.480729 90.784 169.7162
63.940736 90.751 169.5429
64.404077 90.718 169.3712
64.870776 90.684 169.2001
65.340856 90.651 169.0296
65.814343 90.617 168.8599
66.291261 90.583 168.6918
66.771635 90.549 168.5265
67.255489 90.514 168.3655
67.742850 90.478 168.2102
68.233743 90.442 168.0614
68.728193 90.405 167.9189
69.226226 90.368 167.7822
69.727867 90.330 167.6508
70.233144 90.291 167.5241
70.742083 90.251 167.4023
71.254709 90.211 167.2851
71.771050 90.169 167.1731
72.291132 90.127 167.0672
72.814984 90.084 166.9691
73.342631 90.041 166.8805
73.874102 89.997 166.8028
74.409424 89.952 166.7373
74.948626 89.908 166.6851
75.491734 89.864 166.6481
76.038779 89.821 166.6288
76.589787 89.778 166.6301
77.144788 89.736 166.6542
77.703811 89.696 166.7019
78.266885 89.659 166.7714
78.834039 89.626 166.8581
79.405303 89.599 166.9544
79.980706 89.576 167.0506
80.560280 89.559 167.1352
81.144053 89.547 167.1968
81.732056 89.539 167.2256
82.324320 89.533 167.2156
82.920876 89.528 167.1648
83.521755 89.521 167.0753
84.126988 89.512 166.9531
84.736607 89.499 166.8069
85.350643 89.483 166.6463
85.969129 89.462 166.4798
86.592097 89.438 166.3144
87.219579 89.411 166.1556
87.851608 89.381 166.0074
88.488217 89.349 165.8726
89.129439 89.316 165.7526
89.775308 89.281 165.6471
90.425856 89.246 165.5548
91.081119 89.211 165.4737
91.741131 89.175 165.4015
92.405925 89.138 165.3367
93.075536 89.101 165.2783
93.750000 89.064 165.2258
94.429351 89.026 165.1784
95.113625 88.988 165.1353
95.802858 88.949 165.0961
96.497085 88.911 165.0611
97.196342 88.873 165.0310
97.900667 88.835 165.0068
98.610096 88.797 164.9895
99.324665 88.759 164.9795
100.044413 88.722 164.9770
100.769376 88.684 164.9820
101.499592 88.647 164.9944
102.235100 88.611 165.0137
102.975938 88.575 165.0387
103.722144 88.539 165.0673
104.473757 88.504 165.0977
105.230817 88.470 165.1283
105.993363 88.437 165.1584
106.761435 88.403 165.1880
107.535072 88.370 165.2170
108.314315 88.337 165.2454
109.099206 88.304 165.2725
109.889783 88.270 165.2974
110.686090 88.236 165.3196
111.488167 88.201 165.3389
112.296056 88.165 165.3557
113.109800 88.128 165.3722
113.929440 88.090 165.3922
114.755020 88.051 165.4209
115.586582 88.011 165.4641
116.424170 87.970 165.5258
117.267827 87.930 165.6070
118.117598 87.890 165.7049
118.973527 87.851 165.8148
119.835658 87.812 165.9326
120.704037 87.774 166.0568
121.578708 87.736 166.1864
122.459718 87.699 166.3189
123.347111 87.662 166.4512
124.240935 87.627 166.5807
125.141236 87.593 166.7066
126.048061 87.559 166.8293
126.961458 87.526 166.9500
127.881473 87.494 167.0710
128.808154 87.460 167.1937
129.741551 87.427 167.3191
130.681712 87.392 167.4471
131.628686 87.356 167.5779
132.582521 87.319 167.7119
133.543269 87.280 167.8502
134.510979 87.240 167.9954
135.485701 87.197 168.1519
136.467486 87.154 168.3263
137.456386 87.108 168.5250
138.452451 87.062 168.7524
139.455735 87.015 169.0115
140.466288 86.968 169.3049
141.484165 86.920 169.6359
142.509418 86.874 170.0089
143.542100 86.831 170.4276
144.582265 86.792 170.8941
145.629968 86.760 171.4082
146.685262 86.738 171.9663
147.748204 86.728 172.5607
148.818849 86.730 173.1779
149.897251 86.746 173.7990
150.983469 86.775 174.4004
152.077557 86.818 174.9537
153.179574 86.872 175.4283
154.289576 86.934 175.8002
155.407622 86.998 176.0574
156.533770 87.062 176.2006
157.668078 87.122 176.2414
158.810606 87.173 176.1984
159.961413 87.216 176.0942
161.120559 87.248 175.9528
162.288105 87.270 175.7954
163.464112 87.284 175.6381
164.648640 87.290 175.4915
165.841752 87.289 175.3637
167.043510 87.282 175.2610
168.253976 87.271 175.1875
169.473213 87.258 175.1447
170.701286 87.243 175.1309
171.938258 87.229 175.1415
173.184194 87.216 175.1703
174.439158 87.204 175.2104
175.703216 87.193 175.2557
176.976434 87.184 175.3015
178.258878 87.175 175.3442
179.550615 87.167 175.3817
180.851713 87.160 175.4135
182.162239 87.152 175.4418
183.482262 87.144 175.4715
184.811850 87.135 175.5090
186.151073 87.125 175.5589
187.500000 87.115 175.6197
188.858702 87.105 175.6866
190.227250 87.095 175.7555
191.605715 87.084 175.8248
192.994169 87.074 175.8942
194.392685 87.065 175.9650
195.801334 87.056 176.0391
197.220191 87.048 176.1188
198.649330 87.041 176.2066
200.088825 87.035 176.3039
201.538751 87.029 176.4091
202.999184 87.023 176.5187
204.470200 87.016 176.6281
205.951875 87.009 176.7332
207.444287 87.002 176.8304
208.947514 86.995 176.9191
210.461634 86.988 177.0012
211.986726 86.979 177.0812
213.522869 86.969 177.1644
215.070144 86.957 177.2550
216.628631 86.945 177.3561
218.198411 86.933 177.4684
219.779567 86.923 177.5888
221.372180 86.915 177.7124
222.976334 86.909 177.8344
224.592112 86.905 177.9515
226.219600 86.902 178.0632
227.858880 86.899 178.1701
229.510039 86.895 178.2734
231.173164 86.892 178.3740
232.848340 86.888 178.4718
234.535655 86.884 178.5659
236.235197 86.880 178.6547
237.947054 86.876 178.7375
239.671317 86.871 178.8150
241.408074 86.866 178.8895
243.157416 86.859 178.9645
244.919435 86.852 179.0444
246.694223 86.844 179.1329
248.481871 86.834 179.2336
250.282473 86.825 179.3489
252.096123 86.817 179.4790
253.922915 86.810 179.6209
255.762945 86.806 179.7680
257.616309 86.805 179.9104
259.483103 86.805 -179.9617
261.363424 86.807 -179.8532
263.257372 86.808 -179.7624
265.165043 86.807 -179.6824
267.086538 86.805 -179.6047
269.021957 86.802 -179.5216
270.971401 86.798 -179.4281
272.934972 86.795 -179.3227
274.912771 86.794 -179.2068
276.904902 86.794 -179.0833
278.911469 86.795 -178.9551
280.932577 86.799 -178.8253
282.968330 86.806 -178.6981
285.018835 86.814 -178.5799
287.084199 86.825 -178.4789
289.164530 86.837 -178.4021
291.259935 86.847 -178.3524
293.370525 86.856 -178.3255
295.496408 86.861 -178.3123
297.637697 86.863 -178.3028
299.794503 86.862 -178.2897
301.966937 86.860 -178.2698
304.155114 86.856 -178.2426
306.359147 86.852 -178.2092
308.579152 86.847 -178.1715
310.815244 86.842 -178.1320
313.067539 86.836 -178.0922
315.336156 86.828 -178.0511
317.621211 86.819 -178.0051
319.922826 86.809 -177.9498
322.241118 86.799 -177.8832
324.576210 86.789 -177.8065
326.928223 86.781 -177.7228
329.297280 86.773 -177.6360
331.683504 86.767 -177.5497
334.087019 86.761 -177.4665
336.507952 86.756 -177.3880
338.946427 86.750 -177.3143
341.402572 86.744 -177.2439
343.876516 86.737 -177.1741
346.368387 86.729 -177.1029
348.878315 86.721 -177.0293
351.406431 86.712 -176.9536
353.952867 86.703 -176.8760
356.517756 86.694 -176.7966
359.101230 86.685 -176.7155
361.703426 86.676 -176.6329
364.324478 86.667 -176.5490
366.964523 86.657 -176.4639
369.623699 86.648 -176.3781
372.302145 86.638 -176.2916
375.000000 86.628 -176.2041
377.717405 86.618 -176.1151
380.454501 86.609 -176.0242
383.211431 86.599 -175.9317
385.988339 86.590 -175.8379
388.785369 86.580 -175.7427
391.602668 86.571 -175.6459
394.440383 86.562 -175.5470
397.298660 86.552 -175.4462
400.177650 86.543 -175.3449
403.077502 86.534 -175.2453
405.998368 86.525 -175.1491
408.940400 86.515 -175.0563
411.903750 86.505 -174.9648
414.888575 86.494 -174.8708
417.895028 86.482 -174.7698
420.923268 86.469 -174.6586
423.973452 86.457 -174.5359
427.045738 86.446 -174.4035
430.140287 86.437 -174.2659
433.257261 86.429 -174.1287
436.396822 86.422 -173.9956
439.559133 86.416 -173.8679
442.744360 86.411 -173.7456
445.952668 86.406 -173.6300
449.184225 86.403 -173.5250
452.439199 86.400 -173.4363
455.717760 86.395 -173.3671
459.020079 86.389 -173.3140
462.346327 86.378 -173.2664
465.696680 86.365 -173.2122
469.071310 86.349 -173.1433
472.470394 86.332 -173.0578
475.894109 86.314 -172.9585
479.342634 86.297 -172.8510
482.816148 86.279 -172.7413
486.314833 86.260 -172.6315
489.838871 86.240 -172.5177
493.388445 86.220 -172.3918
496.963741 86.199 -172.2498
500.564945 86.179 -172.0947
504.192245 86.161 -171.9342
507.845830 86.144 -171.7751
511.525890 86.128 -171.6203
515.232618 86.111 -171.4688
518.966206 86.093 -171.3168
522.726849 86.074 -171.1600
526.514743 86.054 -170.9941
530.330086 86.034 -170.8170
534.173076 86.015 -170.6308
538.043915 85.997 -170.4396
541.942803 85.980 -170.2456
545.869944 85.963 -170.0484
549.825542 85.946 -169.8477
553.809805 85.931 -169.6455
557.822939 85.915 -169.4447
561.865154 85.900 -169.2471
565.936660 85.884 -169.0517
570.037671 85.868 -168.8548
574.168399 85.850 -168.6526
578.329060 85.832 -168.4430
582.519870 85.813 -168.2267
586.741049 85.794 -168.0039
590.992817 85.775 -167.7727
595.275394 85.755 -167.5302
599.589005 85.736 -167.2768
603.933874 85.718 -167.0162
608.310228 85.700 -166.7526
612.718295 85.683 -166.4877
617.158304 85.665 -166.2192
621.630488 85.647 -165.9413
626.135079 85.629 -165.6476
630.672311 85.611 -165.3354
635.242423 85.596 -165.0083
639.845651 85.583 -164.6720
644.482237 85.572 -164.3286
649.152421 85.564 -163.9775
653.856447 85.558 -163.6211
658.594560 85.556 -163.2668
663.367008 85.556 -162.9257
668.174039 85.557 -162.6060
673.015903 85.558 -162.3072
677.892854 85.557 -162.0210
682.805145 85.555 -161.7378
687.753032 85.550 -161.4502
692.736774 85.543 -161.1528
697.756631 85.536 -160.8412
702.812863 85.528 -160.5143
707.905735 85.520 -160.1749
713.035511 85.514 -159.8277
718.202461 85.509 -159.4762
723.406852 85.505 -159.1215
728.648956 85.501 -158.7630
733.929047 85.498 -158.3998
739.247399 85.496 -158.0309
744.604290 85.494 -157.6553
750.000000 85.493 -157.2724
755.434809 85.492 -156.8822
760.909001 85.493 -156.4848
766.422861 85.494 -156.0809
771.976677 85.497 -155.6712
777.570739 85.501 -155.2570
783.205337 85.506 -154.8393
788.880766 85.512 -154.4174
794.597321 85.519 -153.9880
800.355301 85.529 -153.5476
806.155005 85.541 -153.0969
811.996736 85.557 -152.6420
817.880799 85.577 -152.1924
823.807501 85.601 -151.7585
829.777150 85.627 -151.3486
835.790057 85.654 -150.9650
841.846536 85.680 -150.6006
847.946903 85.704 -150.2441
854.091476 85.726 -149.8872
860.280575 85.747 -149.5257
866.514523 85.768 -149.1565
872.793644 85.788 -148.7764
879.118267 85.809 -148.3857
885.488720 85.832 -147.9893
891.905336 85.856 -147.5920
898.368450 85.881 -147.1951
904.878398 85.908 -146.7969
911.435520 85.936 -146.3966
918.040157 85.966 -145.9958
924.692655 85.999 -145.5972
931.393359 86.034 -145.2044
938.142619 86.070 -144.8212
944.940787 86.108 -144.4493
951.788218 86.148 -144.0875
958.685268 86.187 -143.7330
965.632296 86.228 -143.3831
972.629666 86.269 -143.0354
979.677741 86.310 -142.6896
986.776890 86.353 -142.3470
993.927482 86.396 -142.0073
1001.129891 86.440 -141.6674
1008.384491 86.486 -141.3244
1015.691660 86.534 -140.9787
1023.051781 86.585 -140.6347
1030.465236 86.641 -140.2998
1037.932411 86.700 -139.9853
1045.453698 86.763 -139.7029
1053.029486 86.826 -139.4581
1060.660172 86.888 -139.2470
1068.346153 86.949 -139.0608
1076.087829 87.007 -138.8899
1083.885605 87.063 -138.7279
1091.739887 87.118 -138.5722
1099.651084 87.172 -138.4227
1107.619609 87.224 -138.2785
1115.645878 87.275 -138.1386
1123.730308 87.325 -138.0017
1131.873321 87.373 -137.8669
1140.075341 87.421 -137.7333
1148.336797 87.468 -137.6003
1156.658119 87.515 -137.4669
1165.039741 87.562 -137.3319
1173.482099 87.609 -137.1935
1181.985634 87.658 -137.0518
1190.550789 87.709 -136.9124
1199.178011 87.763 -136.7860
1207.867749 87.819 -136.6848
1216.620457 87.875 -136.6148
1225.436590 87.929 -136.5725
1234.316609 87.979 -136.5485
1243.260976 88.026 -136.5325
1252.270157 88.070 -136.5157
1261.344623 88.110 -136.4935
1270.484846 88.149 -136.4644
1279.691303 88.185 -136.4276
1288.964474 88.220 -136.3816
1298.304842 88.254 -136.3271
1307.712894 88.287 -136.2663
1317.189120 88.321 -136.2024
1326.734016 88.354 -136.1373
1336.348077 88.388 -136.0701
1346.031806 88.420 -135.9979
1355.785708 88.454 -135.9168
1365.610290 88.487 -135.8229
1375.506065 88.522 -135.7116
1385.473549 88.558 -135.5780
1395.513261 88.597 -135.4211
1405.625726 88.639 -135.2463
1415.811469 88.686 -135.0656
1426.071023 88.737 -134.8938
1436.404921 88.790 -134.7403
1446.813703 88.842 -134.6058
1457.297912 88.894 -134.4847
1467.858093 88.944 -134.3703
1478.494798 88.992 -134.2575
1489.208581 89.037 -134.1423
1500.000000 89.079 -134.0212
1510.869618 89.117 -133.8912
1521.818002 89.151 -133.7493
1532.845723 89.182 -133.5932
1543.953355 89.209 -133.4210
1555.141477 89.235 -133.2326
1566.410674 89.261 -133.0321
1577.761531 89.290 -132.8304
1589.194642 89.321 -132.6415
1600.710601 89.354 -132.4747
1612.310010 89.387 -132.3304
1623.993473 89.418 -132.2030
1635.761599 89.448 -132.0847
1647.615002 89.476 -131.9688
1659.554299 89.502 -131.8499
1671.580114 89.528 -131.7246
1683.693072 89.554 -131.5925
1695.893807 89.580 -131.4552
1708.182952 89.606 -131.3145
1720.561150 89.630 -131.1696
1733.029045 89.654 -131.0170
1745.587288 89.675 -130.8508
1758.236533 89.696 -130.6642
1770.977440 89.717 -130.4517
1783.810673 89.741 -130.2147
1796.736900 89.769 -129.9638
1809.756796 89.803 -129.7152
1822.871040 89.842 -129.4817
1836.080315 89.883 -129.2690
1849.385310 89.927 -129.0773
1862.786718 89.973 -128.9046
1876.285239 90.020 -128.7470
1889.881575 90.069 -128.5993
1903.576436 90.121 -128.4550
1917.370535 90.175 -128.3078
1931.264593 90.235 -128.1530
1945.259332 90.301 -127.9911
1959.355483 90.374 -127.8301
1973.553781 90.452 -127.6831
1987.854965 90.535 -127.5603
2002.259781 90.621 -127.4647
2016.768981 90.707 -127.3936
2031.383320 90.793 -127.3416
2046.103561 90.878 -127.3030
2060.930471 90.963 -127.2736
2075.864823 91.046 -127.2522
2090.907395 91.129 -127.2388
2106.058972 91.211 -127.2317
2121.320344 91.291 -127.2257
2136.692305 91.370 -127.2131
2152.175658 91.447 -127.1861
2167.771210 91.527 -127.1433
2183.479774 91.609 -127.0935
2199.302169 91.695 -127.0507
2215.239219 91.784 -127.0266
2231.291755 91.876 -127.0283
2247.460615 91.969 -127.0582
2263.746641 92.063 -127.1148
2280.150683 92.156 -127.1937
2296.673595 92.250 -127.2887
2313.316238 92.345 -127.3946
2330.079481 92.441 -127.5107
2346.964198 92.541 -127.6445
2363.971268 92.643 -127.8081
2381.101578 92.746 -128.0107
2398.356022 92.850 -128.2561
2415.735498 92.953 -128.5431
2433.240913 93.055 -128.8680
2450.873180 93.154 -129.2272
2468.633217 93.250 -129.6185
2486.521951 93.343 -130.0391
2504.540314 93.432 -130.4834
2522.689246 93.516 -130.9431
2540.969692 93.598 -131.4100
2559.382606 93.678 -131.8822
2577.928947 93.758 -132.3661
2596.609683 93.838 -132.8709
2615.425787 93.916 -133.4032
2634.378241 93.991 -133.9657
2653.468031 94.063 -134.5559
2672.696154 94.131 -135.1670
2692.063613 94.195 -135.7904
2711.571415 94.256 -136.4206
2731.220579 94.316 -137.0594
2751.012130 94.373 -137.7148
2770.947098 94.430 -138.3952
2791.026522 94.483 -139.1057
2811.251451 94.532 -139.8469
2831.622938 94.576 -140.6170
2852.142045 94.614 -141.4126
2872.809842 94.645 -142.2284
2893.627406 94.668 -143.0557
2914.595823 94.684 -143.8813
2935.716186 94.692 -144.6933
2956.989596 94.694 -145.4863
2978.417161 94.693 -146.2620
3000.000000 94.688 -147.0244
3021.739237 94.680 -147.7764
3043.636005 94.668 -148.5171
3065.691446 94.653 -149.2422
3087.906710 94.635 -149.9465
3110.282955 94.615 -150.6296
3132.821347 94.596 -151.2995
3155.523062 94.577 -151.9682
3178.389283 94.557 -152.6465
3201.421202 94.535 -153.3407
3224.620020 94.509 -154.0525
3247.986946 94.478 -154.7790
3271.523198 94.439 -155.5119
3295.230004 94.393 -156.2370
3319.108599 94.338 -156.9370
3343.160228 94.277 -157.5994
3367.386145 94.211 -158.2191
3391.787613 94.142 -158.7956
3416.365904 94.070 -159.3291
3441.122300 93.995 -159.8162
3466.058091 93.919 -160.2493
3491.174576 93.842 -160.6212
3516.473066 93.766 -160.9317
3541.954880 93.695 -161.1885
3567.621345 93.628 -161.4039
3593.473800 93.566 -161.5911
3619.513592 93.509 -161.7628
3645.742080 93.456 -161.9288
3672.160630 93.404 -162.0921
3698.770620 93.353 -162.2475
3725.573436 93.302 -162.3882
3752.570477 93.251 -162.5109
3779.763150 93.201 -162.6166
3807.152872 93.151 -162.7063
3834.741071 93.100 -162.7765
3862.529185 93.048 -162.8177
3890.518664 92.996 -162.8211
3918.710966 92.947 -162.7850
3947.107561 92.901 -162.7155
3975.709929 92.862 -162.6242
4004.519563 92.830 -162.5255
4033.537962 92.804 -162.4328
4062.766641 92.782 -162.3526
4092.207123 92.765 -162.2837
4121.860942 92.750 -162.2225
4151.729646 92.739 -162.1692
4181.814790 92.732 -162.1266
4212.117944 92.726 -162.0957
4242.640687 92.723 -162.0715
4273.384610 92.722 -162.0462
4304.351317 92.724 -162.0165
4335.542421 92.730 -161.9869
4366.959549 92.743 -161.9692
4398.604338 92.763 -161.9795
4430.478438 92.789 -162.0341
4462.583511 92.819 -162.1425
4494.921231 92.851 -162.3072
4527.493283 92.886 -162.5291
4560.301365 92.922 -162.8109
4593.347189 92.957 -163.1543
4626.632476 92.989 -163.5551
4660.158962 93.019 -164.0039
4693.928395 93.045 -164.4921
4727.942535 93.069 -165.0168
4762.203156 93.093 -165.5817
4796.712043 93.115 -166.1962
4831.470996 93.135 -166.8705
4866.481826 93.151 -167.6091
4901.746360 93.162 -168.4119
4937.266434 93.166 -169.2783
4973.043902 93.161 -170.2075
5009.080628 93.145 -171.1933
5045.378492 93.115 -172.2220
5081.939384 93.070 -173.2758
5118.765212 93.011 -174.3382
5155.857894 92.937 -175.3978
5193.219366 92.851 -176.4493
5230.851574 92.751 -177.4897
5268.756481 92.637 -178.5128
5306.936062 92.509 -179.5106
5345.392309 92.367 179.5241
5384.127225 92.210 178.5992
5423.142830 92.036 177.7277
5462.441159 91.846 176.9283
5502.024259 91.641 176.2211
5541.894195 91.422 175.6225
5582.053045 91.194 175.1404
5622.502902 90.958 174.7762
5663.245876 90.718 174.5289
5704.284090 90.476 174.3958
5745.619684 90.233 174.3704
5787.254813 89.990 174.4460
5829.191647 89.749 174.6207
5871.432373 89.508 174.8984
5913.979192 89.270 175.2854
5956.834323 89.035 175.7849
6000.000000 88.808 176.3937
6043.478473 88.589 177.1048
6087.272010 88.380 177.9090
6131.382892 88.183 178.7938
6175.813420 87.999 179.7450
6220.565910 87.826 -179.2479
6265.642695 87.666 -178.1889
6311.046124 87.517 -177.0776
6356.778566 87.381 -175.9135
6402.842404 87.258 -174.7000
6449.240040 87.149 -173.4428
6495.973891 87.056 -172.1504
6543.046396 86.979 -170.8347
6590.460007 86.917 -169.5072
6638.217197 86.872 -168.1751
6686.320456 86.841 -166.8401
6734.772290 86.826 -165.5022
6783.575226 86.827 -164.1634
6832.731809 86.846 -162.8290
6882.244600 86.882 -161.5088
6932.116181 86.936 -160.2180
6982.349153 87.009 -158.9742
7032.946133 87.100 -157.7922
7083.909760 87.210 -156.6829
7135.242690 87.339 -155.6562
7186.947600 87.488 -154.7246
7239.027185 87.659 -153.9057
7291.484160 87.851 -153.2238
7344.321260 88.065 -152.7111
7397.541239 88.298 -152.4022
7451.146872 88.548 -152.3280
7505.140954 88.811 -152.5147
7559.526299 89.082 -152.9864
7614.305743 89.357 -153.7663
7669.482141 89.630 -154.8776
7725.058371 89.893 -156.3434
7781.037328 90.135 -158.1783
7837.421932 90.345 -160.3781
7894.215122 90.509 -162.9134
7951.419859 90.616 -165.7308
8009.039125 90.657 -168.7569
8067.075924 90.625 -171.9049
8125.533282 90.518 -175.0829
8184.414245 90.336 -178.1999
8243.721885 90.082 178.8332
8303.459292 89.759 176.1009
8363.629581 89.376 173.6779
8424.235888 88.943 171.6257
8485.281374 88.471 169.9867
8546.769221 87.975 168.7783
8608.702634 87.465 167.9951
8671.084842 86.953 167.6162
8733.919097 86.449 167.6134
8797.208675 85.958 167.9571
8860.956876 85.488 168.6178
8925.167022 85.042 169.5620
8989.842461 84.626 170.7497
9054.986566 84.242 172.1382
9120.602731 83.892 173.6883
9186.694378 83.576 175.3690
9253.264952 83.292 177.1583
9320.317925 83.042 179.0378
9387.856790 82.826 -179.0139
9455.885071 82.643 -177.0217
9524.406312 82.494 -175.0092
9593.424086 82.376 -172.9931
9662.941992 82.290 -170.9816
9732.963653 82.236 -168.9822
9803.492719 82.214 -167.0089
9874.532869 82.225 -165.0838
9946.087805 82.267 -163.2328
10018.161257 82.338 -161.4782
10090.756983 82.436 -159.8365
10163.878768 82.560 -158.3249
10237.530423 82.708 -156.9649
10311.715789 82.876 -155.7807
10386.438732 83.060 -154.7917
10461.703149 83.256 -154.0064
10537.512962 83.458 -153.4251
10613.872125 83.664 -153.0471
10690.784618 83.869 -152.8728
10768.254450 84.069 -152.9004
10846.285661 84.259 -153.1183
10924.882318 84.434 -153.5054
11004.048518 84.593 -154.0370
11083.788390 84.734 -154.6896
11164.106090 84.855 -155.4417
11245.005805 84.954 -156.2684
11326.491752 85.033 -157.1405
11408.568180 85.092 -158.0284
11491.239368 85.134 -158.9082
11574.509626 85.162 -159.7640
11658.383294 85.179 -160.5842
11742.864745 85.190 -161.3616
11827.958384 85.199 -162.0990
11913.668646 85.211 -162.8164
12000.000000 85.229 -163.5496
12086.956947 85.252 -164.3389
12174.544019 85.279 -165.2188
12262.765784 85.305 -166.2144
12351.626840 85.325 -167.3435
12441.131819 85.333 -168.6142
12531.285389 85.323 -170.0215
12622.092249 85.290 -171.5460
12713.557132 85.228 -173.1599
12805.684808 85.134 -174.8308
12898.480079 85.005 -176.5206
12991.947783 84.838 -178.1832
13086.092792 84.634 -179.7679
13180.920015 84.394 178.7742
13276.434395 84.122 177.4863
13372.640911 83.823 176.4083
13469.544580 83.501 175.5762
13567.150452 83.165 175.0175
13665.463617 82.821 174.7469
13764.489200 82.478 174.7687
13864.232362 82.144 175.0804
13964.698305 81.827 175.6704
14065.892266 81.538 176.5135
14167.819519 81.284 177.5730
14270.485380 81.073 178.8061
14373.895200 80.913 -179.8371
14478.054370 80.808 -178.4156
14582.968320 80.762 -176.9950
14688.642520 80.779 -175.6416
14795.082478 80.858 -174.4233
14902.293745 81.001 -173.4123
15010.281908 81.204 -172.6820
15119.052599 81.463 -172.3023
15228.611486 81.771 -172.3373
15338.964283 82.117 -172.8425
15450.116741 82.489 -173.8557
15562.074656 82.870 -175.3904
15674.843864 83.245 -177.4332
15788.430244 83.600 -179.9465
15902.839718 83.929 177.1230
16018.078250 84.226 173.8283
16134.151848 84.494 170.2046
16251.066563 84.733 166.2607
16368.828491 84.940 161.9871
16487.443769 85.111 157.3683
16606.918584 85.235 152.3970
16727.259161 85.300 147.0867
16848.471777 85.293 141.4793
16970.562748 85.206 135.6406
17093.538442 85.034 129.6494
17217.405268 84.776 123.5841
17342.169684 84.438 117.5073
17467.838194 84.026 111.4557
17594.417350 83.544 105.4428
17721.913751 82.994 99.4721
17850.334044 82.370 93.5531
17979.684923 81.664 87.7188
18109.973131 80.866 82.0380
18241.205462 79.965 76.6140
18373.388756 78.956 71.5763
18506.529905 77.836 67.0716
18640.635849 76.611 63.2464
18775.713581 75.291 60.2246
18911.770141 73.892 58.0865
19048.812624 72.436 56.8562
19186.848172 70.943 56.5027
19325.883983 69.435 56.9578
19465.927305 67.940 58.1289
19606.985439 66.500 59.8842
19749.065738 65.193 61.9863
19892.175609 64.155 63.9939
20036.322514 63.565 65.2675
