* Measurement data measured by REW V5.31
* Source: EXCL: Microphone (USB Sound Device        ), MICROPHONE (Master Volume), L, volume: 0.390
* Format: 256k Log Swept Sine, 1 sweep at -15.0 dBFS with no timing reference
* Dated: Oct 26, 2024 2:28:58 PM
* REW Settings:
*  C-weighting compensation: Off
*  Target level: 75.0 dB
* Note: EPZ Q5 Pro
* Measurement: L EPZ Q5 Pro
* Smoothing: 1/12 octave
* Frequency Step: 96 ppo
* Start Frequency: 0.36621094 Hz
*
* Freq(Hz)	SPL(dB)	Phase(degrees)
0.366211	77.251	-165.8054
0.368865	77.253	-165.8033
0.371538	77.255	-165.8002
0.374230	77.258	-165.7962
0.376942	77.262	-165.7916
0.379673	77.266	-165.7865
0.382424	77.270	-165.7810
0.385196	77.274	-165.7751
0.387987	77.278	-165.7690
0.390798	77.283	-165.7625
0.393630	77.287	-165.7557
0.396483	77.291	-165.7486
0.399356	77.296	-165.7413
0.402250	77.300	-165.7337
0.405165	77.305	-165.7258
0.408101	77.309	-165.7176
0.411058	77.314	-165.7092
0.414037	77.318	-165.7004
0.417037	77.323	-165.6914
0.420059	77.327	-165.6821
0.423103	77.332	-165.6726
0.426169	77.337	-165.6628
0.429257	77.342	-165.6527
0.432368	77.346	-165.6423
0.435501	77.351	-165.6317
0.438656	77.356	-165.6209
0.441835	77.361	-165.6097
0.445037	77.366	-165.5984
0.448262	77.371	-165.5867
0.451510	77.376	-165.5749
0.454782	77.381	-165.5627
0.458077	77.386	-165.5504
0.461397	77.391	-165.5378
0.464740	77.396	-165.5250
0.468108	77.401	-165.5119
0.471500	77.406	-165.4987
0.474917	77.412	-165.4852
0.478358	77.417	-165.4715
0.481825	77.422	-165.4576
0.485316	77.428	-165.4435
0.488833	77.433	-165.4292
0.492375	77.438	-165.4148
0.495943	77.444	-165.4001
0.499537	77.449	-165.3853
0.503157	77.455	-165.3704
0.506803	77.460	-165.3553
0.510475	77.466	-165.3400
0.514175	77.472	-165.3246
0.517900	77.477	-165.3091
0.521653	77.483	-165.2935
0.525434	77.489	-165.2778
0.529241	77.495	-165.2619
0.533076	77.501	-165.2460
0.536939	77.507	-165.2300
0.540830	77.513	-165.2140
0.544749	77.519	-165.1979
0.548696	77.525	-165.1817
0.552673	77.531	-165.1656
0.556677	77.537	-165.1494
0.560711	77.543	-165.1332
0.564774	77.549	-165.1170
0.568867	77.556	-165.1009
0.572989	77.562	-165.0848
0.577141	77.568	-165.0688
0.581324	77.575	-165.0529
0.585536	77.581	-165.0370
0.589779	77.588	-165.0213
0.594053	77.594	-165.0056
0.598358	77.601	-164.9902
0.602694	77.607	-164.9749
0.607061	77.614	-164.9598
0.611460	77.621	-164.9449
0.615891	77.628	-164.9302
0.620354	77.634	-164.9158
0.624849	77.641	-164.9016
0.629377	77.648	-164.8877
0.633938	77.655	-164.8742
0.638532	77.662	-164.8610
0.643159	77.669	-164.8482
0.647819	77.677	-164.8357
0.652514	77.684	-164.8237
0.657242	77.691	-164.8121
0.662005	77.698	-164.8011
0.666802	77.706	-164.7905
0.671634	77.713	-164.7805
0.676501	77.721	-164.7711
0.681403	77.728	-164.7622
0.686341	77.736	-164.7541
0.691314	77.743	-164.7466
0.696324	77.751	-164.7398
0.701370	77.758	-164.7339
0.706452	77.765	-164.7287
0.711571	77.772	-164.7245
0.716728	77.778	-164.7214
0.721921	77.783	-164.7193
0.727153	77.786	-164.7187
0.732422	77.787	-164.7195
0.737729	77.786	-164.7221
0.743075	77.782	-164.7268
0.748460	77.777	-164.7336
0.753883	77.770	-164.7428
0.759346	77.763	-164.7544
0.764849	77.755	-164.7683
0.770391	77.747	-164.7846
0.775974	77.738	-164.8033
0.781597	77.730	-164.8243
0.787261	77.721	-164.8476
0.792966	77.712	-164.8731
0.798712	77.703	-164.9007
0.804500	77.693	-164.9303
0.810329	77.684	-164.9620
0.816201	77.673	-164.9955
0.822116	77.663	-165.0309
0.828073	77.652	-165.0679
0.834074	77.640	-165.1066
0.840118	77.628	-165.1469
0.846206	77.615	-165.1885
0.852338	77.602	-165.2314
0.858514	77.588	-165.2756
0.864735	77.573	-165.3207
0.871001	77.557	-165.3668
0.877313	77.540	-165.4137
0.883670	77.522	-165.4612
0.890074	77.504	-165.5092
0.896524	77.483	-165.5574
0.903020	77.462	-165.6058
0.909564	77.440	-165.6542
0.916155	77.416	-165.7023
0.922794	77.390	-165.7499
0.929481	77.363	-165.7968
0.936216	77.334	-165.8429
0.943000	77.304	-165.8878
0.949834	77.271	-165.9313
0.956717	77.237	-165.9731
0.963649	77.201	-166.0130
0.970632	77.162	-166.0506
0.977666	77.121	-166.0856
0.984750	77.078	-166.1176
0.991886	77.032	-166.1464
0.999074	76.984	-166.1715
1.006314	76.933	-166.1925
1.013606	76.879	-166.2090
1.020951	76.821	-166.2206
1.028349	76.761	-166.2267
1.035801	76.697	-166.2268
1.043307	76.630	-166.2204
1.050867	76.559	-166.2071
1.058482	76.484	-166.1862
1.066152	76.405	-166.1575
1.073878	76.322	-166.1205
1.081660	76.233	-166.0754
1.089498	76.139	-166.0224
1.097393	76.038	-165.9623
1.105345	75.930	-165.8963
1.113355	75.813	-165.8256
1.121423	75.688	-165.7511
1.129549	75.552	-165.6736
1.137734	75.407	-165.5930
1.145979	75.253	-165.5093
1.154283	75.089	-165.4220
1.162647	74.915	-165.3304
1.171072	74.733	-165.2338
1.179558	74.543	-165.1311
1.188106	74.345	-165.0214
1.196715	74.139	-164.9034
1.205387	73.927	-164.7758
1.214122	73.708	-164.6371
1.222920	73.484	-164.4858
1.231782	73.256	-164.3200
1.240708	73.023	-164.1378
1.249699	72.786	-163.9370
1.258754	72.547	-163.7151
1.267876	72.306	-163.4694
1.277063	72.063	-163.1970
1.286318	71.821	-162.8943
1.295639	71.580	-162.5578
1.305027	71.340	-162.1830
1.314484	71.103	-161.7653
1.324009	70.870	-161.2993
1.333604	70.642	-160.7792
1.343268	70.420	-160.1982
1.353002	70.205	-159.5487
1.362806	69.999	-158.8224
1.372681	69.804	-158.0098
1.382628	69.620	-157.1004
1.392647	69.448	-156.0824
1.402739	69.292	-154.9428
1.412904	69.151	-153.6675
1.423142	69.028	-152.2412
1.433455	68.924	-150.6473
1.443843	68.840	-148.8688
1.454305	68.776	-146.8877
1.464844	68.735	-144.6860
1.475459	68.714	-142.2451
1.486150	68.715	-139.5469
1.496920	68.735	-136.5738
1.507767	68.775	-133.3117
1.518693	68.835	-129.7521
1.529698	68.912	-125.8955
1.540783	69.007	-121.7555
1.551948	69.119	-117.3613
1.563194	69.247	-112.7600
1.574521	69.391	-108.0153
1.585931	69.549	-103.2049
1.597423	69.721	-98.4129
1.608999	69.907	-93.7230
1.620658	70.105	-89.2101
1.632402	70.315	-84.9347
1.644232	70.535	-80.9401
1.656146	70.764	-77.2519
1.668147	71.002	-73.8804
1.680235	71.248	-70.8238
1.692411	71.500	-68.0714
1.704675	71.757	-65.6067
1.717028	72.018	-63.4102
1.729470	72.282	-61.4610
1.742003	72.548	-59.7382
1.754626	72.815	-58.2216
1.767341	73.082	-56.8920
1.780147	73.347	-55.7314
1.793047	73.612	-54.7226
1.806040	73.875	-53.8495
1.819128	74.139	-53.0963
1.832310	74.404	-52.4477
1.845587	74.673	-51.8894
1.858961	74.948	-51.4091
1.872432	75.230	-50.9966
1.886001	75.520	-50.6440
1.899667	75.818	-50.3452
1.913433	76.124	-50.0954
1.927299	76.437	-49.8908
1.941265	76.757	-49.7280
1.955332	77.082	-49.6043
1.969501	77.412	-49.5172
1.983773	77.745	-49.4645
1.998148	78.081	-49.4443
2.012627	78.419	-49.4550
2.027212	78.757	-49.4949
2.041902	79.094	-49.5629
2.056698	79.429	-49.6578
2.071602	79.761	-49.7786
2.086614	80.088	-49.9245
2.101734	80.410	-50.0947
2.116964	80.724	-50.2888
2.132304	81.030	-50.5063
2.147756	81.328	-50.7467
2.163320	81.615	-51.0097
2.178996	81.892	-51.2947
2.194786	82.158	-51.6012
2.210690	82.414	-51.9282
2.226710	82.661	-52.2747
2.242845	82.899	-52.6393
2.259098	83.129	-53.0203
2.275468	83.351	-53.4161
2.291957	83.565	-53.8253
2.308566	83.773	-54.2462
2.325295	83.974	-54.6775
2.342145	84.170	-55.1179
2.359117	84.360	-55.5663
2.376212	84.544	-56.0216
2.393431	84.725	-56.4831
2.410775	84.901	-56.9498
2.428244	85.074	-57.4212
2.445840	85.244	-57.8969
2.463564	85.411	-58.3764
2.481416	85.576	-58.8597
2.499397	85.740	-59.3471
2.517509	85.902	-59.8389
2.535752	86.063	-60.3361
2.554127	86.222	-60.8400
2.572635	86.379	-61.3523
2.591277	86.534	-61.8744
2.610055	86.685	-62.4073
2.628968	86.833	-62.9510
2.648019	86.977	-63.5049
2.667208	87.117	-64.0679
2.686535	87.253	-64.6387
2.706003	87.386	-65.2155
2.725612	87.516	-65.7967
2.745363	87.642	-66.3806
2.765257	87.765	-66.9657
2.785295	87.885	-67.5505
2.805478	88.003	-68.1336
2.825808	88.118	-68.7139
2.846285	88.231	-69.2904
2.866910	88.342	-69.8629
2.887685	88.451	-70.4315
2.908611	88.559	-70.9972
2.929688	88.664	-71.5615
2.950917	88.766	-72.1267
2.972301	88.866	-72.6948
2.993839	88.963	-73.2670
3.015534	89.057	-73.8438
3.037386	89.147	-74.4248
3.059396	89.235	-75.0090
3.081565	89.320	-75.5951
3.103896	89.402	-76.1813
3.126388	89.482	-76.7660
3.149043	89.559	-77.3473
3.171862	89.634	-77.9236
3.194847	89.707	-78.4931
3.217998	89.778	-79.0546
3.241317	89.848	-79.6073
3.264805	89.916	-80.1509
3.288463	89.981	-80.6862
3.312293	90.045	-81.2143
3.336295	90.107	-81.7371
3.360471	90.166	-82.2559
3.384822	90.223	-82.7716
3.409350	90.277	-83.2844
3.434056	90.329	-83.7939
3.458940	90.379	-84.2993
3.484005	90.427	-84.7996
3.509252	90.473	-85.2935
3.534681	90.518	-85.7796
3.560295	90.561	-86.2566
3.586094	90.604	-86.7232
3.612081	90.646	-87.1783
3.638255	90.687	-87.6215
3.664620	90.727	-88.0524
3.691175	90.765	-88.4715
3.717923	90.803	-88.8794
3.744864	90.839	-89.2771
3.772001	90.874	-89.6651
3.799335	90.908	-90.0442
3.826866	90.941	-90.4147
3.854597	90.974	-90.7770
3.882529	91.005	-91.1312
3.910664	91.037	-91.4775
3.939002	91.069	-91.8156
3.967546	91.101	-92.1453
3.996296	91.134	-92.4662
4.025255	91.167	-92.7778
4.054423	91.201	-93.0796
4.083804	91.235	-93.3713
4.113396	91.270	-93.6534
4.143204	91.305	-93.9266
4.173227	91.340	-94.1921
4.203468	91.376	-94.4516
4.233928	91.412	-94.7065
4.264609	91.450	-94.9586
4.295512	91.488	-95.2093
4.326639	91.527	-95.4598
4.357992	91.567	-95.7107
4.389572	91.609	-95.9622
4.421380	91.652	-96.2140
4.453419	91.696	-96.4656
4.485691	91.742	-96.7171
4.518196	91.788	-96.9690
4.550936	91.836	-97.2224
4.583914	91.884	-97.4787
4.617131	91.934	-97.7397
4.650589	91.984	-98.0070
4.684289	92.035	-98.2822
4.718233	92.086	-98.5666
4.752424	92.137	-98.8607
4.786862	92.190	-99.1650
4.821549	92.243	-99.4790
4.856488	92.296	-99.8025
4.891680	92.350	-100.1353
4.927127	92.403	-100.4771
4.962831	92.457	-100.8282
4.998794	92.511	-101.1888
5.035017	92.564	-101.5592
5.071503	92.616	-101.9399
5.108253	92.668	-102.3316
5.145270	92.719	-102.7345
5.182555	92.769	-103.1489
5.220110	92.817	-103.5743
5.257937	92.865	-104.0101
5.296038	92.912	-104.4551
5.334415	92.958	-104.9079
5.373071	93.002	-105.3674
5.412006	93.045	-105.8324
5.451224	93.086	-106.3024
5.490725	93.126	-106.7771
5.530514	93.164	-107.2569
5.570590	93.200	-107.7416
5.610957	93.234	-108.2308
5.651616	93.267	-108.7236
5.692570	93.298	-109.2184
5.733821	93.327	-109.7136
5.775370	93.355	-110.2074
5.817221	93.382	-110.6987
5.859375	93.407	-111.1866
5.901834	93.431	-111.6709
5.944602	93.453	-112.1517
5.987679	93.474	-112.6289
6.031068	93.493	-113.1020
6.074771	93.512	-113.5702
6.118792	93.530	-114.0328
6.163131	93.548	-114.4886
6.207792	93.565	-114.9371
6.252776	93.582	-115.3776
6.298086	93.598	-115.8103
6.343725	93.615	-116.2354
6.389694	93.631	-116.6535
6.435996	93.648	-117.0652
6.482634	93.665	-117.4710
6.529610	93.683	-117.8715
6.576926	93.702	-118.2667
6.624585	93.722	-118.6570
6.672590	93.742	-119.0426
6.720942	93.764	-119.4241
6.769645	93.787	-119.8027
6.818700	93.811	-120.1797
6.868111	93.836	-120.5566
6.917881	93.862	-120.9345
6.968010	93.889	-121.3143
7.018504	93.918	-121.6964
7.069362	93.948	-122.0813
7.120590	93.979	-122.4696
7.172189	94.010	-122.8619
7.224161	94.043	-123.2592
7.276511	94.076	-123.6622
7.329239	94.109	-124.0717
7.382350	94.143	-124.4878
7.435845	94.177	-124.9104
7.489729	94.211	-125.3393
7.544002	94.245	-125.7739
7.598669	94.279	-126.2139
7.653732	94.312	-126.6588
7.709194	94.345	-127.1083
7.765058	94.377	-127.5622
7.821327	94.408	-128.0196
7.878004	94.439	-128.4795
7.935091	94.468	-128.9407
7.992592	94.497	-129.4019
8.050510	94.525	-129.8620
8.108847	94.552	-130.3203
8.167607	94.578	-130.7762
8.226793	94.603	-131.2287
8.286408	94.628	-131.6770
8.346454	94.652	-132.1200
8.406936	94.675	-132.5569
8.467856	94.698	-132.9869
8.529218	94.720	-133.4099
8.591024	94.742	-133.8256
8.653278	94.764	-134.2341
8.715983	94.786	-134.6353
8.779143	94.809	-135.0292
8.842760	94.831	-135.4161
8.906839	94.855	-135.7961
8.971381	94.878	-136.1700
9.036392	94.902	-136.5385
9.101873	94.927	-136.9023
9.167829	94.952	-137.2623
9.234263	94.978	-137.6190
9.301178	95.005	-137.9731
9.368578	95.031	-138.3251
9.436467	95.059	-138.6760
9.504847	95.086	-139.0263
9.573723	95.114	-139.3765
9.643099	95.141	-139.7270
9.712976	95.167	-140.0777
9.783361	95.191	-140.4286
9.854255	95.213	-140.7799
9.925663	95.233	-141.1313
9.997588	95.250	-141.4826
10.070035	95.264	-141.8334
10.143007	95.275	-142.1830
10.216507	95.285	-142.5310
10.290540	95.291	-142.8766
10.365109	95.296	-143.2196
10.440219	95.300	-143.5594
10.515873	95.301	-143.8954
10.592076	95.302	-144.2272
10.668830	95.302	-144.5545
10.746141	95.301	-144.8771
10.824012	95.300	-145.1950
10.902447	95.298	-145.5083
10.981451	95.296	-145.8171
11.061027	95.293	-146.1216
11.141180	95.290	-146.4222
11.221913	95.287	-146.7195
11.303232	95.284	-147.0138
11.385140	95.280	-147.3058
11.467641	95.277	-147.5959
11.550741	95.273	-147.8847
11.634442	95.269	-148.1724
11.718750	95.265	-148.4597
11.803669	95.261	-148.7466
11.889203	95.256	-149.0335
11.975357	95.252	-149.3203
12.062136	95.248	-149.6072
12.149543	95.243	-149.8940
12.237583	95.238	-150.1806
12.326262	95.233	-150.4670
12.415583	95.227	-150.7530
12.505552	95.220	-151.0384
12.596172	95.213	-151.3231
12.687449	95.206	-151.6072
12.779387	95.198	-151.8907
12.871992	95.189	-152.1738
12.965268	95.180	-152.4567
13.059220	95.172	-152.7397
13.153852	95.163	-153.0231
13.249170	95.154	-153.3074
13.345179	95.145	-153.5929
13.441884	95.136	-153.8800
13.539289	95.128	-154.1691
13.637401	95.119	-154.4604
13.736223	95.110	-154.7541
13.835761	95.101	-155.0501
13.936021	95.092	-155.3484
14.037007	95.083	-155.6488
14.138725	95.073	-155.9511
14.241180	95.062	-156.2549
14.344377	95.051	-156.5598
14.448323	95.040	-156.8655
14.553021	95.029	-157.1716
14.658478	95.017	-157.4779
14.764700	95.005	-157.7842
14.871691	94.994	-158.0905
14.979457	94.983	-158.3968
15.088005	94.972	-158.7034
15.197339	94.962	-159.0105
15.307465	94.952	-159.3184
15.418389	94.942	-159.6275
15.530117	94.933	-159.9381
15.642655	94.924	-160.2503
15.756008	94.916	-160.5643
15.870182	94.907	-160.8800
15.985184	94.899	-161.1972
16.101019	94.891	-161.5156
16.217694	94.882	-161.8348
16.335214	94.874	-162.1541
16.453586	94.866	-162.4729
16.572815	94.858	-162.7907
16.692909	94.851	-163.1068
16.813872	94.844	-163.4208
16.935713	94.837	-163.7324
17.058436	94.831	-164.0414
17.182048	94.825	-164.3478
17.306556	94.820	-164.6517
17.431967	94.815	-164.9532
17.558286	94.811	-165.2527
17.685521	94.807	-165.5502
17.813677	94.803	-165.8460
17.942762	94.799	-166.1400
18.072783	94.795	-166.4323
18.203746	94.791	-166.7227
18.335658	94.787	-167.0107
18.468526	94.783	-167.2960
18.602356	94.779	-167.5782
18.737156	94.774	-167.8569
18.872934	94.770	-168.1317
19.009695	94.765	-168.4026
19.147447	94.760	-168.6694
19.286197	94.756	-168.9323
19.425953	94.751	-169.1915
19.566721	94.746	-169.4474
19.708510	94.741	-169.7003
19.851326	94.736	-169.9507
19.995177	94.731	-170.1991
20.140070	94.725	-170.4456
20.286013	94.719	-170.6906
20.433014	94.712	-170.9343
20.581080	94.705	-171.1768
20.730219	94.698	-171.4182
20.880439	94.690	-171.6587
21.031747	94.682	-171.8986
21.184152	94.674	-172.1382
21.337661	94.666	-172.3779
21.492282	94.657	-172.6181
21.648024	94.649	-172.8594
21.804895	94.640	-173.1019
21.962902	94.631	-173.3461
22.122054	94.622	-173.5920
22.282360	94.612	-173.8396
22.443827	94.601	-174.0886
22.606464	94.590	-174.3389
22.770280	94.579	-174.5901
22.935283	94.567	-174.8419
23.101481	94.555	-175.0941
23.268884	94.543	-175.3465
23.437500	94.530	-175.5993
23.607338	94.518	-175.8526
23.778406	94.505	-176.1068
23.950714	94.493	-176.3620
24.124271	94.480	-176.6184
24.299086	94.467	-176.8760
24.475167	94.455	-177.1346
24.652524	94.442	-177.3937
24.831166	94.429	-177.6528
25.011103	94.416	-177.9112
25.192344	94.404	-178.1682
25.374898	94.391	-178.4231
25.558775	94.379	-178.6756
25.743984	94.366	-178.9256
25.930536	94.355	-179.1731
26.118439	94.344	-179.4187
26.307704	94.333	-179.6630
26.498341	94.323	-179.9066
26.690359	94.312	179.8497
26.883768	94.303	179.6056
27.078579	94.293	179.3610
27.274801	94.282	179.1160
27.472446	94.271	178.8714
27.671522	94.260	178.6282
27.872042	94.247	178.3875
28.074014	94.234	178.1506
28.277450	94.220	177.9183
28.482360	94.206	177.6912
28.688755	94.191	177.4694
28.896645	94.176	177.2523
29.106042	94.161	177.0389
29.316957	94.146	176.8281
29.529400	94.131	176.6186
29.743382	94.116	176.4092
29.958915	94.100	176.1991
30.176009	94.085	175.9879
30.394677	94.070	175.7757
30.614929	94.054	175.5624
30.836778	94.038	175.3484
31.060234	94.021	175.1335
31.285309	94.005	174.9178
31.512015	93.988	174.7010
31.740364	93.972	174.4825
31.970368	93.955	174.2621
32.202039	93.938	174.0397
32.435388	93.921	173.8154
32.670428	93.904	173.5897
32.907171	93.886	173.3631
33.145630	93.869	173.1363
33.385817	93.851	172.9097
33.627745	93.834	172.6837
33.871425	93.817	172.4583
34.116871	93.799	172.2336
34.364096	93.782	172.0096
34.613113	93.765	171.7863
34.863934	93.749	171.5637
35.116572	93.732	171.3423
35.371041	93.714	171.1226
35.627354	93.697	170.9047
35.885525	93.680	170.6892
36.145566	93.662	170.4764
36.407492	93.644	170.2666
36.671316	93.626	170.0598
36.937051	93.607	169.8558
37.204712	93.588	169.6545
37.474313	93.570	169.4554
37.745867	93.550	169.2582
38.019389	93.531	169.0627
38.294893	93.511	168.8687
38.572394	93.492	168.6760
38.851905	93.471	168.4847
39.133442	93.451	168.2946
39.417019	93.430	168.1054
39.702651	93.409	167.9169
39.990353	93.388	167.7287
40.280140	93.367	167.5407
40.572026	93.345	167.3529
40.866028	93.324	167.1653
41.162160	93.302	166.9780
41.460438	93.280	166.7914
41.760877	93.258	166.6053
42.063494	93.236	166.4198
42.368303	93.214	166.2350
42.675322	93.191	166.0510
42.984565	93.169	165.8678
43.296048	93.147	165.6858
43.609789	93.124	165.5050
43.925804	93.101	165.3255
44.244108	93.078	165.1473
44.564719	93.055	164.9702
44.887654	93.032	164.7943
45.212928	93.009	164.6198
45.540560	92.985	164.4469
45.870565	92.961	164.2758
46.202962	92.937	164.1064
46.537768	92.913	163.9388
46.875000	92.889	163.7726
47.214676	92.865	163.6074
47.556813	92.841	163.4431
47.901429	92.817	163.2795
48.248542	92.793	163.1170
48.598171	92.769	162.9558
48.950334	92.744	162.7961
49.305048	92.720	162.6381
49.662333	92.695	162.4819
50.022206	92.671	162.3277
50.384688	92.646	162.1758
50.749796	92.621	162.0263
51.117550	92.596	161.8792
51.487969	92.572	161.7339
51.861072	92.547	161.5900
52.236879	92.523	161.4466
52.615409	92.498	161.3038
52.996681	92.473	161.1620
53.380717	92.449	161.0220
53.767536	92.424	160.8843
54.157158	92.399	160.7494
54.549603	92.374	160.6166
54.944892	92.350	160.4852
55.343045	92.326	160.3542
55.744084	92.302	160.2225
56.148028	92.279	160.0892
56.554900	92.257	159.9536
56.964720	92.234	159.8148
57.377510	92.211	159.6727
57.793291	92.188	159.5278
58.212085	92.165	159.3815
58.633914	92.140	159.2355
59.058799	92.116	159.0911
59.486764	92.090	158.9490
59.917829	92.064	158.8093
60.352019	92.038	158.6719
60.789354	92.012	158.5366
61.229859	91.984	158.4033
61.673556	91.957	158.2720
62.120468	91.929	158.1425
62.570618	91.901	158.0146
63.024031	91.872	157.8882
63.480729	91.844	157.7633
63.940736	91.815	157.6404
64.404077	91.785	157.5200
64.870776	91.756	157.4020
65.340856	91.727	157.2864
65.814343	91.698	157.1722
66.291261	91.670	157.0588
66.771635	91.641	156.9457
67.255489	91.613	156.8337
67.742850	91.584	156.7238
68.233743	91.555	156.6173
68.728193	91.526	156.5143
69.226226	91.497	156.4145
69.727867	91.468	156.3170
70.233144	91.439	156.2209
70.742083	91.410	156.1257
71.254709	91.382	156.0311
71.771050	91.353	155.9369
72.291132	91.324	155.8432
72.814984	91.296	155.7501
73.342631	91.267	155.6575
73.874102	91.239	155.5651
74.409424	91.211	155.4731
74.948626	91.183	155.3817
75.491734	91.155	155.2915
76.038779	91.127	155.2031
76.589787	91.099	155.1163
77.144788	91.072	155.0308
77.703811	91.045	154.9453
78.266885	91.019	154.8588
78.834039	90.992	154.7707
79.405303	90.965	154.6805
79.980706	90.939	154.5874
80.560280	90.912	154.4896
81.144053	90.886	154.3851
81.732056	90.859	154.2728
82.324320	90.830	154.1539
82.920876	90.800	154.0315
83.521755	90.769	153.9098
84.126988	90.737	153.7926
84.736607	90.704	153.6826
85.350643	90.670	153.5808
85.969129	90.636	153.4874
86.592097	90.602	153.4014
87.219579	90.568	153.3223
87.851608	90.534	153.2502
88.488217	90.499	153.1863
89.129439	90.464	153.1317
89.775308	90.429	153.0865
90.425856	90.395	153.0497
91.081119	90.361	153.0185
91.741131	90.327	152.9895
92.405925	90.295	152.9596
93.075536	90.263	152.9271
93.750000	90.231	152.8915
94.429351	90.199	152.8533
95.113625	90.168	152.8131
95.802858	90.137	152.7717
96.497085	90.105	152.7299
97.196342	90.074	152.6891
97.900667	90.043	152.6505
98.610096	90.011	152.6155
99.324665	89.980	152.5849
100.044413	89.948	152.5596
100.769376	89.917	152.5400
101.499592	89.886	152.5264
102.235100	89.854	152.5178
102.975938	89.824	152.5125
103.722144	89.794	152.5076
104.473757	89.764	152.5007
105.230817	89.736	152.4897
105.993363	89.707	152.4738
106.761435	89.679	152.4539
107.535072	89.651	152.4316
108.314315	89.624	152.4081
109.099206	89.597	152.3826
109.889783	89.570	152.3531
110.686090	89.542	152.3184
111.488167	89.513	152.2782
112.296056	89.482	152.2337
113.109800	89.449	152.1859
113.929440	89.414	152.1361
114.755020	89.376	152.0859
115.586582	89.337	152.0377
116.424170	89.298	151.9941
117.267827	89.257	151.9601
118.117598	89.217	151.9422
118.973527	89.178	151.9478
119.835658	89.142	151.9828
120.704037	89.109	152.0452
121.578708	89.080	152.1240
122.459718	89.054	152.2068
123.347111	89.030	152.2854
124.240935	89.006	152.3546
125.141236	88.981	152.4118
126.048061	88.955	152.4574
126.961458	88.929	152.4938
127.881473	88.903	152.5234
128.808154	88.877	152.5462
129.741551	88.852	152.5603
130.681712	88.827	152.5663
131.628686	88.800	152.5703
132.582521	88.773	152.5801
133.543269	88.745	152.5988
134.510979	88.716	152.6243
135.485701	88.687	152.6530
136.467486	88.657	152.6830
137.456386	88.627	152.7139
138.452451	88.597	152.7463
139.455735	88.568	152.7810
140.466288	88.538	152.8196
141.484165	88.509	152.8640
142.509418	88.479	152.9155
143.542100	88.450	152.9742
144.582265	88.420	153.0387
145.629968	88.391	153.1074
146.685262	88.362	153.1790
147.748204	88.334	153.2523
148.818849	88.306	153.3266
149.897251	88.279	153.4023
150.983469	88.252	153.4813
152.077557	88.226	153.5653
153.179574	88.200	153.6551
154.289576	88.176	153.7486
155.407622	88.153	153.8412
156.533770	88.132	153.9271
157.668078	88.112	154.0011
158.810606	88.093	154.0603
159.961413	88.074	154.1044
161.120559	88.055	154.1356
162.288105	88.035	154.1570
163.464112	88.015	154.1722
164.648640	87.992	154.1849
165.841752	87.968	154.1986
167.043510	87.941	154.2162
168.253976	87.914	154.2400
169.473213	87.885	154.2718
170.701286	87.857	154.3122
171.938258	87.829	154.3607
173.184194	87.803	154.4167
174.439158	87.777	154.4794
175.703216	87.752	154.5471
176.976434	87.727	154.6174
178.258878	87.703	154.6875
179.550615	87.679	154.7554
180.851713	87.655	154.8198
182.162239	87.631	154.8804
183.482262	87.607	154.9377
184.811850	87.583	154.9926
186.151073	87.560	155.0468
187.500000	87.536	155.1021
188.858702	87.512	155.1592
190.227250	87.488	155.2181
191.605715	87.464	155.2771
192.994169	87.438	155.3353
194.392685	87.413	155.3933
195.801334	87.386	155.4538
197.220191	87.360	155.5199
198.649330	87.333	155.5941
200.088825	87.307	155.6779
201.538751	87.282	155.7709
202.999184	87.258	155.8704
204.470200	87.236	155.9719
205.951875	87.214	156.0709
207.444287	87.193	156.1644
208.947514	87.172	156.2524
210.461634	87.149	156.3380
211.986726	87.125	156.4263
213.522869	87.099	156.5233
215.070144	87.072	156.6357
216.628631	87.044	156.7684
218.198411	87.016	156.9236
219.779567	86.989	157.0992
221.372180	86.965	157.2894
222.976334	86.945	157.4872
224.592112	86.927	157.6867
226.219600	86.913	157.8834
227.858880	86.902	158.0738
229.510039	86.894	158.2548
231.173164	86.888	158.4227
232.848340	86.884	158.5733
234.535655	86.881	158.7023
236.235197	86.878	158.8067
237.947054	86.876	158.8854
239.671317	86.872	158.9404
241.408074	86.866	158.9767
243.157416	86.857	159.0010
244.919435	86.845	159.0209
246.694223	86.830	159.0435
248.481871	86.813	159.0761
250.282473	86.794	159.1246
252.096123	86.773	159.1927
253.922915	86.753	159.2796
255.762945	86.735	159.3793
257.616309	86.719	159.4819
259.483103	86.705	159.5776
261.363424	86.693	159.6603
263.257372	86.681	159.7313
265.165043	86.667	159.7970
267.086538	86.652	159.8655
269.021957	86.636	159.9428
270.971401	86.619	160.0314
272.934972	86.602	160.1309
274.912771	86.586	160.2395
276.904902	86.571	160.3550
278.911469	86.558	160.4759
280.932577	86.546	160.5999
282.968330	86.537	160.7229
285.018835	86.530	160.8391
287.084199	86.524	160.9412
289.164530	86.519	161.0237
291.259935	86.514	161.0854
293.370525	86.506	161.1313
295.496408	86.496	161.1708
297.637697	86.484	161.2133
299.794503	86.469	161.2657
301.966937	86.453	161.3304
304.155114	86.437	161.4064
306.359147	86.420	161.4904
308.579152	86.404	161.5781
310.815244	86.388	161.6660
313.067539	86.372	161.7523
315.336156	86.355	161.8385
317.621211	86.337	161.9283
319.922826	86.319	162.0262
322.241118	86.300	162.1345
324.576210	86.283	162.2523
326.928223	86.266	162.3762
329.297280	86.251	162.5026
331.683504	86.236	162.6284
334.087019	86.223	162.7513
336.507952	86.211	162.8698
338.946427	86.198	162.9836
341.402572	86.184	163.0938
343.876516	86.170	163.2032
346.368387	86.155	163.3148
348.878315	86.140	163.4302
351.406431	86.125	163.5497
353.952867	86.110	163.6725
356.517756	86.096	163.7975
359.101230	86.081	163.9240
361.703426	86.067	164.0515
364.324478	86.053	164.1800
366.964523	86.038	164.3100
369.623699	86.025	164.4423
372.302145	86.011	164.5772
375.000000	85.997	164.7147
377.717405	85.984	164.8539
380.454501	85.972	164.9939
383.211431	85.960	165.1341
385.988339	85.948	165.2746
388.785369	85.936	165.4159
391.602668	85.925	165.5583
394.440383	85.913	165.7020
397.298660	85.903	165.8464
400.177650	85.892	165.9911
403.077502	85.882	166.1353
405.998368	85.873	166.2782
408.940400	85.863	166.4197
411.903750	85.853	166.5610
414.888575	85.842	166.7046
417.895028	85.831	166.8535
420.923268	85.819	167.0101
423.973452	85.808	167.1754
427.045738	85.799	167.3481
430.140287	85.791	167.5247
433.257261	85.785	167.7006
436.396822	85.780	167.8726
439.559133	85.776	168.0396
442.744360	85.774	168.2014
445.952668	85.772	168.3560
449.184225	85.772	168.4987
452.439199	85.772	168.6239
455.717760	85.771	168.7289
459.020079	85.768	168.8176
462.346327	85.763	168.9010
465.696680	85.754	168.9911
469.071310	85.743	169.0953
472.470394	85.732	169.2145
475.894109	85.720	169.3455
479.342634	85.708	169.4828
482.816148	85.697	169.6209
486.314833	85.686	169.7581
489.838871	85.673	169.8987
493.388445	85.660	170.0505
496.963741	85.648	170.2179
500.564945	85.636	170.3977
504.192245	85.627	170.5820
507.845830	85.619	170.7637
511.525890	85.612	170.9390
515.232618	85.604	171.1085
518.966206	85.596	171.2756
522.726849	85.588	171.4456
526.514743	85.579	171.6234
530.330086	85.570	171.8116
534.173076	85.562	172.0078
538.043915	85.555	172.2068
541.942803	85.549	172.4059
545.869944	85.544	172.6053
549.825542	85.539	172.8054
553.809805	85.536	173.0049
557.822939	85.533	173.2014
561.865154	85.530	173.3931
565.936660	85.527	173.5803
570.037671	85.524	173.7656
574.168399	85.519	173.9527
578.329060	85.515	174.1440
582.519870	85.511	174.3396
586.741049	85.506	174.5397
590.992817	85.501	174.7461
595.275394	85.496	174.9606
599.589005	85.492	175.1821
603.933874	85.489	175.4064
608.310228	85.486	175.6289
612.718295	85.484	175.8480
617.158304	85.482	176.0659
621.630488	85.478	176.2892
626.135079	85.475	176.5251
630.672311	85.471	176.7766
635.242423	85.469	177.0405
639.845651	85.468	177.3120
644.482237	85.468	177.5906
649.152421	85.470	177.8792
653.856447	85.474	178.1782
658.594560	85.481	178.4822
663.367008	85.492	178.7811
668.174039	85.506	179.0645
673.015903	85.522	179.3268
677.892854	85.539	179.5656
682.805145	85.555	179.7781
687.753032	85.570	179.9633
692.736774	85.581	-179.8736
697.756631	85.586	-179.7195
702.812863	85.585	-179.5566
707.905735	85.579	-179.3665
713.035511	85.570	-179.1325
718.202461	85.560	-178.8428
723.406852	85.552	-178.4966
728.648956	85.551	-178.1077
733.929047	85.558	-177.7007
739.247399	85.573	-177.3009
744.604290	85.593	-176.9245
750.000000	85.617	-176.5766
755.434809	85.642	-176.2538
760.909001	85.667	-175.9494
766.422861	85.691	-175.6565
771.976677	85.715	-175.3695
777.570739	85.738	-175.0851
783.205337	85.761	-174.8010
788.880766	85.784	-174.5146
794.597321	85.807	-174.2222
800.355301	85.831	-173.9209
806.155005	85.856	-173.6117
811.996736	85.885	-173.3002
817.880799	85.917	-172.9949
823.807501	85.951	-172.7049
829.777150	85.988	-172.4380
835.790057	86.024	-172.1966
841.846536	86.058	-171.9743
847.946903	86.090	-171.7611
854.091476	86.120	-171.5491
860.280575	86.148	-171.3342
866.514523	86.176	-171.1136
872.793644	86.202	-170.8843
879.118267	86.229	-170.6461
885.488720	86.257	-170.4030
891.905336	86.286	-170.1587
898.368450	86.316	-169.9135
904.878398	86.346	-169.6655
911.435520	86.377	-169.4133
918.040157	86.409	-169.1585
924.692655	86.443	-168.9040
931.393359	86.479	-168.6533
938.142619	86.516	-168.4100
944.940787	86.555	-168.1758
951.788218	86.593	-167.9494
958.685268	86.632	-167.7282
965.632296	86.671	-167.5099
972.629666	86.709	-167.2920
979.677741	86.748	-167.0733
986.776890	86.787	-166.8542
993.927482	86.826	-166.6333
1001.129891	86.865	-166.4068
1008.384491	86.905	-166.1705
1015.691660	86.946	-165.9242
1023.051781	86.990	-165.6711
1030.465236	87.037	-165.4177
1037.932411	87.087	-165.1745
1045.453698	87.139	-164.9523
1053.029486	87.192	-164.7552
1060.660172	87.244	-164.5775
1068.346153	87.293	-164.4083
1076.087829	87.340	-164.2360
1083.885605	87.387	-164.0519
1091.739887	87.433	-163.8522
1099.651084	87.480	-163.6362
1107.619609	87.528	-163.4039
1115.645878	87.580	-163.1561
1123.730308	87.635	-162.8955
1131.873321	87.694	-162.6271
1140.075341	87.758	-162.3582
1148.336797	87.828	-162.0978
1156.658119	87.903	-161.8549
1165.039741	87.982	-161.6364
1173.482099	88.065	-161.4461
1181.985634	88.153	-161.2872
1190.550789	88.244	-161.1660
1199.178011	88.337	-161.0926
1207.867749	88.432	-161.0770
1216.620457	88.526	-161.1223
1225.436590	88.615	-161.2217
1234.316609	88.698	-161.3622
1243.260976	88.774	-161.5294
1252.270157	88.843	-161.7097
1261.344623	88.906	-161.8928
1270.484846	88.963	-162.0721
1279.691303	89.015	-162.2417
1288.964474	89.063	-162.3965
1298.304842	89.108	-162.5345
1307.712894	89.152	-162.6565
1317.189120	89.194	-162.7648
1326.734016	89.234	-162.8611
1336.348077	89.275	-162.9449
1346.031806	89.314	-163.0138
1355.785708	89.354	-163.0648
1365.610290	89.395	-163.0954
1375.506065	89.437	-163.1022
1385.473549	89.481	-163.0818
1395.513261	89.528	-163.0339
1405.625726	89.580	-162.9649
1415.811469	89.637	-162.8876
1426.071023	89.698	-162.8178
1436.404921	89.762	-162.7660
1446.813703	89.827	-162.7340
1457.297912	89.890	-162.7169
1467.858093	89.953	-162.7086
1478.494798	90.013	-162.7044
1489.208581	90.071	-162.7007
1500.000000	90.126	-162.6946
1510.869618	90.178	-162.6836
1521.818002	90.226	-162.6659
1532.845723	90.270	-162.6401
1543.953355	90.310	-162.6053
1555.141477	90.349	-162.5620
1566.410674	90.388	-162.5140
1577.761531	90.427	-162.4706
1589.194642	90.467	-162.4436
1600.710601	90.505	-162.4391
1612.310010	90.542	-162.4541
1623.993473	90.575	-162.4791
1635.761599	90.604	-162.5020
1647.615002	90.629	-162.5114
1659.554299	90.651	-162.4971
1671.580114	90.672	-162.4503
1683.693072	90.693	-162.3651
1695.893807	90.715	-162.2395
1708.182952	90.740	-162.0739
1720.561150	90.768	-161.8696
1733.029045	90.802	-161.6294
1745.587288	90.842	-161.3588
1758.236533	90.890	-161.0669
1770.977440	90.948	-160.7681
1783.810673	91.019	-160.4855
1796.736900	91.101	-160.2496
1809.756796	91.192	-160.0911
1822.871040	91.287	-160.0298
1836.080315	91.383	-160.0684
1849.385310	91.473	-160.1954
1862.786718	91.556	-160.3902
1876.285239	91.630	-160.6271
1889.881575	91.694	-160.8782
1903.576436	91.751	-161.1168
1917.370535	91.803	-161.3190
1931.264593	91.854	-161.4667
1945.259332	91.908	-161.5509
1959.355483	91.967	-161.5757
1973.553781	92.036	-161.5555
1987.854965	92.114	-161.5089
2002.259781	92.201	-161.4536
2016.768981	92.298	-161.4070
2031.383320	92.404	-161.3877
2046.103561	92.518	-161.4142
2060.930471	92.637	-161.5035
2075.864823	92.759	-161.6696
2090.907395	92.880	-161.9192
2106.058972	92.995	-162.2483
2121.320344	93.101	-162.6419
2136.692305	93.196	-163.0764
2152.175658	93.280	-163.5246
2167.771210	93.353	-163.9646
2183.479774	93.419	-164.3846
2199.302169	93.478	-164.7800
2215.239219	93.532	-165.1474
2231.291755	93.582	-165.4818
2247.460615	93.629	-165.7778
2263.746641	93.676	-166.0302
2280.150683	93.724	-166.2359
2296.673595	93.775	-166.3948
2313.316238	93.834	-166.5127
2330.079481	93.901	-166.6040
2346.964198	93.979	-166.6939
2363.971268	94.068	-166.8123
2381.101578	94.165	-166.9852
2398.356022	94.267	-167.2294
2415.735498	94.371	-167.5524
2433.240913	94.474	-167.9539
2450.873180	94.573	-168.4293
2468.633217	94.666	-168.9712
2486.521951	94.751	-169.5687
2504.540314	94.827	-170.2060
2522.689246	94.893	-170.8631
2540.969692	94.949	-171.5204
2559.382606	94.999	-172.1652
2577.928947	95.043	-172.7948
2596.609683	95.083	-173.4118
2615.425787	95.119	-174.0190
2634.378241	95.151	-174.6174
2653.468031	95.179	-175.2043
2672.696154	95.203	-175.7741
2692.063613	95.224	-176.3199
2711.571415	95.243	-176.8380
2731.220579	95.262	-177.3325
2751.012130	95.282	-177.8140
2770.947098	95.303	-178.2937
2791.026522	95.324	-178.7796
2811.251451	95.343	-179.2750
2831.622938	95.361	-179.7805
2852.142045	95.375	179.7054
2872.809842	95.385	179.1860
2893.627406	95.390	178.6692
2914.595823	95.390	178.1666
2935.716186	95.386	177.6893
2956.989596	95.380	177.2411
2978.417161	95.372	176.8193
3000.000000	95.363	176.4189
3021.739237	95.352	176.0365
3043.636005	95.340	175.6733
3065.691446	95.327	175.3357
3087.906710	95.312	175.0320
3110.282955	95.297	174.7665
3132.821347	95.285	174.5351
3155.523062	95.275	174.3286
3178.389283	95.269	174.1364
3201.421202	95.265	173.9503
3224.620020	95.264	173.7639
3247.986946	95.263	173.5732
3271.523198	95.262	173.3786
3295.230004	95.260	173.1870
3319.108599	95.256	173.0079
3343.160228	95.252	172.8475
3367.386145	95.248	172.7058
3391.787613	95.245	172.5795
3416.365904	95.243	172.4664
3441.122300	95.242	172.3701
3466.058091	95.240	172.2995
3491.174576	95.241	172.2636
3516.473066	95.244	172.2648
3541.954880	95.252	172.2973
3567.621345	95.266	172.3502
3593.473800	95.286	172.4109
3619.513592	95.311	172.4672
3645.742080	95.340	172.5098
3672.160630	95.372	172.5364
3698.770620	95.404	172.5529
3725.573436	95.436	172.5670
3752.570477	95.469	172.5828
3779.763150	95.503	172.6011
3807.152872	95.537	172.6229
3834.741071	95.570	172.6535
3862.529185	95.603	172.7034
3890.518664	95.637	172.7808
3918.710966	95.676	172.8862
3947.107561	95.720	173.0110
3975.709929	95.773	173.1405
4004.519563	95.834	173.2571
4033.537962	95.903	173.3435
4062.766641	95.978	173.3890
4092.207123	96.058	173.3907
4121.860942	96.142	173.3480
4151.729646	96.230	173.2576
4181.814790	96.321	173.1146
4212.117944	96.412	172.9167
4242.640687	96.503	172.6683
4273.384610	96.593	172.3775
4304.351317	96.682	172.0486
4335.542421	96.772	171.6800
4366.959549	96.862	171.2641
4398.604338	96.953	170.7897
4430.478438	97.043	170.2464
4462.583511	97.130	169.6297
4494.921231	97.214	168.9417
4527.493283	97.293	168.1852
4560.301365	97.366	167.3616
4593.347189	97.432	166.4722
4626.632476	97.489	165.5236
4660.158962	97.536	164.5273
4693.928395	97.574	163.4946
4727.942535	97.603	162.4325
4762.203156	97.624	161.3422
4796.712043	97.637	160.2204
4831.470996	97.640	159.0634
4866.481826	97.633	157.8737
4901.746360	97.613	156.6581
4937.266434	97.581	155.4253
4973.043902	97.534	154.1835
5009.080628	97.472	152.9454
5045.378492	97.393	151.7296
5081.939384	97.297	150.5574
5118.765212	97.187	149.4478
5155.857894	97.063	148.4128
5193.219366	96.928	147.4566
5230.851574	96.784	146.5796
5268.756481	96.631	145.7831
5306.936062	96.469	145.0690
5345.392309	96.299	144.4376
5384.127225	96.121	143.8890
5423.142830	95.935	143.4282
5462.441159	95.740	143.0662
5502.024259	95.538	142.8168
5541.894195	95.331	142.6909
5582.053045	95.121	142.6934
5622.502902	94.911	142.8241
5663.245876	94.703	143.0829
5704.284090	94.500	143.4697
5745.619684	94.305	143.9806
5787.254813	94.121	144.6060
5829.191647	93.952	145.3306
5871.432373	93.801	146.1275
5913.979192	93.670	146.9538
5956.834323	93.559	147.7545
6000.000000	93.461	148.4824
6043.478473	93.368	149.1248
6087.272010	93.273	149.7092
6131.382892	93.171	150.2836
6175.813420	93.064	150.8922
6220.565910	92.952	151.5656
6265.642695	92.841	152.3214
6311.046124	92.732	153.1666
6356.778566	92.630	154.0995
6402.842404	92.538	155.1107
6449.240040	92.457	156.1874
6495.973891	92.390	157.3145
6543.046396	92.337	158.4752
6590.460007	92.299	159.6536
6638.217197	92.275	160.8394
6686.320456	92.264	162.0286
6734.772290	92.267	163.2202
6783.575226	92.284	164.4114
6832.731809	92.317	165.5966
6882.244600	92.364	166.7660
6932.116181	92.428	167.9044
6982.349153	92.507	168.9941
7032.946133	92.601	170.0197
7083.909760	92.710	170.9696
7135.242690	92.835	171.8336
7186.947600	92.977	172.5984
7239.027185	93.136	173.2463
7291.484160	93.311	173.7530
7344.321260	93.504	174.0875
7397.541239	93.710	174.2171
7451.146872	93.926	174.1132
7505.140954	94.149	173.7527
7559.526299	94.373	173.1161
7614.305743	94.593	172.1876
7669.482141	94.804	170.9537
7725.058371	94.997	169.4042
7781.037328	95.165	167.5367
7837.421932	95.297	165.3647
7894.215122	95.385	162.9219
7951.419859	95.418	160.2607
8009.039125	95.392	157.4489
8067.075924	95.301	154.5641
8125.533282	95.144	151.6854
8184.414245	94.923	148.8879
8243.721885	94.639	146.2432
8303.459292	94.296	143.8186
8363.629581	93.898	141.6749
8424.235888	93.455	139.8635
8485.281374	92.973	138.4208
8546.769221	92.464	137.3641
8608.702634	91.937	136.6916
8671.084842	91.399	136.3906
8733.919097	90.859	136.4431
8797.208675	90.321	136.8304
8860.956876	89.791	137.5346
8925.167022	89.273	138.5337
8989.842461	88.773	139.7989
9054.986566	88.292	141.2981
9120.602731	87.832	143.0012
9186.694378	87.395	144.8851
9253.264952	86.979	146.9362
9320.317925	86.587	149.1447
9387.856790	86.218	151.4973
9455.885071	85.874	153.9767
9524.406312	85.556	156.5648
9593.424086	85.264	159.2491
9662.941992	84.997	162.0261
9732.963653	84.756	164.8951
9803.492719	84.543	167.8508
9874.532869	84.358	170.8810
9946.087805	84.202	173.9713
10018.161257	84.073	177.1133
10090.756983	83.972	-179.6930
10163.878768	83.898	-176.4467
10237.530423	83.855	-173.1530
10311.715789	83.844	-169.8236
10386.438732	83.865	-166.4702
10461.703149	83.921	-163.0979
10537.512962	84.013	-159.7083
10613.872125	84.146	-156.3083
10690.784618	84.322	-152.9158
10768.254450	84.547	-149.5566
10846.285661	84.824	-146.2574
10924.882318	85.159	-143.0478
11004.048518	85.560	-139.9717
11083.788390	86.032	-137.0978
11164.106090	86.581	-134.5220
11245.005805	87.209	-132.3615
11326.491752	87.912	-130.7513
11408.568180	88.681	-129.8423
11491.239368	89.496	-129.7944
11574.509626	90.331	-130.7572
11658.383294	91.149	-132.8436
11742.864745	91.909	-136.1077
11827.958384	92.564	-140.5284
11913.668646	93.069	-145.9945
12000.000000	93.383	-152.2906
12086.956947	93.473	-159.0941
12174.544019	93.324	-166.0026
12262.765784	92.941	-172.5946
12351.626840	92.344	-178.5003
12441.131819	91.569	176.5530
12531.285389	90.655	172.7318
12622.092249	89.645	170.1083
12713.557132	88.580	168.6773
12805.684808	87.498	168.3702
12898.480079	86.432	169.0735
12991.947783	85.408	170.6495
13086.092792	84.446	172.9543
13180.920015	83.558	175.8470
13276.434395	82.751	179.1965
13372.640911	82.025	-177.1076
13469.544580	81.380	-173.1499
13567.150452	80.810	-168.9939
13665.463617	80.314	-164.6899
13764.489200	79.886	-160.2758
13864.232362	79.523	-155.7759
13964.698305	79.227	-151.2085
14065.892266	78.999	-146.5964
14167.819519	78.843	-141.9716
14270.485380	78.764	-137.3766
14373.895200	78.770	-132.8747
14478.054370	78.868	-128.5594
14582.968320	79.061	-124.5531
14688.642520	79.351	-120.9997
14795.082478	79.733	-118.0614
14902.293745	80.195	-115.9105
15010.281908	80.717	-114.7081
15119.052599	81.267	-114.5805
15228.611486	81.806	-115.6008
15338.964283	82.291	-117.7706
15450.116741	82.672	-121.0003
15562.074656	82.908	-125.0983
15674.843864	82.963	-129.7787
15788.430244	82.820	-134.6936
15902.839718	82.480	-139.4861
16018.078250	81.962	-143.8507
16134.151848	81.297	-147.5767
16251.066563	80.523	-150.5661
16368.828491	79.676	-152.8197
16487.443769	78.784	-154.4035
16606.918584	77.868	-155.4092
16727.259161	76.941	-155.9239
16848.471777	76.007	-156.0160
16970.562748	75.070	-155.7378
17093.538442	74.129	-155.1302
17217.405268	73.184	-154.2238
17342.169684	72.234	-153.0389
17467.838194	71.277	-151.5892
17594.417350	70.312	-149.8812
17721.913751	69.336	-147.9134
17850.334044	68.346	-145.6795
17979.684923	67.339	-143.1704
18109.973131	66.312	-140.3767
18241.205462	65.265	-137.2945
18373.388756	64.196	-133.9277
18506.529905	63.102	-130.2808
18640.635849	61.978	-126.3499
18775.713581	60.819	-122.1135
18911.770141	59.617	-117.5206
19048.812624	58.367	-112.4825
19186.848172	57.066	-106.8751
19325.883983	55.714	-100.5431
19465.927305	54.324	-93.3165
19606.985439	52.931	-85.1088
19749.065738	51.616	-76.2409
19892.175609	50.532	-68.0031
20036.322514	49.900	-62.7959
