* Measurement data measured by REW V5.31.3
* Source: EXCL: Microphone (USB Sound Device        ), MICROPHONE (Master Volume), R, volume: 0.390
* Format: 256k Log Swept Sine, 1 sweep at -15.0 dBFS with no timing reference
* Dated: Jul 7, 2025 12:07:06 AM
* REW Settings:
*  C-weighting compensation: Off
*  Target level: 75.0 dB
* Note: FATFreq Scarlet Mini L
* Measurement: FATfreq Scarlet Mini L
* Smoothing: 1/12 octave
* Frequency Step: 96 ppo
* Start Frequency: 0.36621094 Hz
*
* Freq(Hz) SPL(dB) Phase(degrees)
0.366211 84.857 -146.1533
0.368865 84.872 -146.1919
0.371538 84.896 -146.2495
0.374230 84.924 -146.3217
0.376942 84.957 -146.4045
0.379673 84.992 -146.4951
0.382424 85.028 -146.5916
0.385196 85.065 -146.6928
0.387987 85.103 -146.7981
0.390798 85.141 -146.9071
0.393630 85.179 -147.0195
0.396483 85.218 -147.1352
0.399356 85.258 -147.2541
0.402250 85.297 -147.3763
0.405165 85.337 -147.5015
0.408101 85.377 -147.6299
0.411058 85.417 -147.7614
0.414037 85.458 -147.8959
0.417037 85.499 -148.0334
0.420059 85.540 -148.1738
0.423103 85.582 -148.3172
0.426169 85.624 -148.4634
0.429257 85.666 -148.6124
0.432368 85.709 -148.7642
0.435501 85.751 -148.9187
0.438656 85.794 -149.0759
0.441835 85.838 -149.2357
0.445037 85.882 -149.3981
0.448262 85.926 -149.5629
0.451510 85.970 -149.7302
0.454782 86.015 -149.8998
0.458077 86.060 -150.0718
0.461397 86.105 -150.2459
0.464740 86.151 -150.4222
0.468108 86.197 -150.6006
0.471500 86.243 -150.7810
0.474917 86.290 -150.9633
0.478358 86.337 -151.1475
0.481825 86.384 -151.3334
0.485316 86.432 -151.5210
0.488833 86.480 -151.7102
0.492375 86.528 -151.9009
0.495943 86.577 -152.0931
0.499537 86.626 -152.2866
0.503157 86.676 -152.4813
0.506803 86.725 -152.6772
0.510475 86.776 -152.8741
0.514175 86.826 -153.0720
0.517900 86.877 -153.2708
0.521653 86.928 -153.4704
0.525434 86.980 -153.6706
0.529241 87.032 -153.8714
0.533076 87.084 -154.0726
0.536939 87.137 -154.2743
0.540830 87.190 -154.4762
0.544749 87.244 -154.6783
0.548696 87.298 -154.8805
0.552673 87.352 -155.0826
0.556677 87.407 -155.2846
0.560711 87.462 -155.4864
0.564774 87.518 -155.6878
0.568867 87.574 -155.8887
0.572989 87.630 -156.0891
0.577141 87.687 -156.2889
0.581324 87.744 -156.4878
0.585536 87.801 -156.6859
0.589779 87.859 -156.8830
0.594053 87.918 -157.0791
0.598358 87.976 -157.2739
0.602694 88.036 -157.4674
0.607061 88.095 -157.6596
0.611460 88.156 -157.8502
0.615891 88.216 -158.0392
0.620354 88.277 -158.2265
0.624849 88.338 -158.4119
0.629377 88.400 -158.5955
0.633938 88.463 -158.7770
0.638532 88.525 -158.9563
0.643159 88.589 -159.1334
0.647819 88.652 -159.3081
0.652514 88.717 -159.4804
0.657242 88.781 -159.6501
0.662005 88.846 -159.8172
0.666802 88.912 -159.9814
0.671634 88.978 -160.1429
0.676501 89.044 -160.3014
0.681403 89.111 -160.4569
0.686341 89.179 -160.6095
0.691314 89.247 -160.7592
0.696324 89.315 -160.9065
0.701370 89.383 -161.0520
0.706452 89.452 -161.1971
0.711571 89.521 -161.3441
0.716728 89.590 -161.4965
0.721921 89.657 -161.6596
0.727153 89.724 -161.8399
0.732422 89.788 -162.0439
0.737729 89.850 -162.2755
0.743075 89.910 -162.5333
0.748460 89.969 -162.8127
0.753883 90.026 -163.1089
0.759346 90.082 -163.4175
0.764849 90.138 -163.7356
0.770391 90.193 -164.0612
0.775974 90.248 -164.3930
0.781597 90.303 -164.7301
0.787261 90.357 -165.0722
0.792966 90.411 -165.4189
0.798712 90.464 -165.7699
0.804500 90.518 -166.1251
0.810329 90.571 -166.4843
0.816201 90.624 -166.8474
0.822116 90.677 -167.2143
0.828073 90.729 -167.5848
0.834074 90.781 -167.9588
0.840118 90.833 -168.3362
0.846206 90.885 -168.7169
0.852338 90.936 -169.1007
0.858514 90.987 -169.4877
0.864735 91.038 -169.8776
0.871001 91.089 -170.2704
0.877313 91.139 -170.6660
0.883670 91.190 -171.0643
0.890074 91.240 -171.4653
0.896524 91.290 -171.8688
0.903020 91.339 -172.2748
0.909564 91.389 -172.6833
0.916155 91.438 -173.0942
0.922794 91.487 -173.5075
0.929481 91.536 -173.9231
0.936216 91.585 -174.3410
0.943000 91.634 -174.7612
0.949834 91.682 -175.1837
0.956717 91.731 -175.6085
0.963649 91.779 -176.0356
0.970632 91.827 -176.4650
0.977666 91.876 -176.8968
0.984750 91.924 -177.3309
0.991886 91.972 -177.7676
0.999074 92.020 -178.2067
1.006314 92.068 -178.6484
1.013606 92.116 -179.0928
1.020951 92.164 -179.5401
1.028349 92.212 -179.9902
1.035801 92.261 179.5566
1.043307 92.309 179.1002
1.050867 92.358 178.6404
1.058482 92.406 178.1768
1.066152 92.455 177.7092
1.073878 92.504 177.2372
1.081660 92.553 176.7601
1.089498 92.602 176.2771
1.097393 92.651 175.7873
1.105345 92.701 175.2896
1.113355 92.750 174.7830
1.121423 92.799 174.2668
1.129549 92.847 173.7403
1.137734 92.895 173.2036
1.145979 92.943 172.6564
1.154283 92.991 172.0991
1.162647 93.038 171.5319
1.171072 93.085 170.9550
1.179558 93.132 170.3688
1.188106 93.178 169.7737
1.196715 93.224 169.1702
1.205387 93.270 168.5585
1.214122 93.315 167.9390
1.222920 93.361 167.3123
1.231782 93.405 166.6788
1.240708 93.450 166.0389
1.249699 93.494 165.3930
1.258754 93.538 164.7416
1.267876 93.581 164.0853
1.277063 93.625 163.4244
1.286318 93.668 162.7594
1.295639 93.710 162.0909
1.305027 93.753 161.4193
1.314484 93.795 160.7451
1.324009 93.837 160.0687
1.333604 93.879 159.3908
1.343268 93.921 158.7117
1.353002 93.962 158.0320
1.362806 94.004 157.3522
1.372681 94.045 156.6727
1.382628 94.086 155.9939
1.392647 94.127 155.3163
1.402739 94.168 154.6404
1.412904 94.209 153.9662
1.423142 94.249 153.2939
1.433455 94.290 152.6235
1.443843 94.330 151.9543
1.454305 94.371 151.2856
1.464844 94.411 150.6160
1.475459 94.451 149.9435
1.486150 94.491 149.2667
1.496920 94.530 148.5839
1.507767 94.569 147.8943
1.518693 94.608 147.1975
1.529698 94.646 146.4931
1.540783 94.684 145.7814
1.551948 94.721 145.0625
1.563194 94.758 144.3366
1.574521 94.795 143.6042
1.585931 94.831 142.8657
1.597423 94.866 142.1214
1.608999 94.902 141.3719
1.620658 94.937 140.6174
1.632402 94.971 139.8585
1.644232 95.005 139.0957
1.656146 95.039 138.3293
1.668147 95.072 137.5600
1.680235 95.105 136.7881
1.692411 95.138 136.0141
1.704675 95.170 135.2385
1.717028 95.202 134.4617
1.729470 95.234 133.6843
1.742003 95.265 132.9065
1.754626 95.296 132.1288
1.767341 95.326 131.3514
1.780147 95.357 130.5743
1.793047 95.387 129.7974
1.806040 95.417 129.0200
1.819128 95.446 128.2408
1.832310 95.475 127.4583
1.845587 95.504 126.6703
1.858961 95.532 125.8750
1.872432 95.560 125.0707
1.886001 95.587 124.2567
1.899667 95.614 123.4326
1.913433 95.640 122.5984
1.927299 95.665 121.7546
1.941265 95.690 120.9019
1.955332 95.714 120.0409
1.969501 95.738 119.1725
1.983773 95.761 118.2978
1.998148 95.784 117.4177
2.012627 95.806 116.5332
2.027212 95.828 115.6456
2.041902 95.849 114.7559
2.056698 95.870 113.8655
2.071602 95.890 112.9755
2.086614 95.909 112.0872
2.101734 95.928 111.2019
2.116964 95.947 110.3207
2.132304 95.965 109.4445
2.147756 95.983 108.5739
2.163320 96.000 107.7092
2.178996 96.017 106.8498
2.194786 96.033 105.9943
2.210690 96.048 105.1406
2.226710 96.063 104.2864
2.242845 96.077 103.4298
2.259098 96.091 102.5693
2.275468 96.103 101.7042
2.291957 96.115 100.8342
2.308566 96.127 99.9597
2.325295 96.137 99.0812
2.342145 96.147 98.1995
2.359117 96.156 97.3154
2.376212 96.164 96.4300
2.393431 96.172 95.5446
2.410775 96.179 94.6603
2.428244 96.186 93.7787
2.445840 96.192 92.9012
2.463564 96.198 92.0293
2.481416 96.203 91.1643
2.499397 96.208 90.3076
2.517509 96.212 89.4603
2.535752 96.216 88.6227
2.554127 96.219 87.7948
2.572635 96.221 86.9755
2.591277 96.223 86.1635
2.610055 96.224 85.3572
2.628968 96.225 84.5553
2.648019 96.224 83.7569
2.667208 96.223 82.9615
2.686535 96.221 82.1691
2.706003 96.218 81.3796
2.725612 96.215 80.5936
2.745363 96.212 79.8115
2.765257 96.207 79.0341
2.785295 96.203 78.2622
2.805478 96.199 77.4969
2.825808 96.194 76.7392
2.846285 96.189 75.9904
2.866910 96.184 75.2516
2.887685 96.180 74.5240
2.908611 96.175 73.8084
2.929688 96.170 73.1055
2.950917 96.166 72.4154
2.972301 96.161 71.7379
2.993839 96.155 71.0724
3.015534 96.150 70.4185
3.037386 96.144 69.7756
3.059396 96.138 69.1432
3.081565 96.133 68.5206
3.103896 96.127 67.9077
3.126388 96.122 67.3040
3.149043 96.117 66.7094
3.171862 96.113 66.1237
3.194847 96.109 65.5472
3.217998 96.107 64.9800
3.241317 96.105 64.4227
3.264805 96.105 63.8762
3.288463 96.106 63.3415
3.312293 96.108 62.8198
3.336295 96.111 62.3121
3.360471 96.115 61.8189
3.384822 96.120 61.3401
3.409350 96.127 60.8749
3.434056 96.134 60.4222
3.458940 96.143 59.9805
3.484005 96.153 59.5480
3.509252 96.164 59.1231
3.534681 96.176 58.7041
3.560295 96.190 58.2894
3.586094 96.206 57.8777
3.612081 96.223 57.4684
3.638255 96.242 57.0614
3.664620 96.263 56.6572
3.691175 96.286 56.2570
3.717923 96.311 55.8618
3.744864 96.338 55.4723
3.772001 96.367 55.0883
3.799335 96.397 54.7090
3.826866 96.429 54.3333
3.854597 96.463 53.9595
3.882529 96.498 53.5858
3.910664 96.534 53.2105
3.939002 96.571 52.8318
3.967546 96.609 52.4483
3.996296 96.648 52.0590
4.025255 96.688 51.6635
4.054423 96.729 51.2620
4.083804 96.771 50.8551
4.113396 96.814 50.4435
4.143204 96.859 50.0276
4.173227 96.904 49.6077
4.203468 96.949 49.1837
4.233928 96.995 48.7555
4.264609 97.042 48.3225
4.295512 97.087 47.8845
4.326639 97.133 47.4406
4.357992 97.177 46.9902
4.389572 97.221 46.5327
4.421380 97.265 46.0675
4.453419 97.307 45.5948
4.485691 97.349 45.1147
4.518196 97.391 44.6282
4.550936 97.431 44.1365
4.583914 97.471 43.6409
4.617131 97.509 43.1428
4.650589 97.546 42.6433
4.684289 97.582 42.1435
4.718233 97.615 41.6436
4.752424 97.647 41.1438
4.786862 97.678 40.6435
4.821549 97.706 40.1423
4.856488 97.732 39.6401
4.891680 97.757 39.1378
4.927127 97.780 38.6364
4.962831 97.801 38.1378
4.998794 97.820 37.6438
5.035017 97.838 37.1561
5.071503 97.854 36.6763
5.108253 97.868 36.2052
5.145270 97.880 35.7432
5.182555 97.891 35.2901
5.220110 97.899 34.8457
5.257937 97.906 34.4101
5.296038 97.912 33.9836
5.334415 97.916 33.5670
5.373071 97.919 33.1614
5.412006 97.921 32.7678
5.451224 97.922 32.3873
5.490725 97.923 32.0208
5.530514 97.923 31.6685
5.570590 97.922 31.3307
5.610957 97.921 31.0066
5.651616 97.920 30.6957
5.692570 97.918 30.3972
5.733821 97.917 30.1100
5.775370 97.916 29.8337
5.817221 97.915 29.5678
5.859375 97.915 29.3123
5.901834 97.916 29.0672
5.944602 97.918 28.8322
5.987679 97.921 28.6064
6.031068 97.925 28.3883
6.074771 97.930 28.1760
6.118792 97.935 27.9674
6.163131 97.942 27.7607
6.207792 97.950 27.5544
6.252776 97.959 27.3479
6.298086 97.969 27.1406
6.343725 97.981 26.9321
6.389694 97.993 26.7213
6.435996 98.006 26.5070
6.482634 98.019 26.2876
6.529610 98.033 26.0616
6.576926 98.046 25.8278
6.624585 98.060 25.5855
6.672590 98.074 25.3345
6.720942 98.087 25.0748
6.769645 98.100 24.8068
6.818700 98.113 24.5305
6.868111 98.124 24.2462
6.917881 98.134 23.9540
6.968010 98.143 23.6538
7.018504 98.151 23.3457
7.069362 98.156 23.0302
7.120590 98.161 22.7083
7.172189 98.163 22.3812
7.224161 98.163 22.0505
7.276511 98.162 21.7173
7.329239 98.159 21.3827
7.382350 98.153 21.0471
7.435845 98.146 20.7112
7.489729 98.136 20.3760
7.544002 98.125 20.0424
7.598669 98.112 19.7119
7.653732 98.098 19.3856
7.709194 98.082 19.0644
7.765058 98.065 18.7488
7.821327 98.047 18.4388
7.878004 98.027 18.1346
7.935091 98.007 17.8363
7.992592 97.987 17.5437
8.050510 97.966 17.2569
8.108847 97.945 16.9758
8.167607 97.924 16.7000
8.226793 97.903 16.4285
8.286408 97.883 16.1602
8.346454 97.863 15.8939
8.406936 97.844 15.6284
8.467856 97.825 15.3627
8.529218 97.807 15.0960
8.591024 97.791 14.8271
8.653278 97.774 14.5547
8.715983 97.759 14.2775
8.779143 97.744 13.9941
8.842760 97.730 13.7036
8.906839 97.716 13.4055
8.971381 97.703 13.0992
9.036392 97.690 12.7843
9.101873 97.677 12.4606
9.167829 97.664 12.1276
9.234263 97.650 11.7855
9.301178 97.637 11.4346
9.368578 97.623 11.0753
9.436467 97.609 10.7086
9.504847 97.594 10.3350
9.573723 97.578 9.9553
9.643099 97.562 9.5702
9.712976 97.545 9.1807
9.783361 97.528 8.7877
9.854255 97.510 8.3923
9.925663 97.492 7.9955
9.997588 97.473 7.5978
10.070035 97.454 7.2000
10.143007 97.436 6.8024
10.216507 97.417 6.4058
10.290540 97.399 6.0104
10.365109 97.380 5.6166
10.440219 97.363 5.2242
10.515873 97.346 4.8333
10.592076 97.330 4.4436
10.668830 97.314 4.0551
10.746141 97.300 3.6674
10.824012 97.286 3.2804
10.902447 97.274 2.8936
10.981451 97.262 2.5069
11.061027 97.251 2.1200
11.141180 97.241 1.7328
11.221913 97.232 1.3453
11.303232 97.224 0.9574
11.385140 97.216 0.5695
11.467641 97.209 0.1814
11.550741 97.203 -0.2064
11.634442 97.197 -0.5934
11.718750 97.192 -0.9794
11.803669 97.187 -1.3638
11.889203 97.182 -1.7462
11.975357 97.178 -2.1262
12.062136 97.174 -2.5033
12.149543 97.170 -2.8772
12.237583 97.167 -3.2473
12.326262 97.164 -3.6135
12.415583 97.161 -3.9755
12.505552 97.158 -4.3330
12.596172 97.155 -4.6857
12.687449 97.152 -5.0336
12.779387 97.149 -5.3763
12.871992 97.146 -5.7137
12.965268 97.143 -6.0458
13.059220 97.140 -6.3720
13.153852 97.136 -6.6923
13.249170 97.132 -7.0065
13.345179 97.128 -7.3142
13.441884 97.124 -7.6154
13.539289 97.119 -7.9097
13.637401 97.113 -8.1973
13.736223 97.107 -8.4780
13.835761 97.101 -8.7522
13.936021 97.094 -9.0199
14.037007 97.087 -9.2816
14.138725 97.080 -9.5378
14.241180 97.072 -9.7894
14.344377 97.064 -10.0370
14.448323 97.055 -10.2813
14.553021 97.046 -10.5233
14.658478 97.036 -10.7638
14.764700 97.026 -11.0036
14.871691 97.015 -11.2432
14.979457 97.002 -11.4832
15.088005 96.989 -11.7237
15.197339 96.975 -11.9650
15.307465 96.959 -12.2070
15.418389 96.942 -12.4496
15.530117 96.923 -12.6925
15.642655 96.903 -12.9354
15.756008 96.882 -13.1780
15.870182 96.859 -13.4202
15.985184 96.836 -13.6620
16.101019 96.811 -13.9035
16.217694 96.785 -14.1452
16.335214 96.759 -14.3878
16.453586 96.732 -14.6320
16.572815 96.705 -14.8788
16.692909 96.677 -15.1295
16.813872 96.650 -15.3850
16.935713 96.621 -15.6464
17.058436 96.593 -15.9145
17.182048 96.564 -16.1899
17.306556 96.535 -16.4731
17.431967 96.506 -16.7640
17.558286 96.476 -17.0623
17.685521 96.445 -17.3675
17.813677 96.414 -17.6789
17.942762 96.383 -17.9956
18.072783 96.352 -18.3167
18.203746 96.320 -18.6414
18.335658 96.289 -18.9689
18.468526 96.258 -19.2987
18.602356 96.227 -19.6304
18.737156 96.197 -19.9637
18.872934 96.168 -20.2988
19.009695 96.140 -20.6356
19.147447 96.114 -20.9742
19.286197 96.088 -21.3149
19.425953 96.063 -21.6576
19.566721 96.040 -22.0020
19.708510 96.017 -22.3479
19.851326 95.996 -22.6946
19.995177 95.975 -23.0416
20.140070 95.955 -23.3878
20.286013 95.936 -23.7322
20.433014 95.917 -24.0740
20.581080 95.899 -24.4119
20.730219 95.881 -24.7451
20.880439 95.864 -25.0725
21.031747 95.846 -25.3934
21.184152 95.830 -25.7072
21.337661 95.813 -26.0133
21.492282 95.797 -26.3115
21.648024 95.780 -26.6017
21.804895 95.764 -26.8839
21.962902 95.747 -27.1583
22.122054 95.731 -27.4254
22.282360 95.714 -27.6857
22.443827 95.697 -27.9395
22.606464 95.679 -28.1873
22.770280 95.660 -28.4297
22.935283 95.640 -28.6671
23.101481 95.620 -28.8997
23.268884 95.598 -29.1278
23.437500 95.575 -29.3514
23.607338 95.550 -29.5710
23.778406 95.525 -29.7868
23.950714 95.498 -29.9995
24.124271 95.470 -30.2098
24.299086 95.441 -30.4191
24.475167 95.411 -30.6284
24.652524 95.380 -30.8392
24.831166 95.348 -31.0530
25.011103 95.316 -31.2709
25.192344 95.282 -31.4940
25.374898 95.248 -31.7229
25.558775 95.213 -31.9579
25.743984 95.177 -32.1989
25.930536 95.140 -32.4456
26.118439 95.103 -32.6977
26.307704 95.065 -32.9550
26.498341 95.027 -33.2172
26.690359 94.990 -33.4841
26.883768 94.952 -33.7561
27.078579 94.916 -34.0330
27.274801 94.879 -34.3148
27.472446 94.844 -34.6014
27.671522 94.809 -34.8922
27.872042 94.774 -35.1864
28.074014 94.741 -35.4830
28.277450 94.708 -35.7807
28.482360 94.676 -36.0781
28.688755 94.644 -36.3740
28.896645 94.613 -36.6669
29.106042 94.583 -36.9558
29.316957 94.554 -37.2398
29.529400 94.525 -37.5181
29.743382 94.497 -37.7900
29.958915 94.469 -38.0554
30.176009 94.442 -38.3138
30.394677 94.415 -38.5653
30.614929 94.388 -38.8101
30.836778 94.361 -39.0483
31.060234 94.333 -39.2803
31.285309 94.306 -39.5065
31.512015 94.277 -39.7274
31.740364 94.248 -39.9435
31.970368 94.218 -40.1553
32.202039 94.187 -40.3636
32.435388 94.155 -40.5688
32.670428 94.121 -40.7720
32.907171 94.087 -40.9736
33.145630 94.051 -41.1746
33.385817 94.015 -41.3761
33.627745 93.978 -41.5791
33.871425 93.940 -41.7850
34.116871 93.901 -41.9950
34.364096 93.862 -42.2102
34.613113 93.822 -42.4315
34.863934 93.782 -42.6589
35.116572 93.741 -42.8918
35.371041 93.699 -43.1290
35.627354 93.657 -43.3689
35.885525 93.615 -43.6096
36.145566 93.572 -43.8503
36.407492 93.531 -44.0906
36.671316 93.490 -44.3311
36.937051 93.450 -44.5724
37.204712 93.411 -44.8154
37.474313 93.372 -45.0604
37.745867 93.334 -45.3063
38.019389 93.296 -45.5511
38.294893 93.257 -45.7928
38.572394 93.219 -46.0291
38.851905 93.180 -46.2588
39.133442 93.142 -46.4818
39.417019 93.104 -46.6991
39.702651 93.066 -46.9124
39.990353 93.028 -47.1233
40.280140 92.990 -47.3330
40.572026 92.951 -47.5419
40.866028 92.911 -47.7496
41.162160 92.871 -47.9551
41.460438 92.829 -48.1571
41.760877 92.786 -48.3546
42.063494 92.742 -48.5472
42.368303 92.699 -48.7352
42.675322 92.655 -48.9196
42.984565 92.611 -49.1025
43.296048 92.568 -49.2860
43.609789 92.526 -49.4722
43.925804 92.484 -49.6620
44.244108 92.442 -49.8555
44.564719 92.400 -50.0514
44.887654 92.357 -50.2480
45.212928 92.315 -50.4443
45.540560 92.273 -50.6397
45.870565 92.232 -50.8351
46.202962 92.190 -51.0316
46.537768 92.149 -51.2302
46.875000 92.107 -51.4306
47.214676 92.064 -51.6311
47.556813 92.021 -51.8295
47.901429 91.976 -52.0237
48.248542 91.931 -52.2130
48.598171 91.886 -52.3981
48.950334 91.840 -52.5804
49.305048 91.795 -52.7616
49.662333 91.749 -52.9425
50.022206 91.702 -53.1228
50.384688 91.656 -53.3019
50.749796 91.609 -53.4789
51.117550 91.562 -53.6535
51.487969 91.515 -53.8257
51.861072 91.468 -53.9957
52.236879 91.421 -54.1630
52.615409 91.374 -54.3268
52.996681 91.327 -54.4861
53.380717 91.280 -54.6395
53.767536 91.233 -54.7859
54.157158 91.187 -54.9248
54.549603 91.141 -55.0566
54.944892 91.095 -55.1826
55.343045 91.050 -55.3052
55.744084 91.006 -55.4272
56.148028 90.962 -55.5518
56.554900 90.919 -55.6813
56.964720 90.877 -55.8180
57.377510 90.834 -55.9642
57.793291 90.791 -56.1222
58.212085 90.748 -56.2932
58.633914 90.704 -56.4767
59.058799 90.658 -56.6692
59.486764 90.610 -56.8648
59.917829 90.560 -57.0573
60.352019 90.509 -57.2419
60.789354 90.459 -57.4171
61.229859 90.408 -57.5836
61.673556 90.358 -57.7435
62.120468 90.309 -57.8986
62.570618 90.260 -58.0500
63.024031 90.211 -58.1987
63.480729 90.162 -58.3453
63.940736 90.113 -58.4908
64.404077 90.063 -58.6353
64.870776 90.012 -58.7783
65.340856 89.961 -58.9193
65.814343 89.909 -59.0583
66.291261 89.856 -59.1957
66.771635 89.804 -59.3331
67.255489 89.751 -59.4714
67.742850 89.699 -59.6112
68.233743 89.646 -59.7513
68.728193 89.594 -59.8895
69.226226 89.541 -60.0236
69.727867 89.489 -60.1526
70.233144 89.438 -60.2772
70.742083 89.387 -60.4000
71.254709 89.337 -60.5231
71.771050 89.287 -60.6479
72.291132 89.237 -60.7737
72.814984 89.186 -60.8983
73.342631 89.134 -61.0193
73.874102 89.082 -61.1354
74.409424 89.030 -61.2477
74.948626 88.979 -61.3587
75.491734 88.928 -61.4716
76.038779 88.877 -61.5883
76.589787 88.827 -61.7091
77.144788 88.777 -61.8331
77.703811 88.726 -61.9590
78.266885 88.676 -62.0857
78.834039 88.625 -62.2137
79.405303 88.575 -62.3446
79.980706 88.524 -62.4800
80.560280 88.473 -62.6209
81.144053 88.422 -62.7673
81.732056 88.369 -62.9183
82.324320 88.315 -63.0726
82.920876 88.260 -63.2286
83.521755 88.204 -63.3842
84.126988 88.145 -63.5363
84.736607 88.085 -63.6818
85.350643 88.024 -63.8181
85.969129 87.962 -63.9436
86.592097 87.899 -64.0587
87.219579 87.835 -64.1650
87.851608 87.771 -64.2645
88.488217 87.707 -64.3585
89.129439 87.644 -64.4482
89.775308 87.580 -64.5346
90.425856 87.518 -64.6189
91.081119 87.457 -64.7026
91.741131 87.397 -64.7876
92.405925 87.339 -64.8760
93.075536 87.282 -64.9702
93.750000 87.226 -65.0702
94.429351 87.168 -65.1721
95.113625 87.110 -65.2688
95.802858 87.050 -65.3542
96.497085 86.989 -65.4276
97.196342 86.927 -65.4919
97.900667 86.866 -65.5508
98.610096 86.803 -65.6064
99.324665 86.740 -65.6600
100.044413 86.677 -65.7114
100.769376 86.614 -65.7603
101.499592 86.551 -65.8065
102.235100 86.489 -65.8506
102.975938 86.427 -65.8934
103.722144 86.366 -65.9354
104.473757 86.306 -65.9772
105.230817 86.246 -66.0195
105.993363 86.186 -66.0636
106.761435 86.127 -66.1107
107.535072 86.068 -66.1617
108.314315 86.008 -66.2171
109.099206 85.949 -66.2767
109.889783 85.888 -66.3399
110.686090 85.827 -66.4071
111.488167 85.765 -66.4785
112.296056 85.700 -66.5544
113.109800 85.633 -66.6335
113.929440 85.563 -66.7141
114.755020 85.490 -66.7929
115.586582 85.414 -66.8656
116.424170 85.335 -66.9255
117.267827 85.254 -66.9652
118.117598 85.174 -66.9768
118.973527 85.095 -66.9548
119.835658 85.022 -66.9011
120.704037 84.954 -66.8300
121.578708 84.893 -66.7598
122.459718 84.835 -66.6996
123.347111 84.779 -66.6472
124.240935 84.722 -66.5953
125.141236 84.664 -66.5371
126.048061 84.606 -66.4691
126.961458 84.546 -66.3918
127.881473 84.487 -66.3088
128.808154 84.428 -66.2256
129.741551 84.370 -66.1476
130.681712 84.314 -66.0798
131.628686 84.259 -66.0263
132.582521 84.205 -65.9895
133.543269 84.153 -65.9697
134.510979 84.101 -65.9660
135.485701 84.049 -65.9759
136.467486 83.997 -65.9956
137.456386 83.945 -66.0210
138.452451 83.891 -66.0488
139.455735 83.837 -66.0780
140.466288 83.783 -66.1083
141.484165 83.727 -66.1406
142.509418 83.670 -66.1753
143.542100 83.611 -66.2117
144.582265 83.549 -66.2483
145.629968 83.485 -66.2830
146.685262 83.419 -66.3140
147.748204 83.351 -66.3390
148.818849 83.281 -66.3561
149.897251 83.210 -66.3640
150.983469 83.139 -66.3612
152.077557 83.066 -66.3467
153.179574 82.994 -66.3192
154.289576 82.923 -66.2784
155.407622 82.852 -66.2266
156.533770 82.784 -66.1674
157.668078 82.717 -66.1058
158.810606 82.651 -66.0467
159.961413 82.586 -65.9932
161.120559 82.521 -65.9471
162.288105 82.454 -65.9084
163.464112 82.386 -65.8754
164.648640 82.317 -65.8431
165.841752 82.245 -65.8051
167.043510 82.173 -65.7563
168.253976 82.100 -65.6964
169.473213 82.027 -65.6273
170.701286 81.956 -65.5514
171.938258 81.886 -65.4694
173.184194 81.817 -65.3806
174.439158 81.749 -65.2842
175.703216 81.683 -65.1797
176.976434 81.616 -65.0690
178.258878 81.549 -64.9554
179.550615 81.482 -64.8412
180.851713 81.414 -64.7254
182.162239 81.346 -64.6036
183.482262 81.277 -64.4691
184.811850 81.206 -64.3170
186.151073 81.133 -64.1460
187.500000 81.060 -63.9628
188.858702 80.986 -63.7847
190.227250 80.914 -63.6318
191.605715 80.846 -63.5132
192.994169 80.782 -63.4233
194.392685 80.722 -63.3465
195.801334 80.663 -63.2650
197.220191 80.604 -63.1646
198.649330 80.541 -63.0383
200.088825 80.475 -62.8901
201.538751 80.407 -62.7299
202.999184 80.338 -62.5664
204.470200 80.271 -62.4042
205.951875 80.206 -62.2437
207.444287 80.142 -62.0836
208.947514 80.080 -61.9240
210.461634 80.018 -61.7671
211.986726 79.955 -61.6158
213.522869 79.891 -61.4691
215.070144 79.826 -61.3212
216.628631 79.761 -61.1652
218.198411 79.695 -60.9972
219.779567 79.631 -60.8174
221.372180 79.567 -60.6290
222.976334 79.505 -60.4368
224.592112 79.443 -60.2446
226.219600 79.382 -60.0538
227.858880 79.321 -59.8636
229.510039 79.260 -59.6742
231.173164 79.199 -59.4885
232.848340 79.137 -59.3094
234.535655 79.076 -59.1373
236.235197 79.015 -58.9703
237.947054 78.954 -58.8066
239.671317 78.892 -58.6442
241.408074 78.827 -58.4797
243.157416 78.761 -58.3083
244.919435 78.693 -58.1250
246.694223 78.624 -57.9266
248.481871 78.555 -57.7109
250.282473 78.486 -57.4768
252.096123 78.418 -57.2243
253.922915 78.352 -56.9557
255.762945 78.288 -56.6772
257.616309 78.228 -56.3986
259.483103 78.170 -56.1281
261.363424 78.113 -55.8698
263.257372 78.056 -55.6219
265.165043 77.997 -55.3794
267.086538 77.937 -55.1353
269.021957 77.874 -54.8824
270.971401 77.811 -54.6153
272.934972 77.746 -54.3306
274.912771 77.683 -54.0291
276.904902 77.621 -53.7147
278.911469 77.561 -53.3923
280.932577 77.504 -53.0660
282.968330 77.450 -52.7390
285.018835 77.400 -52.4137
287.084199 77.352 -52.0933
289.164530 77.307 -51.7819
291.259935 77.261 -51.4819
293.370525 77.215 -51.1909
295.496408 77.168 -50.9019
297.637697 77.119 -50.6091
299.794503 77.070 -50.3112
301.966937 77.022 -50.0110
304.155114 76.976 -49.7134
306.359147 76.932 -49.4224
308.579152 76.889 -49.1420
310.815244 76.846 -48.8752
313.067539 76.804 -48.6228
315.336156 76.759 -48.3816
317.621211 76.713 -48.1443
319.922826 76.666 -47.9036
322.241118 76.617 -47.6553
324.576210 76.567 -47.3988
326.928223 76.518 -47.1349
329.297280 76.470 -46.8647
331.683504 76.422 -46.5897
334.087019 76.375 -46.3123
336.507952 76.328 -46.0354
338.946427 76.280 -45.7606
341.402572 76.232 -45.4857
343.876516 76.182 -45.2054
346.368387 76.133 -44.9156
348.878315 76.084 -44.6147
351.406431 76.034 -44.3047
353.952867 75.985 -43.9885
356.517756 75.936 -43.6694
359.101230 75.888 -43.3491
361.703426 75.840 -43.0281
364.324478 75.793 -42.7061
366.964523 75.747 -42.3832
369.623699 75.702 -42.0599
372.302145 75.658 -41.7349
375.000000 75.615 -41.4070
377.717405 75.573 -41.0758
380.454501 75.531 -40.7415
383.211431 75.489 -40.4044
385.988339 75.447 -40.0652
388.785369 75.406 -39.7240
391.602668 75.365 -39.3816
394.440383 75.324 -39.0397
397.298660 75.284 -38.6990
400.177650 75.246 -38.3574
403.077502 75.208 -38.0126
405.998368 75.171 -37.6650
408.940400 75.135 -37.3187
411.903750 75.098 -36.9759
414.888575 75.061 -36.6342
417.895028 75.023 -36.2870
420.923268 74.986 -35.9283
423.973452 74.948 -35.5559
427.045738 74.913 -35.1727
430.140287 74.879 -34.7850
433.257261 74.849 -34.3995
436.396822 74.820 -34.0206
439.559133 74.794 -33.6494
442.744360 74.769 -33.2858
445.952668 74.744 -32.9318
449.184225 74.721 -32.5918
452.439199 74.697 -32.2714
455.717760 74.672 -31.9739
459.020079 74.645 -31.6956
462.346327 74.616 -31.4243
465.696680 74.583 -31.1447
469.071310 74.550 -30.8464
472.470394 74.515 -30.5273
475.894109 74.481 -30.1924
479.342634 74.447 -29.8511
482.816148 74.415 -29.5127
486.314833 74.382 -29.1812
489.838871 74.349 -28.8528
493.388445 74.316 -28.5197
496.963741 74.284 -28.1752
500.564945 74.252 -27.8202
504.192245 74.221 -27.4606
507.845830 74.191 -27.1024
511.525890 74.162 -26.7484
515.232618 74.132 -26.3977
518.966206 74.102 -26.0469
522.726849 74.072 -25.6912
526.514743 74.042 -25.3271
530.330086 74.013 -24.9537
534.173076 73.984 -24.5741
538.043915 73.957 -24.1924
541.942803 73.930 -23.8105
545.869944 73.904 -23.4282
549.825542 73.878 -23.0449
553.809805 73.854 -22.6630
557.822939 73.830 -22.2861
561.865154 73.807 -21.9166
565.936660 73.783 -21.5530
570.037671 73.760 -21.1904
574.168399 73.736 -20.8234
578.329060 73.712 -20.4495
582.519870 73.687 -20.0693
586.741049 73.663 -19.6838
590.992817 73.638 -19.2909
595.275394 73.614 -18.8883
599.589005 73.591 -18.4780
603.933874 73.569 -18.0651
608.310228 73.547 -17.6539
612.718295 73.525 -17.2466
617.158304 73.503 -16.8412
621.630488 73.480 -16.4318
626.135079 73.458 -16.0115
630.672311 73.437 -15.5782
635.242423 73.420 -15.1360
639.845651 73.405 -14.6907
644.482237 73.393 -14.2424
649.152421 73.383 -13.7878
653.856447 73.376 -13.3283
658.594560 73.371 -12.8737
663.367008 73.369 -12.4384
668.174039 73.367 -12.0323
673.015903 73.365 -11.6534
677.892854 73.361 -11.2910
682.805145 73.356 -10.9332
687.753032 73.348 -10.5707
692.736774 73.340 -10.1972
697.756631 73.331 -9.8085
702.812863 73.323 -9.4041
707.905735 73.315 -8.9882
713.035511 73.309 -8.5677
718.202461 73.305 -8.1485
723.406852 73.301 -7.7338
728.648956 73.300 -7.3267
733.929047 73.299 -6.9329
739.247399 73.299 -6.5599
744.604290 73.298 -6.2144
750.000000 73.294 -5.8981
755.434809 73.286 -5.6050
760.909001 73.270 -5.3186
766.422861 73.248 -5.0128
771.976677 73.219 -4.6602
777.570739 73.189 -4.2440
783.205337 73.160 -3.7656
788.880766 73.136 -3.2402
794.597321 73.118 -2.6867
800.355301 73.109 -2.1204
806.155005 73.107 -1.5527
811.996736 73.114 -0.9941
817.880799 73.128 -0.4539
823.807501 73.147 0.0602
829.777150 73.169 0.5430
835.790057 73.192 0.9961
841.846536 73.213 1.4291
847.946903 73.233 1.8536
854.091476 73.251 2.2773
860.280575 73.266 2.7030
866.514523 73.281 3.1318
872.793644 73.295 3.5646
879.118267 73.309 3.9999
885.488720 73.324 4.4342
891.905336 73.339 4.8665
898.368450 73.355 5.2990
904.878398 73.373 5.7344
911.435520 73.391 6.1741
918.040157 73.412 6.6157
924.692655 73.435 7.0558
931.393359 73.460 7.4902
938.142619 73.487 7.9150
944.940787 73.516 8.3284
951.788218 73.545 8.7308
958.685268 73.573 9.1229
965.632296 73.602 9.5055
972.629666 73.630 9.8796
979.677741 73.658 10.2468
986.776890 73.686 10.6113
993.927482 73.716 10.9839
1001.129891 73.747 11.3804
1008.384491 73.781 11.8083
1015.691660 73.820 12.2566
1023.051781 73.862 12.7066
1030.465236 73.909 13.1423
1037.932411 73.959 13.5497
1045.453698 74.012 13.9171
1053.029486 74.065 14.2405
1060.660172 74.117 14.5258
1068.346153 74.168 14.7844
1076.087829 74.217 15.0284
1083.885605 74.265 15.2657
1091.739887 74.311 15.4980
1099.651084 74.357 15.7247
1107.619609 74.402 15.9460
1115.645878 74.446 16.1634
1123.730308 74.489 16.3789
1131.873321 74.532 16.5941
1140.075341 74.574 16.8097
1148.336797 74.615 17.0251
1156.658119 74.657 17.2391
1165.039741 74.698 17.4512
1173.482099 74.740 17.6630
1181.985634 74.784 17.8760
1190.550789 74.831 18.0870
1199.178011 74.880 18.2850
1207.867749 74.931 18.4576
1216.620457 74.982 18.5983
1225.436590 75.031 18.7098
1234.316609 75.076 18.7996
1243.260976 75.118 18.8748
1252.270157 75.157 18.9421
1261.344623 75.194 19.0057
1270.484846 75.230 19.0682
1279.691303 75.263 19.1325
1288.964474 75.296 19.2012
1298.304842 75.328 19.2749
1307.712894 75.359 19.3519
1317.189120 75.389 19.4299
1326.734016 75.417 19.5073
1336.348077 75.445 19.5856
1346.031806 75.470 19.6674
1355.785708 75.495 19.7562
1365.610290 75.518 19.8552
1375.506065 75.540 19.9681
1385.473549 75.561 20.1002
1395.513261 75.583 20.2531
1405.625726 75.607 20.4216
1415.811469 75.635 20.5933
1426.071023 75.666 20.7523
1436.404921 75.699 20.8889
1446.813703 75.733 21.0033
1457.297912 75.765 21.1025
1467.858093 75.796 21.1951
1478.494798 75.825 21.2872
1489.208581 75.852 21.3835
1500.000000 75.878 21.4874
1510.869618 75.903 21.6019
1521.818002 75.927 21.7294
1532.845723 75.951 21.8715
1543.953355 75.975 22.0291
1555.141477 76.000 22.2020
1566.410674 76.029 22.3862
1577.761531 76.061 22.5719
1589.194642 76.096 22.7457
1600.710601 76.133 22.8983
1612.310010 76.171 23.0294
1623.993473 76.207 23.1453
1635.761599 76.243 23.2550
1647.615002 76.277 23.3661
1659.554299 76.309 23.4832
1671.580114 76.341 23.6079
1683.693072 76.372 23.7393
1695.893807 76.403 23.8738
1708.182952 76.433 24.0092
1720.561150 76.463 24.1458
1733.029045 76.493 24.2871
1745.587288 76.523 24.4387
1758.236533 76.552 24.6073
1770.977440 76.584 24.7977
1783.810673 76.618 25.0083
1796.736900 76.657 25.2290
1809.756796 76.700 25.4451
1822.871040 76.747 25.6461
1836.080315 76.797 25.8300
1849.385310 76.846 25.9996
1862.786718 76.896 26.1593
1876.285239 76.946 26.3121
1889.881575 76.995 26.4618
1903.576436 77.044 26.6127
1917.370535 77.094 26.7705
1931.264593 77.146 26.9400
1945.259332 77.202 27.1206
1959.355483 77.264 27.3026
1973.553781 77.331 27.4721
1987.854965 77.401 27.6196
2002.259781 77.472 27.7444
2016.768981 77.542 27.8505
2031.383320 77.612 27.9417
2046.103561 77.681 28.0203
2060.930471 77.750 28.0878
2075.864823 77.819 28.1436
2090.907395 77.889 28.1871
2106.058972 77.959 28.2197
2121.320344 78.028 28.2466
2136.692305 78.097 28.2766
2152.175658 78.168 28.3180
2167.771210 78.241 28.3730
2183.479774 78.318 28.4330
2199.302169 78.400 28.4842
2215.239219 78.486 28.5150
2231.291755 78.575 28.5195
2247.460615 78.667 28.4965
2263.746641 78.759 28.4489
2280.150683 78.851 28.3833
2296.673595 78.944 28.3071
2313.316238 79.038 28.2256
2330.079481 79.135 28.1375
2346.964198 79.236 28.0325
2363.971268 79.342 27.8959
2381.101578 79.451 27.7158
2398.356022 79.562 27.4871
2415.735498 79.673 27.2098
2433.240913 79.783 26.8876
2450.873180 79.891 26.5244
2468.633217 79.997 26.1226
2486.521951 80.099 25.6851
2504.540314 80.198 25.2178
2522.689246 80.293 24.7296
2540.969692 80.385 24.2299
2559.382606 80.475 23.7206
2577.928947 80.564 23.1954
2596.609683 80.653 22.6453
2615.425787 80.740 22.0645
2634.378241 80.824 21.4523
2653.468031 80.904 20.8135
2672.696154 80.980 20.1567
2692.063613 81.051 19.4922
2711.571415 81.120 18.8263
2731.220579 81.188 18.1562
2751.012130 81.256 17.4722
2770.947098 81.324 16.7628
2791.026522 81.392 16.0198
2811.251451 81.458 15.2379
2831.622938 81.521 14.4143
2852.142045 81.579 13.5471
2872.809842 81.631 12.6365
2893.627406 81.675 11.6881
2914.595823 81.709 10.7139
2935.716186 81.733 9.7278
2956.989596 81.748 8.7397
2978.417161 81.755 7.7562
3000.000000 81.752 6.7826
3021.739237 81.741 5.8253
3043.636005 81.720 4.8920
3065.691446 81.690 3.9933
3087.906710 81.651 3.1404
3110.282955 81.607 2.3401
3132.821347 81.560 1.5913
3155.523062 81.511 0.8880
3178.389283 81.461 0.2234
3201.421202 81.410 -0.4075
3224.620020 81.359 -1.0078
3247.986946 81.306 -1.5801
3271.523198 81.251 -2.1229
3295.230004 81.193 -2.6292
3319.108599 81.134 -3.0884
3343.160228 81.074 -3.4941
3367.386145 81.016 -3.8473
3391.787613 80.959 -4.1523
3416.365904 80.905 -4.4131
3441.122300 80.852 -4.6283
3466.058091 80.802 -4.7906
3491.174576 80.756 -4.8918
3516.473066 80.715 -4.9296
3541.954880 80.683 -4.9080
3567.621345 80.661 -4.8362
3593.473800 80.652 -4.7258
3619.513592 80.655 -4.5907
3645.742080 80.672 -4.4447
3672.160630 80.703 -4.2982
3698.770620 80.748 -4.1567
3725.573436 80.808 -4.0276
3752.570477 80.884 -3.9246
3779.763150 80.976 -3.8670
3807.152872 81.084 -3.8733
3834.741071 81.205 -3.9567
3862.529185 81.338 -4.1240
3890.518664 81.484 -4.3826
3918.710966 81.641 -4.7452
3947.107561 81.810 -5.2307
3975.709929 81.989 -5.8601
4004.519563 82.175 -6.6531
4033.537962 82.362 -7.6252
4062.766641 82.546 -8.7830
4092.207123 82.721 -10.1219
4121.860942 82.883 -11.6321
4151.729646 83.028 -13.3009
4181.814790 83.153 -15.1129
4212.117944 83.254 -17.0464
4242.640687 83.328 -19.0706
4273.384610 83.375 -21.1498
4304.351317 83.394 -23.2512
4335.542421 83.388 -25.3492
4366.959549 83.359 -27.4247
4398.604338 83.310 -29.4656
4430.478438 83.243 -31.4631
4462.583511 83.158 -33.4081
4494.921231 83.058 -35.2899
4527.493283 82.944 -37.1011
4560.301365 82.820 -38.8401
4593.347189 82.687 -40.5082
4626.632476 82.547 -42.1037
4660.158962 82.400 -43.6215
4693.928395 82.251 -45.0587
4727.942535 82.102 -46.4194
4762.203156 81.955 -47.7166
4796.712043 81.814 -48.9699
4831.470996 81.679 -50.2020
4866.481826 81.549 -51.4310
4901.746360 81.423 -52.6707
4937.266434 81.300 -53.9328
4973.043902 81.177 -55.2274
5009.080628 81.052 -56.5577
5045.378492 80.922 -57.9183
5081.939384 80.786 -59.2985
5118.765212 80.643 -60.6884
5155.857894 80.495 -62.0823
5193.219366 80.340 -63.4794
5230.851574 80.181 -64.8800
5268.756481 80.015 -66.2826
5306.936062 79.844 -67.6849
5345.392309 79.667 -69.0858
5384.127225 79.485 -70.4835
5423.142830 79.295 -71.8713
5462.441159 79.099 -73.2366
5502.024259 78.897 -74.5656
5541.894195 78.691 -75.8489
5582.053045 78.485 -77.0856
5622.502902 78.282 -78.2827
5663.245876 78.082 -79.4502
5704.284090 77.889 -80.6000
5745.619684 77.703 -81.7466
5787.254813 77.527 -82.9044
5829.191647 77.359 -84.0829
5871.432373 77.200 -85.2866
5913.979192 77.050 -86.5181
5956.834323 76.911 -87.7823
6000.000000 76.786 -89.0887
6043.478473 76.677 -90.4508
6087.272010 76.587 -91.8854
6131.382892 76.517 -93.4140
6175.813420 76.470 -95.0607
6220.565910 76.447 -96.8481
6265.642695 76.450 -98.7957
6311.046124 76.480 -100.9215
6356.778566 76.540 -103.2471
6402.842404 76.633 -105.7990
6449.240040 76.761 -108.6077
6495.973891 76.926 -111.7063
6543.046396 77.127 -115.1299
6590.460007 77.364 -118.9117
6638.217197 77.632 -123.0779
6686.320456 77.927 -127.6448
6734.772290 78.243 -132.6207
6783.575226 78.575 -138.0072
6832.731809 78.915 -143.7973
6882.244600 79.255 -149.9744
6932.116181 79.588 -156.5122
6982.349153 79.905 -163.3721
7032.946133 80.197 -170.5021
7083.909760 80.460 -177.8378
7135.242690 80.688 174.6901
7186.947600 80.881 167.1506
7239.027185 81.041 159.6078
7291.484160 81.170 152.1161
7344.321260 81.273 144.7169
7397.541239 81.352 137.4393
7451.146872 81.412 130.3018
7505.140954 81.456 123.3135
7559.526299 81.486 116.4730
7614.305743 81.506 109.7673
7669.482141 81.514 103.1744
7725.058371 81.508 96.6661
7781.037328 81.483 90.2171
7837.421932 81.430 83.8146
7894.215122 81.339 77.4647
7951.419859 81.198 71.1926
8009.039125 81.002 65.0406
8067.075924 80.745 59.0624
8125.533282 80.425 53.3162
8184.414245 80.043 47.8580
8243.721885 79.603 42.7410
8303.459292 79.109 38.0131
8363.629581 78.568 33.7119
8424.235888 77.989 29.8616
8485.281374 77.383 26.4691
8546.769221 76.757 23.5220
8608.702634 76.116 20.9985
8671.084842 75.463 18.8887
8733.919097 74.797 17.2092
8797.208675 74.117 15.9970
8860.956876 73.428 15.2860
8925.167022 72.738 15.0895
8989.842461 72.056 15.4016
9054.986566 71.386 16.2147
9120.602731 70.733 17.5386
9186.694378 70.100 19.4130
9253.264952 69.493 21.9127
9320.317925 68.927 25.1341
9387.856790 68.424 29.1591
9455.885071 68.016 34.0035
9524.406312 67.739 39.5727
9593.424086 67.625 45.6724
9662.941992 67.694 52.0770
9732.963653 67.960 58.5298
9803.492719 68.422 64.6724
9874.532869 69.055 70.0670
9946.087805 69.813 74.3419
10018.161257 70.639 77.3148
10090.756983 71.482 79.0008
10163.878768 72.299 79.5438
10237.530423 73.062 79.1452
10311.715789 73.753 78.0174
10386.438732 74.365 76.3627
10461.703149 74.898 74.3640
10537.512962 75.359 72.1764
10613.872125 75.759 69.9183
10690.784618 76.110 67.6695
10768.254450 76.425 65.4749
10846.285661 76.715 63.3535
10924.882318 76.992 61.3038
11004.048518 77.263 59.3047
11083.788390 77.536 57.3177
11164.106090 77.816 55.2940
11245.005805 78.102 53.1833
11326.491752 78.393 50.9395
11408.568180 78.687 48.5200
11491.239368 78.978 45.8860
11574.509626 79.259 43.0051
11658.383294 79.523 39.8587
11742.864745 79.761 36.4450
11827.958384 79.964 32.7768
11913.668646 80.125 28.8763
12000.000000 80.238 24.7739
12086.956947 80.296 20.5105
12174.544019 80.294 16.1362
12262.765784 80.233 11.7047
12351.626840 80.111 7.2659
12441.131819 79.931 2.8633
12531.285389 79.695 -1.4644
12622.092249 79.406 -5.6830
12713.557132 79.068 -9.7659
12805.684808 78.685 -13.6962
12898.480079 78.261 -17.4630
12991.947783 77.798 -21.0552
13086.092792 77.298 -24.4604
13180.920015 76.764 -27.6674
13276.434395 76.198 -30.6671
13372.640911 75.601 -33.4487
13469.544580 74.975 -35.9972
13567.150452 74.321 -38.2962
13665.463617 73.643 -40.3310
13764.489200 72.942 -42.0880
13864.232362 72.223 -43.5528
13964.698305 71.488 -44.7132
14065.892266 70.741 -45.5627
14167.819519 69.987 -46.1011
14270.485380 69.230 -46.3286
14373.895200 68.473 -46.2460
14478.054370 67.722 -45.8578
14582.968320 66.979 -45.1715
14688.642520 66.248 -44.1938
14795.082478 65.532 -42.9291
14902.293745 64.831 -41.3797
15010.281908 64.150 -39.5433
15119.052599 63.489 -37.4071
15228.611486 62.852 -34.9464
15338.964283 62.241 -32.1215
15450.116741 61.664 -28.8692
15562.074656 61.131 -25.1002
15674.843864 60.665 -20.7205
15788.430244 60.300 -15.6898
15902.839718 60.077 -10.1167
16018.078250 60.032 -4.3486
16134.151848 60.172 1.0532
16251.066563 60.465 5.5156
16368.828491 60.845 8.7137
16487.443769 61.243 10.6741
16606.918584 61.606 11.6833
16727.259161 61.912 12.1210
16848.471777 62.163 12.3251
16970.562748 62.381 12.5234
17093.538442 62.591 12.8209
17217.405268 62.819 13.2204
17342.169684 63.086 13.6528
17467.838194 63.406 14.0049
17594.417350 63.782 14.1446
17721.913751 64.213 13.9376
17850.334044 64.690 13.2604
17979.684923 65.198 12.0126
18109.973131 65.720 10.1226
18241.205462 66.238 7.5486
18373.388756 66.733 4.2795
18506.529905 67.184 0.3350
18640.635849 67.575 -4.2388
18775.713581 67.893 -9.3775
18911.770141 68.130 -15.0064
19048.812624 68.282 -21.0515
19186.848172 68.353 -27.4414
19325.883983 68.349 -34.0928
19465.927305 68.283 -40.8701
19606.985439 68.171 -47.5206
19749.065738 68.039 -53.5919
19892.175609 67.919 -58.3912
20036.322514 67.848 -61.0964
