* Measurement data measured by REW V5.31.3
* Source: EXCL: Microphone (USB Sound Device        ), MICROPHONE (Master Volume), R, volume: 0.390
* Format: 256k Log Swept Sine, 1 sweep at -21.0 dBFS with no timing reference
* Dated: Jul 17, 2025 11:19:02 AM
* REW Settings:
*  C-weighting compensation: Off
*  Target level: 75.0 dB
* Note: Fearless S8F R
* Measurement: R Fearless S8F
* Smoothing: 1/12 octave
* Frequency Step: 96 ppo
* Start Frequency: 0.36621094 Hz
*
* Freq(Hz) SPL(dB) Phase(degrees)
0.366211 91.544 169.3049
0.368865 91.542 169.2931
0.371538 91.539 169.2756
0.374230 91.535 169.2536
0.376942 91.531 169.2283
0.379673 91.526 169.2006
0.382424 91.521 169.1711
0.385196 91.516 169.1400
0.387987 91.510 169.1077
0.390798 91.505 169.0742
0.393630 91.500 169.0396
0.396483 91.494 169.0038
0.399356 91.489 168.9670
0.402250 91.483 168.9290
0.405165 91.478 168.8900
0.408101 91.472 168.8498
0.411058 91.467 168.8085
0.414037 91.461 168.7660
0.417037 91.455 168.7225
0.420059 91.449 168.6777
0.423103 91.444 168.6319
0.426169 91.438 168.5848
0.429257 91.432 168.5366
0.432368 91.426 168.4872
0.435501 91.420 168.4366
0.438656 91.414 168.3848
0.441835 91.408 168.3318
0.445037 91.402 168.2776
0.448262 91.396 168.2221
0.451510 91.390 168.1655
0.454782 91.384 168.1076
0.458077 91.377 168.0485
0.461397 91.371 167.9881
0.464740 91.365 167.9265
0.468108 91.358 167.8636
0.471500 91.352 167.7995
0.474917 91.345 167.7342
0.478358 91.339 167.6675
0.481825 91.332 167.5997
0.485316 91.326 167.5305
0.488833 91.319 167.4601
0.492375 91.312 167.3884
0.495943 91.305 167.3154
0.499537 91.299 167.2412
0.503157 91.292 167.1657
0.506803 91.285 167.0889
0.510475 91.278 167.0109
0.514175 91.271 166.9316
0.517900 91.264 166.8511
0.521653 91.257 166.7693
0.525434 91.249 166.6863
0.529241 91.242 166.6020
0.533076 91.235 166.5165
0.536939 91.228 166.4298
0.540830 91.220 166.3418
0.544749 91.213 166.2527
0.548696 91.205 166.1624
0.552673 91.198 166.0708
0.556677 91.190 165.9781
0.560711 91.183 165.8843
0.564774 91.175 165.7893
0.568867 91.167 165.6932
0.572989 91.159 165.5960
0.577141 91.151 165.4977
0.581324 91.143 165.3984
0.585536 91.135 165.2980
0.589779 91.127 165.1966
0.594053 91.119 165.0942
0.598358 91.111 164.9909
0.602694 91.103 164.8866
0.607061 91.095 164.7814
0.611460 91.086 164.6754
0.615891 91.078 164.5685
0.620354 91.069 164.4609
0.624849 91.061 164.3524
0.629377 91.052 164.2433
0.633938 91.044 164.1335
0.638532 91.035 164.0231
0.643159 91.026 163.9121
0.647819 91.017 163.8006
0.652514 91.008 163.6886
0.657242 90.999 163.5762
0.662005 90.990 163.4634
0.666802 90.981 163.3504
0.671634 90.972 163.2371
0.676501 90.963 163.1236
0.681403 90.953 163.0101
0.686341 90.944 162.8965
0.691314 90.935 162.7830
0.696324 90.925 162.6696
0.701370 90.915 162.5564
0.706452 90.906 162.4434
0.711571 90.896 162.3307
0.716728 90.886 162.2182
0.721921 90.875 162.1060
0.727153 90.865 161.9938
0.732422 90.853 161.8813
0.737729 90.842 161.7684
0.743075 90.829 161.6545
0.748460 90.817 161.5395
0.753883 90.803 161.4231
0.759346 90.790 161.3052
0.764849 90.776 161.1857
0.770391 90.762 161.0646
0.775974 90.748 160.9417
0.781597 90.733 160.8172
0.787261 90.719 160.6909
0.792966 90.704 160.5630
0.798712 90.688 160.4334
0.804500 90.673 160.3021
0.810329 90.657 160.1692
0.816201 90.642 160.0347
0.822116 90.626 159.8985
0.828073 90.609 159.7607
0.834074 90.593 159.6214
0.840118 90.576 159.4805
0.846206 90.559 159.3381
0.852338 90.542 159.1943
0.858514 90.524 159.0490
0.864735 90.507 158.9022
0.871001 90.489 158.7541
0.877313 90.471 158.6047
0.883670 90.452 158.4540
0.890074 90.434 158.3020
0.896524 90.415 158.1489
0.903020 90.396 157.9947
0.909564 90.377 157.8394
0.916155 90.357 157.6831
0.922794 90.337 157.5259
0.929481 90.317 157.3678
0.936216 90.297 157.2090
0.943000 90.277 157.0495
0.949834 90.256 156.8894
0.956717 90.235 156.7288
0.963649 90.214 156.5678
0.970632 90.193 156.4065
0.977666 90.171 156.2450
0.984750 90.150 156.0835
0.991886 90.128 155.9220
0.999074 90.106 155.7607
1.006314 90.083 155.5998
1.013606 90.061 155.4393
1.020951 90.038 155.2795
1.028349 90.015 155.1205
1.035801 89.992 154.9624
1.043307 89.969 154.8055
1.050867 89.945 154.6499
1.058482 89.921 154.4958
1.066152 89.897 154.3434
1.073878 89.873 154.1929
1.081660 89.849 154.0443
1.089498 89.824 153.8979
1.097393 89.800 153.7538
1.105345 89.774 153.6118
1.113355 89.749 153.4720
1.121423 89.723 153.3344
1.129549 89.697 153.1988
1.137734 89.671 153.0654
1.145979 89.644 152.9339
1.154283 89.617 152.8044
1.162647 89.589 152.6768
1.171072 89.561 152.5510
1.179558 89.533 152.4271
1.188106 89.504 152.3050
1.196715 89.475 152.1846
1.205387 89.446 152.0659
1.214122 89.416 151.9489
1.222920 89.386 151.8334
1.231782 89.356 151.7193
1.240708 89.325 151.6068
1.249699 89.294 151.4955
1.258754 89.263 151.3856
1.267876 89.232 151.2768
1.277063 89.200 151.1692
1.286318 89.168 151.0625
1.295639 89.136 150.9568
1.305027 89.104 150.8519
1.314484 89.071 150.7476
1.324009 89.039 150.6439
1.333604 89.006 150.5406
1.343268 88.973 150.4377
1.353002 88.940 150.3349
1.362806 88.907 150.2321
1.372681 88.874 150.1291
1.382628 88.840 150.0259
1.392647 88.807 149.9222
1.402739 88.774 149.8179
1.412904 88.741 149.7128
1.423142 88.708 149.6068
1.433455 88.674 149.5000
1.443843 88.641 149.3922
1.454305 88.608 149.2839
1.464844 88.575 149.1751
1.475459 88.542 149.0666
1.486150 88.509 148.9586
1.496920 88.475 148.8516
1.507767 88.441 148.7459
1.518693 88.407 148.6417
1.529698 88.373 148.5391
1.540783 88.339 148.4381
1.551948 88.304 148.3387
1.563194 88.269 148.2408
1.574521 88.234 148.1443
1.585931 88.199 148.0493
1.597423 88.164 147.9555
1.608999 88.129 147.8629
1.620658 88.094 147.7715
1.632402 88.059 147.6810
1.644232 88.024 147.5914
1.656146 87.989 147.5025
1.668147 87.954 147.4141
1.680235 87.920 147.3263
1.692411 87.886 147.2387
1.704675 87.852 147.1512
1.717028 87.818 147.0637
1.729470 87.785 146.9759
1.742003 87.752 146.8878
1.754626 87.719 146.7990
1.767341 87.687 146.7096
1.780147 87.656 146.6194
1.793047 87.625 146.5285
1.806040 87.595 146.4370
1.819128 87.566 146.3451
1.832310 87.537 146.2536
1.845587 87.509 146.1630
1.858961 87.481 146.0740
1.872432 87.454 145.9871
1.886001 87.428 145.9025
1.899667 87.402 145.8202
1.913433 87.376 145.7401
1.927299 87.352 145.6619
1.941265 87.327 145.5852
1.955332 87.303 145.5097
1.969501 87.280 145.4349
1.983773 87.258 145.3602
1.998148 87.236 145.2851
2.012627 87.215 145.2090
2.027212 87.194 145.1314
2.041902 87.175 145.0515
2.056698 87.156 144.9688
2.071602 87.138 144.8825
2.086614 87.120 144.7919
2.101734 87.104 144.6963
2.116964 87.088 144.5951
2.132304 87.074 144.4875
2.147756 87.060 144.3730
2.163320 87.047 144.2515
2.178996 87.036 144.1227
2.194786 87.025 143.9872
2.210690 87.016 143.8454
2.226710 87.008 143.6981
2.242845 87.001 143.5460
2.259098 86.995 143.3893
2.275468 86.991 143.2283
2.291957 86.988 143.0626
2.308566 86.986 142.8922
2.325295 86.985 142.7164
2.342145 86.985 142.5350
2.359117 86.987 142.3472
2.376212 86.990 142.1526
2.393431 86.994 141.9504
2.410775 86.998 141.7402
2.428244 87.004 141.5211
2.445840 87.011 141.2925
2.463564 87.018 141.0538
2.481416 87.027 140.8042
2.499397 87.036 140.5430
2.517509 87.046 140.2698
2.535752 87.057 139.9840
2.554127 87.069 139.6856
2.572635 87.081 139.3744
2.591277 87.095 139.0508
2.610055 87.110 138.7150
2.628968 87.126 138.3673
2.648019 87.144 138.0081
2.667208 87.162 137.6375
2.686535 87.182 137.2558
2.706003 87.203 136.8632
2.725612 87.225 136.4596
2.745363 87.248 136.0453
2.765257 87.272 135.6203
2.785295 87.296 135.1845
2.805478 87.322 134.7381
2.825808 87.348 134.2809
2.846285 87.375 133.8129
2.866910 87.402 133.3339
2.887685 87.430 132.8435
2.908611 87.459 132.3415
2.929688 87.488 131.8275
2.950917 87.517 131.3012
2.972301 87.548 130.7622
2.993839 87.579 130.2107
3.015534 87.611 129.6468
3.037386 87.644 129.0709
3.059396 87.677 128.4836
3.081565 87.712 127.8855
3.103896 87.747 127.2771
3.126388 87.782 126.6592
3.149043 87.819 126.0322
3.171862 87.855 125.3967
3.194847 87.893 124.7532
3.217998 87.931 124.1019
3.241317 87.969 123.4429
3.264805 88.007 122.7760
3.288463 88.046 122.1007
3.312293 88.086 121.4164
3.336295 88.126 120.7225
3.360471 88.166 120.0188
3.384822 88.207 119.3054
3.409350 88.248 118.5831
3.434056 88.290 117.8528
3.458940 88.332 117.1157
3.484005 88.375 116.3733
3.509252 88.418 115.6267
3.534681 88.462 114.8774
3.560295 88.506 114.1267
3.586094 88.551 113.3754
3.612081 88.596 112.6241
3.638255 88.641 111.8732
3.664620 88.686 111.1222
3.691175 88.732 110.3706
3.717923 88.778 109.6177
3.744864 88.825 108.8633
3.772001 88.872 108.1075
3.799335 88.919 107.3508
3.826866 88.967 106.5942
3.854597 89.015 105.8387
3.882529 89.063 105.0855
3.910664 89.112 104.3358
3.939002 89.162 103.5906
3.967546 89.211 102.8508
3.996296 89.261 102.1169
4.025255 89.312 101.3891
4.054423 89.363 100.6672
4.083804 89.414 99.9507
4.113396 89.466 99.2394
4.143204 89.518 98.5334
4.173227 89.571 97.8328
4.203468 89.624 97.1384
4.233928 89.677 96.4509
4.264609 89.731 95.7709
4.295512 89.786 95.0993
4.326639 89.841 94.4369
4.357992 89.897 93.7842
4.389572 89.953 93.1416
4.421380 90.010 92.5092
4.453419 90.068 91.8867
4.485691 90.126 91.2741
4.518196 90.185 90.6710
4.550936 90.244 90.0773
4.583914 90.304 89.4927
4.617131 90.365 88.9172
4.650589 90.427 88.3508
4.684289 90.489 87.7936
4.718233 90.552 87.2456
4.752424 90.616 86.7071
4.786862 90.680 86.1781
4.821549 90.745 85.6588
4.856488 90.812 85.1489
4.891680 90.878 84.6481
4.927127 90.946 84.1559
4.962831 91.014 83.6719
4.998794 91.083 83.1953
5.035017 91.153 82.7258
5.071503 91.223 82.2628
5.108253 91.294 81.8061
5.145270 91.365 81.3558
5.182555 91.437 80.9117
5.220110 91.509 80.4739
5.257937 91.582 80.0422
5.296038 91.656 79.6162
5.334415 91.730 79.1955
5.373071 91.804 78.7794
5.412006 91.878 78.3675
5.451224 91.952 77.9593
5.490725 92.026 77.5546
5.530514 92.101 77.1531
5.570590 92.175 76.7549
5.610957 92.249 76.3600
5.651616 92.323 75.9685
5.692570 92.397 75.5804
5.733821 92.470 75.1955
5.775370 92.543 74.8139
5.817221 92.615 74.4353
5.859375 92.686 74.0596
5.901834 92.757 73.6866
5.944602 92.827 73.3165
5.987679 92.896 72.9494
6.031068 92.965 72.5856
6.074771 93.032 72.2255
6.118792 93.099 71.8695
6.163131 93.165 71.5180
6.207792 93.229 71.1710
6.252776 93.292 70.8285
6.298086 93.355 70.4908
6.343725 93.416 70.1577
6.389694 93.476 69.8295
6.435996 93.534 69.5067
6.482634 93.592 69.1897
6.529610 93.649 68.8787
6.576926 93.704 68.5742
6.624585 93.759 68.2761
6.672590 93.812 67.9845
6.720942 93.865 67.6993
6.769645 93.916 67.4205
6.818700 93.967 67.1481
6.868111 94.017 66.8820
6.917881 94.066 66.6223
6.968010 94.114 66.3690
7.018504 94.161 66.1220
7.069362 94.208 65.8810
7.120590 94.254 65.6456
7.172189 94.300 65.4154
7.224161 94.345 65.1898
7.276511 94.389 64.9684
7.329239 94.433 64.7507
7.382350 94.477 64.5365
7.435845 94.520 64.3254
7.489729 94.563 64.1168
7.544002 94.606 63.9101
7.598669 94.647 63.7045
7.653732 94.689 63.4993
7.709194 94.730 63.2941
7.765058 94.770 63.0886
7.821327 94.810 62.8822
7.878004 94.850 62.6747
7.935091 94.888 62.4656
7.992592 94.926 62.2545
8.050510 94.963 62.0409
8.108847 95.000 61.8247
8.167607 95.035 61.6057
8.226793 95.069 61.3838
8.286408 95.103 61.1592
8.346454 95.135 60.9318
8.406936 95.166 60.7016
8.467856 95.196 60.4687
8.529218 95.225 60.2332
8.591024 95.253 59.9952
8.653278 95.279 59.7552
8.715983 95.304 59.5132
8.779143 95.328 59.2697
8.842760 95.351 59.0248
8.906839 95.373 58.7786
8.971381 95.394 58.5313
9.036392 95.413 58.2830
9.101873 95.432 58.0340
9.167829 95.450 57.7843
9.234263 95.467 57.5339
9.301178 95.483 57.2827
9.368578 95.499 57.0307
9.436467 95.514 56.7775
9.504847 95.529 56.5229
9.573723 95.544 56.2667
9.643099 95.558 56.0087
9.712976 95.571 55.7483
9.783361 95.585 55.4852
9.854255 95.599 55.2188
9.925663 95.612 54.9489
9.997588 95.625 54.6749
10.070035 95.639 54.3966
10.143007 95.652 54.1137
10.216507 95.665 53.8257
10.290540 95.679 53.5324
10.365109 95.692 53.2337
10.440219 95.705 52.9294
10.515873 95.718 52.6198
10.592076 95.731 52.3047
10.668830 95.744 51.9844
10.746141 95.757 51.6590
10.824012 95.769 51.3289
10.902447 95.782 50.9945
10.981451 95.795 50.6561
11.061027 95.807 50.3141
11.141180 95.820 49.9691
11.221913 95.832 49.6214
11.303232 95.845 49.2715
11.385140 95.858 48.9198
11.467641 95.871 48.5668
11.550741 95.885 48.2127
11.634442 95.899 47.8579
11.718750 95.913 47.5026
11.803669 95.928 47.1471
11.889203 95.943 46.7915
11.975357 95.959 46.4359
12.062136 95.976 46.0805
12.149543 95.994 45.7253
12.237583 96.012 45.3705
12.326262 96.030 45.0162
12.415583 96.050 44.6624
12.505552 96.070 44.3093
12.596172 96.091 43.9571
12.687449 96.112 43.6060
12.779387 96.134 43.2563
12.871992 96.157 42.9084
12.965268 96.179 42.5625
13.059220 96.203 42.2190
13.153852 96.226 41.8784
13.249170 96.250 41.5410
13.345179 96.274 41.2073
13.441884 96.299 40.8776
13.539289 96.323 40.5523
13.637401 96.348 40.2317
13.736223 96.373 39.9161
13.835761 96.397 39.6058
13.936021 96.422 39.3008
14.037007 96.447 39.0013
14.138725 96.472 38.7074
14.241180 96.497 38.4192
14.344377 96.522 38.1366
14.448323 96.546 37.8597
14.553021 96.570 37.5883
14.658478 96.594 37.3225
14.764700 96.618 37.0621
14.871691 96.641 36.8072
14.979457 96.664 36.5575
15.088005 96.686 36.3131
15.197339 96.708 36.0737
15.307465 96.728 35.8393
15.418389 96.749 35.6096
15.530117 96.768 35.3844
15.642655 96.787 35.1634
15.756008 96.805 34.9462
15.870182 96.823 34.7324
15.985184 96.840 34.5217
16.101019 96.855 34.3136
16.217694 96.870 34.1075
16.335214 96.885 33.9031
16.453586 96.898 33.6998
16.572815 96.910 33.4972
16.692909 96.922 33.2948
16.813872 96.932 33.0924
16.935713 96.942 32.8895
17.058436 96.951 32.6859
17.182048 96.958 32.4813
17.306556 96.965 32.2754
17.431967 96.971 32.0680
17.558286 96.976 31.8588
17.685521 96.980 31.6476
17.813677 96.984 31.4340
17.942762 96.987 31.2177
18.072783 96.990 30.9984
18.203746 96.992 30.7757
18.335658 96.993 30.5492
18.468526 96.994 30.3186
18.602356 96.995 30.0836
18.737156 96.996 29.8440
18.872934 96.997 29.5997
19.009695 96.998 29.3505
19.147447 96.998 29.0965
19.286197 96.999 28.8378
19.425953 96.999 28.5747
19.566721 97.000 28.3074
19.708510 97.001 28.0363
19.851326 97.002 27.7618
19.995177 97.003 27.4841
20.140070 97.005 27.2039
20.286013 97.008 26.9215
20.433014 97.011 26.6373
20.581080 97.014 26.3519
20.730219 97.018 26.0657
20.880439 97.022 25.7793
21.031747 97.027 25.4932
21.184152 97.033 25.2079
21.337661 97.039 24.9239
21.492282 97.046 24.6420
21.648024 97.054 24.3626
21.804895 97.062 24.0862
21.962902 97.070 23.8133
22.122054 97.079 23.5444
22.282360 97.088 23.2798
22.443827 97.098 23.0198
22.606464 97.107 22.7647
22.770280 97.117 22.5145
22.935283 97.128 22.2694
23.101481 97.138 22.0294
23.268884 97.148 21.7944
23.437500 97.158 21.5642
23.607338 97.168 21.3387
23.778406 97.177 21.1177
23.950714 97.186 20.9008
24.124271 97.194 20.6878
24.299086 97.202 20.4782
24.475167 97.209 20.2719
24.652524 97.216 20.0684
24.831166 97.222 19.8675
25.011103 97.226 19.6686
25.192344 97.230 19.4715
25.374898 97.233 19.2756
25.558775 97.236 19.0806
25.743984 97.237 18.8857
25.930536 97.238 18.6903
26.118439 97.238 18.4938
26.307704 97.237 18.2955
26.498341 97.236 18.0947
26.690359 97.235 17.8908
26.883768 97.233 17.6834
27.078579 97.230 17.4721
27.274801 97.227 17.2570
27.472446 97.224 17.0379
27.671522 97.220 16.8151
27.872042 97.216 16.5888
28.074014 97.212 16.3594
28.277450 97.209 16.1270
28.482360 97.205 15.8921
28.688755 97.202 15.6549
28.896645 97.199 15.4158
29.106042 97.197 15.1750
29.316957 97.195 14.9329
29.529400 97.193 14.6899
29.743382 97.192 14.4466
29.958915 97.192 14.2034
30.176009 97.192 13.9610
30.394677 97.192 13.7199
30.614929 97.193 13.4807
30.836778 97.195 13.2439
31.060234 97.197 13.0096
31.285309 97.199 12.7781
31.512015 97.201 12.5493
31.740364 97.204 12.3233
31.970368 97.206 12.0999
32.202039 97.209 11.8790
32.435388 97.211 11.6607
32.670428 97.213 11.4447
32.907171 97.214 11.2312
33.145630 97.215 11.0201
33.385817 97.215 10.8112
33.627745 97.215 10.6042
33.871425 97.214 10.3987
34.116871 97.212 10.1941
34.364096 97.210 9.9898
34.613113 97.208 9.7851
34.863934 97.204 9.5796
35.116572 97.201 9.3730
35.371041 97.196 9.1651
35.627354 97.191 8.9558
35.885525 97.186 8.7450
36.145566 97.180 8.5328
36.407492 97.175 8.3189
36.671316 97.169 8.1033
36.937051 97.163 7.8858
37.204712 97.157 7.6664
37.474313 97.152 7.4453
37.745867 97.146 7.2229
38.019389 97.140 6.9999
38.294893 97.134 6.7769
38.572394 97.129 6.5544
38.851905 97.123 6.3332
39.133442 97.118 6.1135
39.417019 97.113 5.8958
39.702651 97.108 5.6800
39.990353 97.103 5.4663
40.280140 97.098 5.2546
40.572026 97.094 5.0449
40.866028 97.089 4.8370
41.162160 97.084 4.6307
41.460438 97.079 4.4258
41.760877 97.074 4.2221
42.063494 97.068 4.0193
42.368303 97.063 3.8174
42.675322 97.057 3.6162
42.984565 97.050 3.4154
43.296048 97.044 3.2149
43.609789 97.038 3.0142
43.925804 97.031 2.8130
44.244108 97.024 2.6111
44.564719 97.017 2.4085
44.887654 97.010 2.2054
45.212928 97.003 2.0023
45.540560 96.995 1.7994
45.870565 96.988 1.5970
46.202962 96.981 1.3950
46.537768 96.973 1.1936
46.875000 96.966 0.9927
47.214676 96.958 0.7925
47.556813 96.950 0.5935
47.901429 96.943 0.3960
48.248542 96.935 0.1999
48.598171 96.927 0.0050
48.950334 96.919 -0.1896
49.305048 96.911 -0.3846
49.662333 96.903 -0.5806
50.022206 96.895 -0.7775
50.384688 96.886 -0.9750
50.749796 96.877 -1.1725
51.117550 96.867 -1.3693
51.487969 96.857 -1.5651
51.861072 96.847 -1.7595
52.236879 96.838 -1.9525
52.615409 96.828 -2.1441
52.996681 96.819 -2.3343
53.380717 96.809 -2.5233
53.767536 96.801 -2.7113
54.157158 96.792 -2.8985
54.549603 96.784 -3.0851
54.944892 96.777 -3.2713
55.343045 96.769 -3.4574
55.744084 96.762 -3.6439
56.148028 96.755 -3.8316
56.554900 96.749 -4.0215
56.964720 96.742 -4.2146
57.377510 96.735 -4.4113
57.793291 96.728 -4.6118
58.212085 96.719 -4.8157
58.633914 96.711 -5.0224
59.058799 96.701 -5.2311
59.486764 96.691 -5.4412
59.917829 96.680 -5.6519
60.352019 96.669 -5.8626
60.789354 96.657 -6.0722
61.229859 96.644 -6.2802
61.673556 96.632 -6.4861
62.120468 96.620 -6.6897
62.570618 96.607 -6.8912
63.024031 96.595 -7.0906
63.480729 96.583 -7.2879
63.940736 96.570 -7.4830
64.404077 96.557 -7.6758
64.870776 96.545 -7.8663
65.340856 96.532 -8.0547
65.814343 96.519 -8.2414
66.291261 96.505 -8.4267
66.771635 96.492 -8.6111
67.255489 96.478 -8.7950
67.742850 96.465 -8.9789
68.233743 96.451 -9.1632
68.728193 96.437 -9.3483
69.226226 96.424 -9.5342
69.727867 96.410 -9.7208
70.233144 96.396 -9.9077
70.742083 96.383 -10.0946
71.254709 96.369 -10.2812
71.771050 96.356 -10.4674
72.291132 96.343 -10.6530
72.814984 96.330 -10.8381
73.342631 96.317 -11.0229
73.874102 96.304 -11.2073
74.409424 96.291 -11.3914
74.948626 96.278 -11.5753
75.491734 96.265 -11.7590
76.038779 96.252 -11.9428
76.589787 96.240 -12.1273
77.144788 96.227 -12.3130
77.703811 96.215 -12.5006
78.266885 96.203 -12.6906
78.834039 96.190 -12.8839
79.405303 96.178 -13.0812
79.980706 96.166 -13.2838
80.560280 96.153 -13.4925
81.144053 96.140 -13.7077
81.732056 96.126 -13.9292
82.324320 96.111 -14.1559
82.920876 96.094 -14.3860
83.521755 96.075 -14.6166
84.126988 96.055 -14.8446
84.736607 96.033 -15.0667
85.350643 96.010 -15.2805
85.969129 95.987 -15.4845
86.592097 95.963 -15.6787
87.219579 95.939 -15.8641
87.851608 95.915 -16.0420
88.488217 95.892 -16.2141
89.129439 95.869 -16.3822
89.775308 95.846 -16.5474
90.425856 95.824 -16.7107
91.081119 95.802 -16.8726
91.741131 95.781 -17.0337
92.405925 95.760 -17.1946
93.075536 95.739 -17.3558
93.750000 95.718 -17.5177
94.429351 95.698 -17.6806
95.113625 95.678 -17.8440
95.802858 95.658 -18.0076
96.497085 95.637 -18.1705
97.196342 95.616 -18.3322
97.900667 95.594 -18.4922
98.610096 95.572 -18.6499
99.324665 95.550 -18.8049
100.044413 95.528 -18.9568
100.769376 95.505 -19.1051
101.499592 95.483 -19.2498
102.235100 95.461 -19.3916
102.975938 95.440 -19.5318
103.722144 95.419 -19.6724
104.473757 95.399 -19.8150
105.230817 95.380 -19.9610
105.993363 95.360 -20.1109
106.761435 95.341 -20.2648
107.535072 95.321 -20.4228
108.314315 95.301 -20.5850
109.099206 95.281 -20.7517
109.889783 95.261 -20.9232
110.686090 95.240 -21.0996
111.488167 95.217 -21.2807
112.296056 95.193 -21.4656
113.109800 95.168 -21.6521
113.929440 95.140 -21.8368
114.755020 95.111 -22.0153
115.586582 95.079 -22.1828
116.424170 95.047 -22.3357
117.267827 95.015 -22.4721
118.117598 94.983 -22.5930
118.973527 94.953 -22.7011
119.835658 94.925 -22.8009
120.704037 94.899 -22.8974
121.578708 94.874 -22.9949
122.459718 94.851 -23.0964
123.347111 94.828 -23.2028
124.240935 94.805 -23.3142
125.141236 94.783 -23.4302
126.048061 94.761 -23.5503
126.961458 94.738 -23.6738
127.881473 94.716 -23.7998
128.808154 94.693 -23.9278
129.741551 94.670 -24.0576
130.681712 94.646 -24.1892
131.628686 94.622 -24.3225
132.582521 94.598 -24.4575
133.543269 94.573 -24.5940
134.510979 94.547 -24.7314
135.485701 94.521 -24.8690
136.467486 94.493 -25.0058
137.456386 94.466 -25.1407
138.452451 94.438 -25.2730
139.455735 94.409 -25.4025
140.466288 94.381 -25.5297
141.484165 94.352 -25.6552
142.509418 94.324 -25.7797
143.542100 94.295 -25.9036
144.582265 94.267 -26.0270
145.629968 94.238 -26.1499
146.685262 94.208 -26.2721
147.748204 94.178 -26.3932
148.818849 94.147 -26.5120
149.897251 94.116 -26.6269
150.983469 94.084 -26.7357
152.077557 94.052 -26.8362
153.179574 94.019 -26.9268
154.289576 93.988 -27.0077
155.407622 93.957 -27.0815
156.533770 93.928 -27.1530
157.668078 93.901 -27.2274
158.810606 93.874 -27.3088
159.961413 93.848 -27.3991
161.120559 93.822 -27.4980
162.288105 93.795 -27.6039
163.464112 93.767 -27.7144
164.648640 93.737 -27.8269
165.841752 93.707 -27.9388
167.043510 93.674 -28.0473
168.253976 93.641 -28.1497
169.473213 93.607 -28.2440
170.701286 93.573 -28.3299
171.938258 93.539 -28.4081
173.184194 93.506 -28.4801
174.439158 93.474 -28.5474
175.703216 93.442 -28.6109
176.976434 93.411 -28.6719
178.258878 93.381 -28.7321
179.550615 93.350 -28.7940
180.851713 93.319 -28.8591
182.162239 93.287 -28.9286
183.482262 93.256 -29.0022
184.811850 93.223 -29.0791
186.151073 93.190 -29.1581
187.500000 93.157 -29.2375
188.858702 93.123 -29.3151
190.227250 93.088 -29.3888
191.605715 93.052 -29.4570
192.994169 93.015 -29.5187
194.392685 92.977 -29.5727
195.801334 92.938 -29.6178
197.220191 92.898 -29.6522
198.649330 92.858 -29.6741
200.088825 92.816 -29.6834
201.538751 92.775 -29.6813
202.999184 92.734 -29.6709
204.470200 92.694 -29.6560
205.951875 92.655 -29.6398
207.444287 92.617 -29.6233
208.947514 92.579 -29.6042
210.461634 92.541 -29.5768
211.986726 92.501 -29.5331
213.522869 92.462 -29.4653
215.070144 92.423 -29.3678
216.628631 92.386 -29.2373
218.198411 92.353 -29.0743
219.779567 92.325 -28.8850
221.372180 92.305 -28.6823
222.976334 92.291 -28.4833
224.592112 92.284 -28.3059
226.219600 92.283 -28.1652
227.858880 92.286 -28.0722
229.510039 92.291 -28.0328
231.173164 92.297 -28.0491
232.848340 92.301 -28.1194
234.535655 92.301 -28.2368
236.235197 92.297 -28.3895
237.947054 92.289 -28.5619
239.671317 92.277 -28.7376
241.408074 92.261 -28.9048
243.157416 92.241 -29.0598
244.919435 92.218 -29.2046
246.694223 92.191 -29.3385
248.481871 92.160 -29.4573
250.282473 92.127 -29.5557
252.096123 92.093 -29.6308
253.922915 92.060 -29.6840
255.762945 92.028 -29.7220
257.616309 91.999 -29.7555
259.483103 91.971 -29.7955
261.363424 91.945 -29.8482
263.257372 91.918 -29.9126
265.165043 91.890 -29.9823
267.086538 91.860 -30.0494
269.021957 91.829 -30.1078
270.971401 91.796 -30.1541
272.934972 91.763 -30.1886
274.912771 91.730 -30.2135
276.904902 91.698 -30.2313
278.911469 91.667 -30.2437
280.932577 91.637 -30.2526
282.968330 91.609 -30.2611
285.018835 91.583 -30.2747
287.084199 91.558 -30.3000
289.164530 91.534 -30.3431
291.259935 91.509 -30.4052
293.370525 91.481 -30.4812
295.496408 91.450 -30.5619
297.637697 91.417 -30.6374
299.794503 91.381 -30.7014
301.966937 91.344 -30.7515
304.155114 91.306 -30.7886
306.359147 91.268 -30.8160
308.579152 91.230 -30.8373
310.815244 91.193 -30.8559
313.067539 91.155 -30.8731
315.336156 91.117 -30.8875
317.621211 91.078 -30.8957
319.922826 91.039 -30.8936
322.241118 91.000 -30.8792
324.576210 90.962 -30.8531
326.928223 90.924 -30.8183
329.297280 90.888 -30.7784
331.683504 90.853 -30.7369
334.087019 90.819 -30.6969
336.507952 90.786 -30.6603
338.946427 90.752 -30.6276
341.402572 90.718 -30.5974
343.876516 90.683 -30.5667
346.368387 90.647 -30.5325
348.878315 90.612 -30.4933
351.406431 90.576 -30.4488
353.952867 90.540 -30.4000
356.517756 90.505 -30.3481
359.101230 90.470 -30.2943
361.703426 90.435 -30.2390
364.324478 90.401 -30.1819
366.964523 90.367 -30.1223
369.623699 90.332 -30.0595
372.302145 90.298 -29.9932
375.000000 90.265 -29.9235
377.717405 90.231 -29.8509
380.454501 90.198 -29.7760
383.211431 90.166 -29.6989
385.988339 90.133 -29.6195
388.785369 90.101 -29.5378
391.602668 90.069 -29.4539
394.440383 90.038 -29.3684
397.298660 90.006 -29.2819
400.177650 89.975 -29.1952
403.077502 89.945 -29.1094
405.998368 89.914 -29.0260
408.940400 89.884 -28.9450
411.903750 89.853 -28.8650
414.888575 89.821 -28.7824
417.895028 89.789 -28.6936
420.923268 89.757 -28.5958
423.973452 89.726 -28.4881
427.045738 89.695 -28.3719
430.140287 89.666 -28.2508
433.257261 89.638 -28.1297
436.396822 89.611 -28.0117
439.559133 89.585 -27.8974
442.744360 89.561 -27.7866
445.952668 89.537 -27.6810
449.184225 89.515 -27.5851
452.439199 89.493 -27.5048
455.717760 89.471 -27.4432
459.020079 89.446 -27.3966
462.346327 89.418 -27.3550
465.696680 89.386 -27.3068
469.071310 89.353 -27.2453
472.470394 89.318 -27.1687
475.894109 89.284 -27.0796
479.342634 89.250 -26.9828
482.816148 89.216 -26.8832
486.314833 89.181 -26.7821
489.838871 89.146 -26.6755
493.388445 89.111 -26.5555
496.963741 89.075 -26.4183
500.564945 89.041 -26.2673
504.192245 89.008 -26.1101
507.845830 88.976 -25.9532
511.525890 88.945 -25.7993
515.232618 88.914 -25.6472
518.966206 88.883 -25.4933
522.726849 88.850 -25.3325
526.514743 88.817 -25.1600
530.330086 88.785 -24.9732
534.173076 88.754 -24.7739
538.043915 88.724 -24.5662
541.942803 88.695 -24.3526
545.869944 88.668 -24.1328
549.825542 88.642 -23.9069
553.809805 88.618 -23.6773
557.822939 88.596 -23.4483
561.865154 88.576 -23.2237
565.936660 88.557 -23.0051
570.037671 88.539 -22.7923
574.168399 88.522 -22.5843
578.329060 88.505 -22.3814
582.519870 88.489 -22.1855
586.741049 88.473 -21.9975
590.992817 88.457 -21.8149
595.275394 88.440 -21.6340
599.589005 88.422 -21.4533
603.933874 88.405 -21.2744
608.310228 88.387 -21.0987
612.718295 88.368 -20.9252
617.158304 88.347 -20.7494
621.630488 88.326 -20.5643
626.135079 88.303 -20.3627
630.672311 88.281 -20.1418
635.242423 88.260 -19.9055
639.845651 88.241 -19.6600
644.482237 88.224 -19.4080
649.152421 88.208 -19.1493
653.856447 88.195 -18.8853
658.594560 88.185 -18.6231
663.367008 88.177 -18.3732
668.174039 88.171 -18.1438
673.015903 88.165 -17.9347
677.892854 88.157 -17.7383
682.805145 88.146 -17.5456
687.753032 88.134 -17.3498
692.736774 88.121 -17.1457
697.756631 88.106 -16.9289
702.812863 88.091 -16.6978
707.905735 88.077 -16.4546
713.035511 88.064 -16.2037
718.202461 88.052 -15.9484
723.406852 88.041 -15.6894
728.648956 88.030 -15.4258
733.929047 88.020 -15.1565
739.247399 88.010 -14.8812
744.604290 88.001 -14.5998
750.000000 87.994 -14.3122
755.434809 87.987 -14.0185
760.909001 87.981 -13.7191
766.422861 87.977 -13.4147
771.976677 87.974 -13.1061
777.570739 87.972 -12.7940
783.205337 87.972 -12.4784
788.880766 87.972 -12.1579
794.597321 87.975 -11.8292
800.355301 87.979 -11.4899
806.155005 87.986 -11.1416
811.996736 87.997 -10.7906
817.880799 88.012 -10.4457
823.807501 88.029 -10.1164
829.777150 88.050 -9.8108
835.790057 88.070 -9.5309
841.846536 88.089 -9.2699
847.946903 88.107 -9.0171
854.091476 88.123 -8.7641
860.280575 88.138 -8.5074
866.514523 88.152 -8.2443
872.793644 88.167 -7.9722
879.118267 88.182 -7.6913
885.488720 88.199 -7.4057
891.905336 88.217 -7.1191
898.368450 88.237 -6.8321
904.878398 88.257 -6.5424
911.435520 88.279 -6.2491
918.040157 88.303 -5.9537
924.692655 88.329 -5.6587
931.393359 88.357 -5.3672
938.142619 88.386 -5.0828
944.940787 88.417 -4.8073
951.788218 88.449 -4.5403
958.685268 88.481 -4.2793
965.632296 88.513 -4.0223
972.629666 88.546 -3.7670
979.677741 88.579 -3.5129
986.776890 88.613 -3.2604
993.927482 88.647 -3.0079
1001.129891 88.683 -2.7502
1008.384491 88.720 -2.4831
1015.691660 88.761 -2.2076
1023.051781 88.804 -1.9290
1030.465236 88.852 -1.6554
1037.932411 88.904 -1.3986
1045.453698 88.959 -1.1709
1053.029486 89.015 -0.9783
1060.660172 89.070 -0.8175
1068.346153 89.124 -0.6798
1076.087829 89.175 -0.5558
1083.885605 89.225 -0.4388
1091.739887 89.274 -0.3264
1099.651084 89.322 -0.2183
1107.619609 89.369 -0.1139
1115.645878 89.416 -0.0120
1123.730308 89.462 0.0888
1131.873321 89.507 0.1899
1140.075341 89.553 0.2922
1148.336797 89.598 0.3965
1156.658119 89.643 0.5031
1165.039741 89.689 0.6132
1173.482099 89.736 0.7284
1181.985634 89.784 0.8483
1190.550789 89.836 0.9674
1199.178011 89.890 1.0746
1207.867749 89.947 1.1583
1216.620457 90.004 1.2126
1225.436590 90.059 1.2410
1234.316609 90.111 1.2522
1243.260976 90.161 1.2552
1252.270157 90.208 1.2578
1261.344623 90.253 1.2643
1270.484846 90.296 1.2762
1279.691303 90.339 1.2949
1288.964474 90.380 1.3219
1298.304842 90.422 1.3569
1307.712894 90.463 1.3977
1317.189120 90.505 1.4409
1326.734016 90.547 1.4844
1336.348077 90.589 1.5287
1346.031806 90.630 1.5765
1355.785708 90.670 1.6314
1365.610290 90.710 1.6972
1375.506065 90.749 1.7785
1385.473549 90.789 1.8803
1395.513261 90.832 2.0037
1405.625726 90.879 2.1432
1415.811469 90.931 2.2867
1426.071023 90.986 2.4190
1436.404921 91.045 2.5301
1446.813703 91.105 2.6192
1457.297912 91.165 2.6913
1467.858093 91.225 2.7530
1478.494798 91.284 2.8090
1489.208581 91.343 2.8629
1500.000000 91.401 2.9177
1510.869618 91.459 2.9759
1521.818002 91.518 3.0401
1532.845723 91.578 3.1121
1543.953355 91.639 3.1933
1555.141477 91.703 3.2838
1566.410674 91.772 3.3786
1577.761531 91.845 3.4663
1589.194642 91.921 3.5323
1600.710601 92.001 3.5667
1612.310010 92.081 3.5686
1623.993473 92.160 3.5431
1635.761599 92.238 3.4973
1647.615002 92.315 3.4374
1659.554299 92.390 3.3680
1671.580114 92.465 3.2919
1683.693072 92.539 3.2091
1695.893807 92.613 3.1174
1708.182952 92.687 3.0146
1720.561150 92.759 2.9006
1733.029045 92.830 2.7784
1745.587288 92.900 2.6531
1758.236533 92.968 2.5312
1770.977440 93.037 2.4182
1783.810673 93.107 2.3132
1796.736900 93.179 2.2067
1809.756796 93.255 2.0846
1822.871040 93.333 1.9361
1836.080315 93.410 1.7579
1849.385310 93.487 1.5520
1862.786718 93.561 1.3228
1876.285239 93.632 1.0758
1889.881575 93.701 0.8173
1903.576436 93.766 0.5537
1917.370535 93.829 0.2908
1931.264593 93.891 0.0327
1945.259332 93.952 -0.2211
1959.355483 94.015 -0.4781
1973.553781 94.078 -0.7506
1987.854965 94.142 -1.0477
2002.259781 94.203 -1.3711
2016.768981 94.261 -1.7171
2031.383320 94.315 -2.0794
2046.103561 94.365 -2.4511
2060.930471 94.410 -2.8264
2075.864823 94.451 -3.2024
2090.907395 94.487 -3.5771
2106.058972 94.519 -3.9474
2121.320344 94.546 -4.3071
2136.692305 94.568 -4.6473
2152.175658 94.587 -4.9588
2167.771210 94.604 -5.2380
2183.479774 94.622 -5.4903
2199.302169 94.640 -5.7264
2215.239219 94.658 -5.9553
2231.291755 94.676 -6.1806
2247.460615 94.692 -6.4021
2263.746641 94.706 -6.6153
2280.150683 94.718 -6.8135
2296.673595 94.727 -6.9882
2313.316238 94.736 -7.1326
2330.079481 94.745 -7.2453
2346.964198 94.756 -7.3336
2363.971268 94.771 -7.4099
2381.101578 94.787 -7.4845
2398.356022 94.805 -7.5623
2415.735498 94.822 -7.6431
2433.240913 94.839 -7.7238
2450.873180 94.855 -7.8010
2468.633217 94.870 -7.8725
2486.521951 94.883 -7.9354
2504.540314 94.894 -7.9840
2522.689246 94.904 -8.0091
2540.969692 94.912 -8.0017
2559.382606 94.922 -7.9595
2577.928947 94.934 -7.8890
2596.609683 94.950 -7.7999
2615.425787 94.968 -7.7001
2634.378241 94.988 -7.5932
2653.468031 95.009 -7.4778
2672.696154 95.031 -7.3481
2692.063613 95.055 -7.1964
2711.571415 95.081 -7.0182
2731.220579 95.112 -6.8176
2751.012130 95.148 -6.6051
2770.947098 95.189 -6.3923
2791.026522 95.234 -6.1872
2811.251451 95.283 -5.9938
2831.622938 95.334 -5.8128
2852.142045 95.387 -5.6442
2872.809842 95.441 -5.4862
2893.627406 95.495 -5.3330
2914.595823 95.550 -5.1750
2935.716186 95.605 -5.0039
2956.989596 95.664 -4.8187
2978.417161 95.726 -4.6255
3000.000000 95.792 -4.4323
3021.739237 95.861 -4.2453
3043.636005 95.933 -4.0654
3065.691446 96.009 -3.8885
3087.906710 96.087 -3.7089
3110.282955 96.170 -3.5256
3132.821347 96.259 -3.3463
3155.523062 96.355 -3.1838
3178.389283 96.457 -3.0513
3201.421202 96.564 -2.9602
3224.620020 96.677 -2.9196
3247.986946 96.792 -2.9369
3271.523198 96.909 -3.0158
3295.230004 97.027 -3.1545
3319.108599 97.145 -3.3495
3343.160228 97.262 -3.6016
3367.386145 97.380 -3.9181
3391.787613 97.495 -4.3087
3416.365904 97.607 -4.7806
3441.122300 97.712 -5.3339
3466.058091 97.809 -5.9604
3491.174576 97.896 -6.6484
3516.473066 97.972 -7.3876
3541.954880 98.037 -8.1699
3567.621345 98.090 -8.9864
3593.473800 98.129 -9.8252
3619.513592 98.155 -10.6720
3645.742080 98.166 -11.5093
3672.160630 98.163 -12.3157
3698.770620 98.148 -13.0671
3725.573436 98.121 -13.7431
3752.570477 98.087 -14.3328
3779.763150 98.049 -14.8346
3807.152872 98.008 -15.2521
3834.741071 97.966 -15.5880
3862.529185 97.923 -15.8422
3890.518664 97.883 -16.0160
3918.710966 97.848 -16.1172
3947.107561 97.819 -16.1604
3975.709929 97.797 -16.1643
4004.519563 97.783 -16.1489
4033.537962 97.776 -16.1323
4062.766641 97.774 -16.1251
4092.207123 97.776 -16.1299
4121.860942 97.781 -16.1468
4151.729646 97.788 -16.1781
4181.814790 97.798 -16.2283
4212.117944 97.809 -16.3000
4242.640687 97.820 -16.3892
4273.384610 97.830 -16.4887
4304.351317 97.842 -16.5947
4335.542421 97.855 -16.7099
4366.959549 97.870 -16.8432
4398.604338 97.888 -17.0077
4430.478438 97.907 -17.2160
4462.583511 97.924 -17.4741
4494.921231 97.940 -17.7811
4527.493283 97.952 -18.1343
4560.301365 97.959 -18.5323
4593.347189 97.961 -18.9722
4626.632476 97.954 -19.4454
4660.158962 97.938 -19.9373
4693.928395 97.913 -20.4326
4727.942535 97.880 -20.9199
4762.203156 97.840 -21.3934
4796.712043 97.792 -21.8525
4831.470996 97.735 -22.2964
4866.481826 97.670 -22.7185
4901.746360 97.595 -23.1077
4937.266434 97.509 -23.4517
4973.043902 97.412 -23.7385
5009.080628 97.304 -23.9516
5045.378492 97.184 -24.0683
5081.939384 97.054 -24.0628
5118.765212 96.916 -23.9126
5155.857894 96.774 -23.6031
5193.219366 96.632 -23.1297
5230.851574 96.494 -22.4940
5268.756481 96.361 -21.6981
5306.936062 96.238 -20.7458
5345.392309 96.127 -19.6454
5384.127225 96.032 -18.4075
5423.142830 95.954 -17.0394
5462.441159 95.898 -15.5446
5502.024259 95.867 -13.9295
5541.894195 95.868 -12.2131
5582.053045 95.906 -10.4353
5622.502902 95.986 -8.6573
5663.245876 96.109 -6.9564
5704.284090 96.275 -5.4206
5745.619684 96.478 -4.1414
5787.254813 96.706 -3.1992
5829.191647 96.947 -2.6461
5871.432373 97.185 -2.4971
5913.979192 97.405 -2.7284
5956.834323 97.596 -3.2848
6000.000000 97.749 -4.0897
6043.478473 97.862 -5.0562
6087.272010 97.933 -6.0999
6131.382892 97.967 -7.1512
6175.813420 97.966 -8.1603
6220.565910 97.936 -9.0927
6265.642695 97.878 -9.9214
6311.046124 97.797 -10.6222
6356.778566 97.695 -11.1736
6402.842404 97.578 -11.5580
6449.240040 97.448 -11.7635
6495.973891 97.312 -11.7855
6543.046396 97.173 -11.6286
6590.460007 97.037 -11.3044
6638.217197 96.905 -10.8275
6686.320456 96.783 -10.2130
6734.772290 96.671 -9.4769
6783.575226 96.573 -8.6377
6832.731809 96.490 -7.7135
6882.244600 96.423 -6.7206
6932.116181 96.375 -5.6731
6982.349153 96.346 -4.5827
7032.946133 96.337 -3.4595
7083.909760 96.352 -2.3160
7135.242690 96.394 -1.1733
7186.947600 96.464 -0.0643
7239.027185 96.565 0.9676
7291.484160 96.697 1.8702
7344.321260 96.858 2.5851
7397.541239 97.044 3.0549
7451.146872 97.250 3.2298
7505.140954 97.469 3.0687
7559.526299 97.694 2.5383
7614.305743 97.914 1.6128
7669.482141 98.122 0.2751
7725.058371 98.307 -1.4822
7781.037328 98.457 -3.6507
7837.421932 98.559 -6.1988
7894.215122 98.603 -9.0671
7951.419859 98.578 -12.1714
8009.039125 98.479 -15.4086
8067.075924 98.303 -18.6657
8125.533282 98.050 -21.8320
8184.414245 97.724 -24.8078
8243.721885 97.328 -27.5065
8303.459292 96.871 -29.8559
8363.629581 96.360 -31.7996
8424.235888 95.804 -33.2970
8485.281374 95.214 -34.3257
8546.769221 94.600 -34.8839
8608.702634 93.972 -34.9876
8671.084842 93.339 -34.6618
8733.919097 92.706 -33.9327
8797.208675 92.081 -32.8236
8860.956876 91.468 -31.3540
8925.167022 90.873 -29.5461
8989.842461 90.301 -27.4297
9054.986566 89.756 -25.0390
9120.602731 89.240 -22.4063
9186.694378 88.757 -19.5566
9253.264952 88.308 -16.5064
9320.317925 87.896 -13.2711
9387.856790 87.525 -9.8749
9455.885071 87.198 -6.3531
9524.406312 86.918 -2.7494
9593.424086 86.687 0.8900
9662.941992 86.506 4.5207
9732.963653 86.376 8.0928
9803.492719 86.296 11.5451
9874.532869 86.264 14.8064
9946.087805 86.274 17.8046
10018.161257 86.319 20.4798
10090.756983 86.387 22.7909
10163.878768 86.468 24.7135
10237.530423 86.548 26.2393
10311.715789 86.616 27.3795
10386.438732 86.656 28.1718
10461.703149 86.659 28.6829
10537.512962 86.616 28.9998
10613.872125 86.523 29.2162
10690.784618 86.379 29.4204
10768.254450 86.187 29.6900
10846.285661 85.952 30.0925
10924.882318 85.680 30.6836
11004.048518 85.379 31.5024
11083.788390 85.056 32.5679
11164.106090 84.720 33.8834
11245.005805 84.378 35.4455
11326.491752 84.037 37.2468
11408.568180 83.704 39.2658
11491.239368 83.385 41.4550
11574.509626 83.085 43.7449
11658.383294 82.803 46.0679
11742.864745 82.535 48.3797
11827.958384 82.276 50.6620
11913.668646 82.021 52.9119
12000.000000 81.767 55.1327
12086.956947 81.510 57.3310
12174.544019 81.248 59.5133
12262.765784 80.979 61.6813
12351.626840 80.700 63.8323
12441.131819 80.406 65.9750
12531.285389 80.090 68.1524
12622.092249 79.747 70.4509
12713.557132 79.381 72.9782
12805.684808 79.000 75.8125
12898.480079 78.619 78.9542
12991.947783 78.252 82.3170
13086.092792 77.902 85.7780
13180.920015 77.561 89.2521
13276.434395 77.215 92.7573
13372.640911 76.851 96.4441
13469.544580 76.468 100.5685
13567.150452 76.084 105.3832
13665.463617 75.736 110.9814
13764.489200 75.461 117.2156
13864.232362 75.283 123.7842
13964.698305 75.209 130.3987
14065.892266 75.232 136.8918
14167.819519 75.346 143.2215
14270.485380 75.550 149.4193
14373.895200 75.851 155.5238
14478.054370 76.265 161.5330
14582.968320 76.807 167.3743
14688.642520 77.490 172.8766
14795.082478 78.313 177.7407
14902.293745 79.255 -178.4342
15010.281908 80.269 -176.0280
15119.052599 81.298 -175.2587
15228.611486 82.287 -176.1413
15338.964283 83.188 -178.5456
15450.116741 83.968 177.7279
15562.074656 84.600 172.8948
15674.843864 85.061 167.1646
15788.430244 85.331 160.7487
15902.839718 85.387 153.8882
16018.078250 85.209 146.8807
16134.151848 84.787 140.0814
16251.066563 84.127 133.8652
16368.828491 83.249 128.5755
16487.443769 82.185 124.4880
16606.918584 80.975 121.7948
16727.259161 79.662 120.6059
16848.471777 78.293 120.9552
16970.562748 76.912 122.8021
17093.538442 75.563 126.0319
17217.405268 74.288 130.4656
17342.169684 73.124 135.8752
17467.838194 72.097 142.0033
17594.417350 71.227 148.5920
17721.913751 70.521 155.4026
17850.334044 69.982 162.2180
17979.684923 69.601 168.8397
18109.973131 69.367 175.0830
18241.205462 69.265 -179.2280
18373.388756 69.274 -174.2566
18506.529905 69.368 -170.1377
18640.635849 69.518 -166.9640
18775.713581 69.688 -164.7741
18911.770141 69.846 -163.5443
19048.812624 69.959 -163.1900
19186.848172 70.000 -163.5735
19325.883983 69.952 -164.5138
19465.927305 69.810 -165.8024
19606.985439 69.589 -167.2147
19749.065738 69.327 -168.5201
19892.175609 69.088 -169.5087
20036.322514 68.944 -170.0341
