* Measurement data measured by REW V5.31.3
* Source: EXCL: Microphone (USB Sound Device        ), MICROPHONE (Master Volume), R, volume: 0.390
* Format: 256k Log Swept Sine, 1 sweep at -17.0 dBFS with no timing reference
* Dated: Jul 4, 2025 1:35:41 PM
* REW Settings:
*  C-weighting compensation: Off
*  Target level: 75.0 dB
* Note: FlipEars Aegis R
* Measurement: R FlipEars Aegis R
* Smoothing: 1/12 octave
* Frequency Step: 96 ppo
* Start Frequency: 0.36621094 Hz
*
* Freq(Hz) SPL(dB) Phase(degrees)
0.366211 92.873 163.4519
0.368865 92.868 163.4339
0.371538 92.861 163.4069
0.374230 92.852 163.3731
0.376942 92.842 163.3341
0.379673 92.831 163.2913
0.382424 92.820 163.2455
0.385196 92.808 163.1973
0.387987 92.796 163.1470
0.390798 92.784 163.0947
0.393630 92.772 163.0405
0.396483 92.760 162.9844
0.399356 92.748 162.9265
0.402250 92.736 162.8667
0.405165 92.723 162.8050
0.408101 92.711 162.7415
0.411058 92.698 162.6761
0.414037 92.686 162.6087
0.417037 92.673 162.5394
0.420059 92.660 162.4681
0.423103 92.647 162.3949
0.426169 92.634 162.3197
0.429257 92.621 162.2424
0.432368 92.607 162.1632
0.435501 92.594 162.0819
0.438656 92.581 161.9986
0.441835 92.567 161.9131
0.445037 92.554 161.8256
0.448262 92.540 161.7360
0.451510 92.526 161.6443
0.454782 92.512 161.5505
0.458077 92.498 161.4545
0.461397 92.484 161.3564
0.464740 92.470 161.2561
0.468108 92.455 161.1536
0.471500 92.441 161.0490
0.474917 92.426 160.9421
0.478358 92.412 160.8331
0.481825 92.397 160.7218
0.485316 92.382 160.6083
0.488833 92.367 160.4926
0.492375 92.352 160.3746
0.495943 92.337 160.2544
0.499537 92.321 160.1320
0.503157 92.306 160.0072
0.506803 92.290 159.8803
0.510475 92.275 159.7511
0.514175 92.259 159.6196
0.517900 92.243 159.4859
0.521653 92.227 159.3499
0.525434 92.211 159.2117
0.529241 92.195 159.0712
0.533076 92.179 158.9285
0.536939 92.162 158.7836
0.540830 92.146 158.6365
0.544749 92.129 158.4871
0.548696 92.112 158.3356
0.552673 92.095 158.1819
0.556677 92.078 158.0260
0.560711 92.061 157.8680
0.564774 92.044 157.7079
0.568867 92.026 157.5457
0.572989 92.009 157.3814
0.577141 91.991 157.2151
0.581324 91.973 157.0468
0.585536 91.955 156.8765
0.589779 91.937 156.7043
0.594053 91.919 156.5302
0.598358 91.901 156.3543
0.602694 91.882 156.1765
0.607061 91.864 155.9970
0.611460 91.845 155.8158
0.615891 91.826 155.6330
0.620354 91.807 155.4486
0.624849 91.788 155.2627
0.629377 91.769 155.0753
0.633938 91.749 154.8866
0.638532 91.730 154.6966
0.643159 91.710 154.5053
0.647819 91.690 154.3130
0.652514 91.670 154.1196
0.657242 91.650 153.9253
0.662005 91.630 153.7301
0.666802 91.609 153.5343
0.671634 91.589 153.3379
0.676501 91.568 153.1409
0.681403 91.547 152.9436
0.686341 91.526 152.7461
0.691314 91.505 152.5486
0.696324 91.483 152.3510
0.701370 91.462 152.1536
0.706452 91.440 151.9564
0.711571 91.417 151.7596
0.716728 91.394 151.5630
0.721921 91.370 151.3665
0.727153 91.345 151.1697
0.732422 91.318 150.9722
0.737729 91.290 150.7732
0.743075 91.260 150.5721
0.748460 91.228 150.3680
0.753883 91.196 150.1607
0.759346 91.162 149.9497
0.764849 91.128 149.7349
0.770391 91.094 149.5160
0.775974 91.059 149.2930
0.781597 91.023 149.0657
0.787261 90.987 148.8343
0.792966 90.950 148.5985
0.798712 90.913 148.3584
0.804500 90.876 148.1140
0.810329 90.838 147.8652
0.816201 90.799 147.6121
0.822116 90.760 147.3546
0.828073 90.720 147.0926
0.834074 90.680 146.8262
0.840118 90.639 146.5554
0.846206 90.597 146.2802
0.852338 90.555 146.0006
0.858514 90.512 145.7166
0.864735 90.468 145.4283
0.871001 90.424 145.1355
0.877313 90.379 144.8385
0.883670 90.333 144.5372
0.890074 90.286 144.2316
0.896524 90.238 143.9218
0.903020 90.190 143.6079
0.909564 90.140 143.2900
0.916155 90.090 142.9681
0.922794 90.039 142.6423
0.929481 89.986 142.3127
0.936216 89.933 141.9795
0.943000 89.879 141.6427
0.949834 89.823 141.3026
0.956717 89.766 140.9592
0.963649 89.709 140.6128
0.970632 89.650 140.2635
0.977666 89.589 139.9116
0.984750 89.528 139.5572
0.991886 89.465 139.2007
0.999074 89.401 138.8422
1.006314 89.335 138.4821
1.013606 89.268 138.1208
1.020951 89.199 137.7585
1.028349 89.129 137.3956
1.035801 89.057 137.0325
1.043307 88.984 136.6696
1.050867 88.908 136.3074
1.058482 88.832 135.9462
1.066152 88.753 135.5866
1.073878 88.673 135.2288
1.081660 88.591 134.8732
1.089498 88.507 134.5199
1.097393 88.422 134.1687
1.105345 88.336 133.8194
1.113355 88.249 133.4714
1.121423 88.162 133.1243
1.129549 88.073 132.7777
1.137734 87.985 132.4312
1.145979 87.895 132.0843
1.154283 87.805 131.7370
1.162647 87.715 131.3888
1.171072 87.623 131.0396
1.179558 87.531 130.6891
1.188106 87.437 130.3372
1.196715 87.342 129.9835
1.205387 87.245 129.6277
1.214122 87.147 129.2697
1.222920 87.047 128.9091
1.231782 86.944 128.5457
1.240708 86.840 128.1791
1.249699 86.733 127.8090
1.258754 86.623 127.4350
1.267876 86.510 127.0568
1.277063 86.394 126.6741
1.286318 86.275 126.2863
1.295639 86.152 125.8931
1.305027 86.025 125.4940
1.314484 85.894 125.0886
1.324009 85.758 124.6763
1.333604 85.617 124.2566
1.343268 85.472 123.8290
1.353002 85.321 123.3929
1.362806 85.164 122.9477
1.372681 85.001 122.4927
1.382628 84.832 122.0274
1.392647 84.656 121.5509
1.402739 84.473 121.0628
1.412904 84.282 120.5622
1.423142 84.083 120.0485
1.433455 83.874 119.5210
1.443843 83.656 118.9794
1.454305 83.426 118.4230
1.464844 83.183 117.8517
1.475459 82.925 117.2649
1.486150 82.649 116.6624
1.496920 82.356 116.0433
1.507767 82.043 115.4067
1.518693 81.712 114.7512
1.529698 81.361 114.0752
1.540783 80.993 113.3768
1.551948 80.608 112.6538
1.563194 80.208 111.9036
1.574521 79.794 111.1236
1.585931 79.367 110.3105
1.597423 78.930 109.4606
1.608999 78.484 108.5699
1.620658 78.032 107.6336
1.632402 77.574 106.6465
1.644232 77.115 105.6022
1.656146 76.655 104.4938
1.668147 76.197 103.3129
1.680235 75.744 102.0501
1.692411 75.299 100.6942
1.704675 74.865 99.2321
1.717028 74.445 97.6487
1.729470 74.042 95.9259
1.742003 73.659 94.0427
1.754626 73.301 91.9740
1.767341 72.972 89.6904
1.780147 72.674 87.1575
1.793047 72.413 84.3346
1.806040 72.191 81.1741
1.819128 72.011 77.6210
1.832310 71.876 73.6114
1.845587 71.786 69.0735
1.858961 71.741 63.9306
1.872432 71.740 58.1102
1.886001 71.780 51.5613
1.899667 71.861 44.2825
1.913433 71.979 36.3523
1.927299 72.132 27.9518
1.941265 72.318 19.3568
1.955332 72.533 10.8893
1.969501 72.774 2.8466
1.983773 73.039 -4.5578
1.998148 73.325 -11.2145
2.012627 73.628 -17.1042
2.027212 73.945 -22.2675
2.041902 74.272 -26.7757
2.056698 74.607 -30.7101
2.071602 74.946 -34.1502
2.086614 75.286 -37.1680
2.101734 75.623 -39.8258
2.116964 75.954 -42.1769
2.132304 76.277 -44.2664
2.147756 76.589 -46.1328
2.163320 76.891 -47.8094
2.178996 77.181 -49.3261
2.194786 77.462 -50.7096
2.210690 77.736 -51.9843
2.226710 78.007 -53.1706
2.242845 78.277 -54.2848
2.259098 78.548 -55.3390
2.275468 78.820 -56.3415
2.291957 79.095 -57.2982
2.308566 79.372 -58.2133
2.325295 79.650 -59.0897
2.342145 79.928 -59.9293
2.359117 80.206 -60.7337
2.376212 80.483 -61.5039
2.393431 80.758 -62.2405
2.410775 81.030 -62.9441
2.428244 81.298 -63.6149
2.445840 81.561 -64.2530
2.463564 81.818 -64.8587
2.481416 82.068 -65.4320
2.499397 82.310 -65.9735
2.517509 82.542 -66.4841
2.535752 82.766 -66.9654
2.554127 82.979 -67.4197
2.572635 83.182 -67.8503
2.591277 83.374 -68.2607
2.610055 83.557 -68.6544
2.628968 83.730 -69.0339
2.648019 83.893 -69.4008
2.667208 84.049 -69.7564
2.686535 84.196 -70.1010
2.706003 84.337 -70.4350
2.725612 84.471 -70.7582
2.745363 84.600 -71.0704
2.765257 84.723 -71.3713
2.785295 84.844 -71.6604
2.805478 84.961 -71.9372
2.825808 85.076 -72.2012
2.846285 85.189 -72.4519
2.866910 85.302 -72.6890
2.887685 85.414 -72.9121
2.908611 85.526 -73.1213
2.929688 85.638 -73.3169
2.950917 85.748 -73.4993
2.972301 85.857 -73.6695
2.993839 85.963 -73.8283
3.015534 86.066 -73.9764
3.037386 86.167 -74.1147
3.059396 86.266 -74.2438
3.081565 86.362 -74.3642
3.103896 86.456 -74.4765
3.126388 86.548 -74.5812
3.149043 86.639 -74.6786
3.171862 86.729 -74.7690
3.194847 86.818 -74.8529
3.217998 86.908 -74.9302
3.241317 86.997 -75.0009
3.264805 87.087 -75.0649
3.288463 87.177 -75.1217
3.312293 87.267 -75.1707
3.336295 87.357 -75.2117
3.360471 87.446 -75.2446
3.384822 87.536 -75.2701
3.409350 87.624 -75.2891
3.434056 87.712 -75.3030
3.458940 87.800 -75.3133
3.484005 87.888 -75.3217
3.509252 87.975 -75.3299
3.534681 88.061 -75.3395
3.560295 88.148 -75.3520
3.586094 88.235 -75.3688
3.612081 88.322 -75.3908
3.638255 88.409 -75.4184
3.664620 88.496 -75.4515
3.691175 88.584 -75.4895
3.717923 88.671 -75.5318
3.744864 88.759 -75.5781
3.772001 88.846 -75.6282
3.799335 88.934 -75.6825
3.826866 89.021 -75.7415
3.854597 89.108 -75.8058
3.882529 89.194 -75.8762
3.910664 89.280 -75.9535
3.939002 89.365 -76.0385
3.967546 89.449 -76.1317
3.996296 89.533 -76.2336
4.025255 89.616 -76.3444
4.054423 89.698 -76.4642
4.083804 89.779 -76.5926
4.113396 89.860 -76.7295
4.143204 89.939 -76.8744
4.173227 90.018 -77.0270
4.203468 90.096 -77.1871
4.233928 90.172 -77.3544
4.264609 90.247 -77.5288
4.295512 90.321 -77.7102
4.326639 90.394 -77.8987
4.357992 90.464 -78.0944
4.389572 90.534 -78.2978
4.421380 90.601 -78.5090
4.453419 90.667 -78.7282
4.485691 90.731 -78.9553
4.518196 90.794 -79.1896
4.550936 90.855 -79.4302
4.583914 90.914 -79.6762
4.617131 90.971 -79.9263
4.650589 91.027 -80.1796
4.684289 91.081 -80.4351
4.718233 91.134 -80.6924
4.752424 91.184 -80.9512
4.786862 91.233 -81.2118
4.821549 91.281 -81.4743
4.856488 91.326 -81.7390
4.891680 91.370 -82.0056
4.927127 91.411 -82.2735
4.962831 91.452 -82.5421
4.998794 91.491 -82.8102
5.035017 91.529 -83.0772
5.071503 91.566 -83.3421
5.108253 91.601 -83.6046
5.145270 91.636 -83.8643
5.182555 91.670 -84.1215
5.220110 91.702 -84.3763
5.257937 91.734 -84.6291
5.296038 91.764 -84.8801
5.334415 91.794 -85.1294
5.373071 91.824 -85.3770
5.412006 91.854 -85.6229
5.451224 91.883 -85.8670
5.490725 91.912 -86.1090
5.530514 91.942 -86.3491
5.570590 91.971 -86.5873
5.610957 92.001 -86.8242
5.651616 92.031 -87.0605
5.692570 92.061 -87.2972
5.733821 92.091 -87.5354
5.775370 92.123 -87.7759
5.817221 92.155 -88.0193
5.859375 92.187 -88.2663
5.901834 92.221 -88.5168
5.944602 92.255 -88.7713
5.987679 92.290 -89.0302
6.031068 92.326 -89.2945
6.074771 92.362 -89.5652
6.118792 92.399 -89.8436
6.163131 92.437 -90.1308
6.207792 92.476 -90.4275
6.252776 92.515 -90.7343
6.298086 92.555 -91.0513
6.343725 92.595 -91.3787
6.389694 92.636 -91.7164
6.435996 92.677 -92.0646
6.482634 92.718 -92.4236
6.529610 92.759 -92.7936
6.576926 92.800 -93.1750
6.624585 92.841 -93.5679
6.672590 92.882 -93.9722
6.720942 92.922 -94.3874
6.769645 92.963 -94.8128
6.818700 93.002 -95.2476
6.868111 93.041 -95.6908
6.917881 93.080 -96.1419
6.968010 93.118 -96.6004
7.018504 93.155 -97.0660
7.069362 93.191 -97.5381
7.120590 93.227 -98.0156
7.172189 93.261 -98.4972
7.224161 93.296 -98.9816
7.276511 93.329 -99.4674
7.329239 93.362 -99.9537
7.382350 93.394 -100.4397
7.435845 93.426 -100.9250
7.489729 93.457 -101.4088
7.544002 93.488 -101.8903
7.598669 93.519 -102.3683
7.653732 93.551 -102.8418
7.709194 93.582 -103.3103
7.765058 93.613 -103.7733
7.821327 93.645 -104.2306
7.878004 93.678 -104.6822
7.935091 93.711 -105.1282
7.992592 93.746 -105.5685
8.050510 93.781 -106.0030
8.108847 93.818 -106.4319
8.167607 93.856 -106.8554
8.226793 93.895 -107.2741
8.286408 93.936 -107.6889
8.346454 93.979 -108.1007
8.406936 94.023 -108.5102
8.467856 94.068 -108.9180
8.529218 94.116 -109.3247
8.591024 94.164 -109.7309
8.653278 94.215 -110.1376
8.715983 94.266 -110.5456
8.779143 94.319 -110.9557
8.842760 94.373 -111.3685
8.906839 94.428 -111.7840
8.971381 94.484 -112.2027
9.036392 94.540 -112.6244
9.101873 94.596 -113.0492
9.167829 94.653 -113.4773
9.234263 94.710 -113.9083
9.301178 94.766 -114.3418
9.368578 94.822 -114.7770
9.436467 94.878 -115.2131
9.504847 94.933 -115.6493
9.573723 94.987 -116.0847
9.643099 95.039 -116.5187
9.712976 95.091 -116.9500
9.783361 95.142 -117.3775
9.854255 95.192 -117.8001
9.925663 95.240 -118.2168
9.997588 95.288 -118.6267
10.070035 95.334 -119.0291
10.143007 95.379 -119.4232
10.216507 95.423 -119.8082
10.290540 95.467 -120.1836
10.365109 95.509 -120.5492
10.440219 95.551 -120.9048
10.515873 95.593 -121.2506
10.592076 95.634 -121.5866
10.668830 95.674 -121.9133
10.746141 95.714 -122.2311
10.824012 95.754 -122.5408
10.902447 95.794 -122.8430
10.981451 95.834 -123.1389
11.061027 95.873 -123.4292
11.141180 95.913 -123.7148
11.221913 95.952 -123.9968
11.303232 95.991 -124.2761
11.385140 96.029 -124.5537
11.467641 96.067 -124.8303
11.550741 96.105 -125.1065
11.634442 96.141 -125.3830
11.718750 96.177 -125.6602
11.803669 96.212 -125.9384
11.889203 96.246 -126.2178
11.975357 96.278 -126.4985
12.062136 96.310 -126.7803
12.149543 96.340 -127.0632
12.237583 96.368 -127.3469
12.326262 96.395 -127.6312
12.415583 96.421 -127.9158
12.505552 96.445 -128.2005
12.596172 96.468 -128.4851
12.687449 96.489 -128.7695
12.779387 96.509 -129.0536
12.871992 96.528 -129.3376
12.965268 96.545 -129.6215
13.059220 96.562 -129.9057
13.153852 96.577 -130.1906
13.249170 96.592 -130.4767
13.345179 96.606 -130.7645
13.441884 96.619 -131.0546
13.539289 96.632 -131.3476
13.637401 96.643 -131.6442
13.736223 96.654 -131.9448
13.835761 96.665 -132.2499
13.936021 96.674 -132.5598
14.037007 96.683 -132.8747
14.138725 96.691 -133.1945
14.241180 96.698 -133.5191
14.344377 96.704 -133.8481
14.448323 96.710 -134.1811
14.553021 96.714 -134.5173
14.658478 96.718 -134.8560
14.764700 96.722 -135.1965
14.871691 96.725 -135.5379
14.979457 96.727 -135.8794
15.088005 96.730 -136.2204
15.197339 96.732 -136.5604
15.307465 96.735 -136.8991
15.418389 96.738 -137.2363
15.530117 96.742 -137.5722
15.642655 96.748 -137.9072
15.756008 96.754 -138.2420
15.870182 96.762 -138.5774
15.985184 96.771 -138.9142
16.101019 96.782 -139.2536
16.217694 96.795 -139.5966
16.335214 96.809 -139.9440
16.453586 96.825 -140.2967
16.572815 96.842 -140.6551
16.692909 96.859 -141.0194
16.813872 96.878 -141.3894
16.935713 96.897 -141.7648
17.058436 96.917 -142.1446
17.182048 96.937 -142.5278
17.306556 96.957 -142.9132
17.431967 96.977 -143.2993
17.558286 96.997 -143.6846
17.685521 97.017 -144.0679
17.813677 97.036 -144.4480
17.942762 97.056 -144.8239
18.072783 97.075 -145.1949
18.203746 97.095 -145.5607
18.335658 97.114 -145.9212
18.468526 97.133 -146.2764
18.602356 97.153 -146.6268
18.737156 97.172 -146.9727
18.872934 97.190 -147.3143
19.009695 97.208 -147.6519
19.147447 97.226 -147.9854
19.286197 97.242 -148.3146
19.425953 97.258 -148.6390
19.566721 97.272 -148.9578
19.708510 97.285 -149.2704
19.851326 97.297 -149.5758
19.995177 97.307 -149.8734
20.140070 97.316 -150.1628
20.286013 97.324 -150.4440
20.433014 97.332 -150.7173
20.581080 97.338 -150.9835
20.730219 97.345 -151.2441
20.880439 97.350 -151.5006
21.031747 97.356 -151.7548
21.184152 97.361 -152.0086
21.337661 97.366 -152.2637
21.492282 97.370 -152.5215
21.648024 97.373 -152.7832
21.804895 97.375 -153.0491
21.962902 97.377 -153.3196
22.122054 97.377 -153.5945
22.282360 97.377 -153.8732
22.443827 97.375 -154.1555
22.606464 97.372 -154.4408
22.770280 97.369 -154.7289
22.935283 97.365 -155.0199
23.101481 97.361 -155.3141
23.268884 97.357 -155.6119
23.437500 97.352 -155.9138
23.607338 97.348 -156.2202
23.778406 97.343 -156.5313
23.950714 97.339 -156.8468
24.124271 97.334 -157.1661
24.299086 97.329 -157.4882
24.475167 97.325 -157.8120
24.652524 97.320 -158.1360
24.831166 97.316 -158.4593
25.011103 97.312 -158.7807
25.192344 97.309 -159.1000
25.374898 97.307 -159.4169
25.558775 97.306 -159.7319
25.743984 97.307 -160.0456
25.930536 97.308 -160.3585
26.118439 97.310 -160.6713
26.307704 97.313 -160.9840
26.498341 97.317 -161.2964
26.690359 97.321 -161.6080
26.883768 97.325 -161.9179
27.078579 97.328 -162.2252
27.274801 97.332 -162.5292
27.472446 97.336 -162.8295
27.671522 97.340 -163.1261
27.872042 97.343 -163.4192
28.074014 97.346 -163.7097
28.277450 97.348 -163.9980
28.482360 97.350 -164.2847
28.688755 97.351 -164.5697
28.896645 97.350 -164.8524
29.106042 97.347 -165.1317
29.316957 97.344 -165.4064
29.529400 97.338 -165.6751
29.743382 97.332 -165.9370
29.958915 97.325 -166.1916
30.176009 97.317 -166.4398
30.394677 97.309 -166.6830
30.614929 97.301 -166.9234
30.836778 97.293 -167.1636
31.060234 97.285 -167.4058
31.285309 97.278 -167.6519
31.512015 97.270 -167.9031
31.740364 97.263 -168.1596
31.970368 97.255 -168.4210
32.202039 97.247 -168.6864
32.435388 97.239 -168.9550
32.670428 97.231 -169.2261
32.907171 97.223 -169.4993
33.145630 97.215 -169.7749
33.385817 97.208 -170.0533
33.627745 97.202 -170.3348
33.871425 97.196 -170.6198
34.116871 97.190 -170.9079
34.364096 97.185 -171.1984
34.613113 97.179 -171.4903
34.863934 97.173 -171.7822
35.116572 97.167 -172.0728
35.371041 97.161 -172.3611
35.627354 97.155 -172.6462
35.885525 97.149 -172.9278
36.145566 97.142 -173.2055
36.407492 97.135 -173.4791
36.671316 97.128 -173.7485
36.937051 97.120 -174.0134
37.204712 97.111 -174.2735
37.474313 97.102 -174.5287
37.745867 97.093 -174.7793
38.019389 97.084 -175.0257
38.294893 97.074 -175.2690
38.572394 97.064 -175.5104
38.851905 97.054 -175.7515
39.133442 97.044 -175.9936
39.417019 97.033 -176.2378
39.702651 97.022 -176.4848
39.990353 97.011 -176.7347
40.280140 96.999 -176.9872
40.572026 96.986 -177.2416
40.866028 96.972 -177.4968
41.162160 96.958 -177.7518
41.460438 96.944 -178.0057
41.760877 96.929 -178.2577
42.063494 96.914 -178.5074
42.368303 96.898 -178.7549
42.675322 96.884 -179.0004
42.984565 96.869 -179.2441
43.296048 96.855 -179.4865
43.609789 96.840 -179.7274
43.925804 96.826 -179.9669
44.244108 96.812 179.7954
44.564719 96.799 179.5594
44.887654 96.786 179.3248
45.212928 96.773 179.0907
45.540560 96.760 178.8559
45.870565 96.748 178.6194
46.202962 96.736 178.3807
46.537768 96.723 178.1399
46.875000 96.710 177.8976
47.214676 96.697 177.6548
47.556813 96.684 177.4124
47.901429 96.670 177.1707
48.248542 96.656 176.9301
48.598171 96.642 176.6906
48.950334 96.627 176.4525
49.305048 96.612 176.2161
49.662333 96.597 175.9819
50.022206 96.582 175.7504
50.384688 96.567 175.5217
50.749796 96.551 175.2959
51.117550 96.536 175.0727
51.487969 96.520 174.8521
51.861072 96.504 174.6342
52.236879 96.488 174.4187
52.615409 96.472 174.2049
52.996681 96.456 173.9919
53.380717 96.439 173.7787
53.767536 96.423 173.5651
54.157158 96.407 173.3510
54.549603 96.391 173.1367
54.944892 96.375 172.9221
55.343045 96.359 172.7063
55.744084 96.344 172.4877
56.148028 96.329 172.2648
56.554900 96.314 172.0370
56.964720 96.299 171.8049
57.377510 96.283 171.5703
57.793291 96.267 171.3350
58.212085 96.251 171.1005
58.633914 96.234 170.8678
59.058799 96.216 170.6371
59.486764 96.198 170.4089
59.917829 96.180 170.1838
60.352019 96.161 169.9621
60.789354 96.141 169.7441
61.229859 96.121 169.5301
61.673556 96.101 169.3195
62.120468 96.080 169.1121
62.570618 96.059 168.9069
63.024031 96.038 168.7031
63.480729 96.017 168.4998
63.940736 95.995 168.2965
64.404077 95.974 168.0928
64.870776 95.952 167.8890
65.340856 95.930 167.6855
65.814343 95.908 167.4830
66.291261 95.886 167.2820
66.771635 95.864 167.0828
67.255489 95.841 166.8853
67.742850 95.819 166.6895
68.233743 95.796 166.4949
68.728193 95.773 166.3006
69.226226 95.749 166.1064
69.727867 95.726 165.9127
70.233144 95.701 165.7208
70.742083 95.677 165.5320
71.254709 95.653 165.3464
71.771050 95.629 165.1622
72.291132 95.606 164.9773
72.814984 95.583 164.7910
73.342631 95.561 164.6038
73.874102 95.539 164.4170
74.409424 95.517 164.2312
74.948626 95.496 164.0463
75.491734 95.475 163.8618
76.038779 95.454 163.6774
76.589787 95.433 163.4927
77.144788 95.412 163.3076
77.703811 95.390 163.1218
78.266885 95.368 162.9356
78.834039 95.344 162.7491
79.405303 95.320 162.5622
79.980706 95.295 162.3747
80.560280 95.270 162.1865
81.144053 95.244 161.9972
81.732056 95.217 161.8067
82.324320 95.189 161.6151
82.920876 95.161 161.4232
83.521755 95.131 161.2330
84.126988 95.101 161.0464
84.736607 95.069 160.8655
85.350643 95.037 160.6920
85.969129 95.004 160.5273
86.592097 94.970 160.3722
87.219579 94.937 160.2263
87.851608 94.904 160.0884
88.488217 94.871 159.9574
89.129439 94.839 159.8328
89.775308 94.807 159.7143
90.425856 94.776 159.6016
91.081119 94.746 159.4944
91.741131 94.717 159.3929
92.405925 94.689 159.2973
93.075536 94.661 159.2080
93.750000 94.635 159.1234
94.429351 94.610 159.0392
95.113625 94.587 158.9495
95.802858 94.564 158.8503
96.497085 94.540 158.7419
97.196342 94.515 158.6284
97.900667 94.489 158.5142
98.610096 94.461 158.4020
99.324665 94.432 158.2943
100.044413 94.403 158.1926
100.769376 94.373 158.0976
101.499592 94.344 158.0089
102.235100 94.313 157.9262
102.975938 94.283 157.8495
103.722144 94.254 157.7778
104.473757 94.224 157.7083
105.230817 94.195 157.6378
105.993363 94.165 157.5635
106.761435 94.136 157.4824
107.535072 94.106 157.3916
108.314315 94.075 157.2888
109.099206 94.044 157.1722
109.889783 94.011 157.0414
110.686090 93.977 156.8961
111.488167 93.942 156.7373
112.296056 93.906 156.5670
113.109800 93.868 156.3894
113.929440 93.829 156.2105
114.755020 93.788 156.0381
115.586582 93.747 155.8799
116.424170 93.705 155.7409
117.267827 93.663 155.6221
118.117598 93.622 155.5233
118.973527 93.580 155.4478
119.835658 93.538 155.4016
120.704037 93.498 155.3861
121.578708 93.459 155.3945
122.459718 93.424 155.4146
123.347111 93.391 155.4353
124.240935 93.360 155.4499
125.141236 93.330 155.4565
126.048061 93.302 155.4557
126.961458 93.275 155.4479
127.881473 93.250 155.4332
128.808154 93.226 155.4108
129.741551 93.202 155.3808
130.681712 93.179 155.3435
131.628686 93.155 155.2991
132.582521 93.132 155.2465
133.543269 93.107 155.1839
134.510979 93.082 155.1103
135.485701 93.056 155.0261
136.467486 93.028 154.9332
137.456386 92.999 154.8347
138.452451 92.969 154.7337
139.455735 92.937 154.6336
140.466288 92.905 154.5364
141.484165 92.873 154.4428
142.509418 92.840 154.3522
143.542100 92.806 154.2635
144.582265 92.771 154.1757
145.629968 92.735 154.0884
146.685262 92.698 154.0017
147.748204 92.659 153.9168
148.818849 92.618 153.8359
149.897251 92.576 153.7616
150.983469 92.533 153.6974
152.077557 92.490 153.6467
153.179574 92.446 153.6114
154.289576 92.403 153.5915
155.407622 92.362 153.5834
156.533770 92.322 153.5809
157.668078 92.285 153.5772
158.810606 92.248 153.5673
159.961413 92.213 153.5489
161.120559 92.177 153.5227
162.288105 92.141 153.4904
163.464112 92.104 153.4541
164.648640 92.066 153.4153
165.841752 92.027 153.3748
167.043510 91.987 153.3330
168.253976 91.945 153.2904
169.473213 91.902 153.2470
170.701286 91.857 153.2032
171.938258 91.811 153.1600
173.184194 91.762 153.1197
174.439158 91.711 153.0854
175.703216 91.658 153.0610
176.976434 91.602 153.0510
178.258878 91.544 153.0600
179.550615 91.484 153.0916
180.851713 91.425 153.1476
182.162239 91.366 153.2278
183.482262 91.310 153.3288
184.811850 91.256 153.4442
186.151073 91.207 153.5658
187.500000 91.161 153.6851
188.858702 91.117 153.7965
190.227250 91.075 153.8995
191.605715 91.032 153.9977
192.994169 90.989 154.0962
194.392685 90.947 154.1993
195.801334 90.905 154.3102
197.220191 90.864 154.4321
198.649330 90.825 154.5704
200.088825 90.789 154.7314
201.538751 90.758 154.9211
202.999184 90.732 155.1438
204.470200 90.713 155.4010
205.951875 90.703 155.6924
207.444287 90.702 156.0175
208.947514 90.711 156.3748
210.461634 90.732 156.7592
211.986726 90.765 157.1603
213.522869 90.810 157.5646
215.070144 90.869 157.9566
216.628631 90.942 158.3177
218.198411 91.029 158.6245
219.779567 91.133 158.8511
221.372180 91.251 158.9710
222.976334 91.385 158.9542
224.592112 91.533 158.7611
226.219600 91.694 158.3409
227.858880 91.862 157.6360
229.510039 92.032 156.5875
231.173164 92.195 155.1382
232.848340 92.338 153.2351
234.535655 92.445 150.8405
236.235197 92.496 147.9482
237.947054 92.468 144.5988
239.671317 92.338 140.8849
241.408074 92.087 136.9461
243.157416 91.699 132.9634
244.919435 91.160 129.1650
246.694223 90.463 125.8575
248.481871 89.608 123.4996
250.282473 88.611 122.8355
252.096123 87.524 125.0882
253.922915 86.465 131.9928
255.762945 85.632 144.5785
257.616309 85.223 159.8611
259.483103 85.290 171.9510
261.363424 85.688 178.7344
263.257372 86.214 -178.4485
265.165043 86.721 -177.9389
267.086538 87.140 -178.6359
269.021957 87.452 -179.9010
270.971401 87.660 178.6190
272.934972 87.779 177.1075
274.912771 87.826 175.6461
276.904902 87.817 174.2554
278.911469 87.770 172.9209
280.932577 87.700 171.6114
282.968330 87.620 170.2923
285.018835 87.546 168.9371
287.084199 87.489 167.5377
289.164530 87.459 166.1136
291.259935 87.463 164.7180
293.370525 87.502 163.4322
295.496408 87.573 162.3499
297.637697 87.668 161.5526
299.794503 87.774 161.0883
301.966937 87.877 160.9596
304.155114 87.965 161.1238
306.359147 88.031 161.5013
308.579152 88.075 161.9901
310.815244 88.102 162.4839
313.067539 88.122 162.8951
315.336156 88.146 163.1788
317.621211 88.176 163.3474
319.922826 88.210 163.4544
322.241118 88.241 163.5532
324.576210 88.262 163.6654
326.928223 88.273 163.7810
329.297280 88.274 163.8839
331.683504 88.270 163.9741
334.087019 88.264 164.0682
336.507952 88.255 164.1812
338.946427 88.243 164.3134
341.402572 88.227 164.4566
343.876516 88.207 164.6056
346.368387 88.184 164.7614
348.878315 88.160 164.9261
351.406431 88.134 165.0992
353.952867 88.107 165.2782
356.517756 88.079 165.4616
359.101230 88.050 165.6485
361.703426 88.022 165.8389
364.324478 87.993 166.0333
366.964523 87.964 166.2325
369.623699 87.934 166.4368
372.302145 87.905 166.6470
375.000000 87.874 166.8638
377.717405 87.844 167.0873
380.454501 87.813 167.3179
383.211431 87.783 167.5555
385.988339 87.752 167.8000
388.785369 87.721 168.0513
391.602668 87.690 168.3088
394.440383 87.659 168.5720
397.298660 87.628 168.8401
400.177650 87.598 169.1116
403.077502 87.568 169.3846
405.998368 87.537 169.6573
408.940400 87.507 169.9297
411.903750 87.476 170.2033
414.888575 87.445 170.4818
417.895028 87.413 170.7687
420.923268 87.381 171.0663
423.973452 87.350 171.3754
427.045738 87.320 171.6949
430.140287 87.292 172.0217
433.257261 87.266 172.3521
436.396822 87.241 172.6837
439.559133 87.217 173.0163
442.744360 87.195 173.3492
445.952668 87.174 173.6798
449.184225 87.154 174.0020
452.439199 87.135 174.3089
455.717760 87.115 174.5963
459.020079 87.094 174.8675
462.346327 87.070 175.1331
465.696680 87.044 175.4046
469.071310 87.016 175.6895
472.470394 86.987 175.9893
475.894109 86.959 176.3010
479.342634 86.931 176.6198
482.816148 86.904 176.9406
486.314833 86.876 177.2621
489.838871 86.847 177.5887
493.388445 86.817 177.9275
496.963741 86.788 178.2825
500.564945 86.759 178.6508
504.192245 86.732 179.0255
507.845830 86.706 179.4004
511.525890 86.681 179.7725
515.232618 86.655 -179.8573
518.966206 86.629 -179.4856
522.726849 86.602 -179.1076
526.514743 86.574 -178.7186
530.330086 86.546 -178.3158
534.173076 86.518 -177.9005
538.043915 86.492 -177.4764
541.942803 86.467 -177.0453
545.869944 86.443 -176.6058
549.825542 86.419 -176.1569
553.809805 86.397 -175.7002
557.822939 86.377 -175.2386
561.865154 86.357 -174.7743
565.936660 86.338 -174.3072
570.037671 86.320 -173.8351
574.168399 86.302 -173.3559
578.329060 86.284 -172.8687
582.519870 86.268 -172.3746
586.741049 86.253 -171.8744
590.992817 86.239 -171.3668
595.275394 86.227 -170.8500
599.589005 86.217 -170.3261
603.933874 86.210 -169.8006
608.310228 86.205 -169.2789
612.718295 86.201 -168.7638
617.158304 86.198 -168.2545
621.630488 86.196 -167.7463
626.135079 86.194 -167.2336
630.672311 86.193 -166.7150
635.242423 86.194 -166.1948
639.845651 86.198 -165.6788
644.482237 86.203 -165.1682
649.152421 86.210 -164.6612
653.856447 86.218 -164.1583
658.594560 86.229 -163.6654
663.367008 86.241 -163.1923
668.174039 86.254 -162.7457
673.015903 86.266 -162.3235
677.892854 86.275 -161.9162
682.805145 86.281 -161.5131
687.753032 86.285 -161.1059
692.736774 86.286 -160.6883
697.756631 86.287 -160.2549
702.812863 86.287 -159.8035
707.905735 86.289 -159.3363
713.035511 86.292 -158.8584
718.202461 86.296 -158.3743
723.406852 86.302 -157.8865
728.648956 86.309 -157.3952
733.929047 86.318 -156.9005
739.247399 86.327 -156.4024
744.604290 86.337 -155.9011
750.000000 86.349 -155.3962
755.434809 86.361 -154.8877
760.909001 86.374 -154.3758
766.422861 86.388 -153.8611
771.976677 86.404 -153.3448
777.570739 86.419 -152.8280
783.205337 86.436 -152.3112
788.880766 86.453 -151.7930
794.597321 86.471 -151.2694
800.355301 86.491 -150.7370
806.155005 86.513 -150.1962
811.996736 86.539 -149.6526
817.880799 86.568 -149.1146
823.807501 86.599 -148.5916
829.777150 86.633 -148.0914
835.790057 86.666 -147.6162
841.846536 86.698 -147.1592
847.946903 86.728 -146.7098
854.091476 86.756 -146.2598
860.280575 86.783 -145.8054
866.514523 86.809 -145.3440
872.793644 86.835 -144.8725
879.118267 86.862 -144.3912
885.488720 86.890 -143.9039
891.905336 86.919 -143.4141
898.368450 86.950 -142.9218
904.878398 86.981 -142.4249
911.435520 87.014 -141.9225
918.040157 87.049 -141.4166
924.692655 87.086 -140.9099
931.393359 87.124 -140.4058
938.142619 87.164 -139.9079
944.940787 87.206 -139.4183
951.788218 87.248 -138.9360
958.685268 87.290 -138.4585
965.632296 87.332 -137.9831
972.629666 87.375 -137.5068
979.677741 87.418 -137.0291
986.776890 87.462 -136.5509
993.927482 87.507 -136.0719
1001.129891 87.552 -135.5888
1008.384491 87.599 -135.0981
1015.691660 87.649 -134.5999
1023.051781 87.702 -134.0984
1030.465236 87.758 -133.6004
1037.932411 87.819 -133.1172
1045.453698 87.883 -132.6611
1053.029486 87.947 -132.2377
1060.660172 88.010 -131.8434
1068.346153 88.072 -131.4691
1076.087829 88.131 -131.1051
1083.885605 88.189 -130.7447
1091.739887 88.245 -130.3854
1099.651084 88.301 -130.0268
1107.619609 88.356 -129.6682
1115.645878 88.411 -129.3081
1123.730308 88.465 -128.9449
1131.873321 88.518 -128.5770
1140.075341 88.572 -128.2033
1148.336797 88.626 -127.8232
1156.658119 88.680 -127.4359
1165.039741 88.735 -127.0402
1173.482099 88.791 -126.6345
1181.985634 88.850 -126.2195
1190.550789 88.911 -125.8015
1199.178011 88.976 -125.3918
1207.867749 89.044 -125.0019
1216.620457 89.112 -124.6373
1225.436590 89.180 -124.2940
1234.316609 89.245 -123.9631
1243.260976 89.309 -123.6350
1252.270157 89.371 -123.3021
1261.344623 89.432 -122.9602
1270.484846 89.492 -122.6080
1279.691303 89.553 -122.2437
1288.964474 89.615 -121.8654
1298.304842 89.677 -121.4729
1307.712894 89.742 -121.0685
1317.189120 89.809 -120.6560
1326.734016 89.878 -120.2378
1336.348077 89.948 -119.8140
1346.031806 90.020 -119.3824
1355.785708 90.094 -118.9402
1365.610290 90.170 -118.4852
1375.506065 90.249 -118.0143
1385.473549 90.333 -117.5248
1395.513261 90.423 -117.0189
1405.625726 90.520 -116.5058
1415.811469 90.627 -116.0018
1426.071023 90.741 -115.5265
1436.404921 90.862 -115.0943
1446.813703 90.987 -114.7112
1457.297912 91.116 -114.3776
1467.858093 91.248 -114.0925
1478.494798 91.380 -113.8563
1489.208581 91.514 -113.6692
1500.000000 91.648 -113.5302
1510.869618 91.781 -113.4378
1521.818002 91.913 -113.3890
1532.845723 92.042 -113.3802
1543.953355 92.169 -113.4065
1555.141477 92.293 -113.4630
1566.410674 92.415 -113.5482
1577.761531 92.535 -113.6659
1589.194642 92.653 -113.8225
1600.710601 92.766 -114.0197
1612.310010 92.874 -114.2514
1623.993473 92.975 -114.5066
1635.761599 93.069 -114.7729
1647.615002 93.157 -115.0404
1659.554299 93.240 -115.3010
1671.580114 93.318 -115.5492
1683.693072 93.393 -115.7824
1695.893807 93.466 -116.0015
1708.182952 93.536 -116.2082
1720.561150 93.605 -116.4029
1733.029045 93.671 -116.5835
1745.587288 93.736 -116.7461
1758.236533 93.800 -116.8858
1770.977440 93.865 -116.9987
1783.810673 93.932 -117.0866
1796.736900 94.003 -117.1599
1809.756796 94.078 -117.2340
1822.871040 94.156 -117.3214
1836.080315 94.236 -117.4280
1849.385310 94.317 -117.5545
1862.786718 94.398 -117.6994
1876.285239 94.479 -117.8595
1889.881575 94.559 -118.0307
1903.576436 94.640 -118.2082
1917.370535 94.720 -118.3879
1931.264593 94.802 -118.5675
1945.259332 94.886 -118.7491
1959.355483 94.974 -118.9420
1973.553781 95.065 -119.1604
1987.854965 95.158 -119.4160
2002.259781 95.251 -119.7134
2016.768981 95.343 -120.0517
2031.383320 95.433 -120.4268
2046.103561 95.520 -120.8337
2060.930471 95.605 -121.2682
2075.864823 95.687 -121.7289
2090.907395 95.766 -122.2152
2106.058972 95.841 -122.7253
2121.320344 95.913 -123.2545
2136.692305 95.981 -123.7953
2152.175658 96.045 -124.3399
2167.771210 96.108 -124.8856
2183.479774 96.171 -125.4382
2199.302169 96.233 -126.0084
2215.239219 96.294 -126.6047
2231.291755 96.352 -127.2307
2247.460615 96.406 -127.8859
2263.746641 96.456 -128.5657
2280.150683 96.500 -129.2628
2296.673595 96.539 -129.9683
2313.316238 96.573 -130.6743
2330.079481 96.605 -131.3780
2346.964198 96.634 -132.0844
2363.971268 96.663 -132.8028
2381.101578 96.688 -133.5411
2398.356022 96.710 -134.3019
2415.735498 96.727 -135.0834
2433.240913 96.739 -135.8808
2450.873180 96.744 -136.6885
2468.633217 96.742 -137.5019
2486.521951 96.733 -138.3157
2504.540314 96.717 -139.1220
2522.689246 96.693 -139.9099
2540.969692 96.662 -140.6685
2559.382606 96.627 -141.3926
2577.928947 96.589 -142.0850
2596.609683 96.549 -142.7518
2615.425787 96.505 -143.3980
2634.378241 96.459 -144.0253
2653.468031 96.408 -144.6306
2672.696154 96.353 -145.2071
2692.063613 96.293 -145.7455
2711.571415 96.232 -146.2395
2731.220579 96.170 -146.6908
2751.012130 96.109 -147.1077
2770.947098 96.048 -147.5001
2791.026522 95.988 -147.8753
2811.251451 95.928 -148.2368
2831.622938 95.866 -148.5854
2852.142045 95.804 -148.9202
2872.809842 95.739 -149.2389
2893.627406 95.671 -149.5352
2914.595823 95.600 -149.7992
2935.716186 95.528 -150.0221
2956.989596 95.455 -150.2018
2978.417161 95.383 -150.3424
3000.000000 95.313 -150.4509
3021.739237 95.244 -150.5321
3043.636005 95.176 -150.5866
3065.691446 95.108 -150.6097
3087.906710 95.041 -150.5938
3110.282955 94.977 -150.5355
3132.821347 94.917 -150.4392
3155.523062 94.861 -150.3148
3178.389283 94.811 -150.1731
3201.421202 94.765 -150.0227
3224.620020 94.723 -149.8698
3247.986946 94.684 -149.7182
3271.523198 94.647 -149.5672
3295.230004 94.611 -149.4096
3319.108599 94.576 -149.2359
3343.160228 94.543 -149.0403
3367.386145 94.513 -148.8241
3391.787613 94.486 -148.5920
3416.365904 94.461 -148.3480
3441.122300 94.440 -148.0912
3466.058091 94.421 -147.8151
3491.174576 94.405 -147.5130
3516.473066 94.395 -147.1844
3541.954880 94.391 -146.8362
3567.621345 94.395 -146.4790
3593.473800 94.406 -146.1245
3619.513592 94.424 -145.7831
3645.742080 94.448 -145.4623
3672.160630 94.476 -145.1628
3698.770620 94.508 -144.8788
3725.573436 94.543 -144.6036
3752.570477 94.582 -144.3358
3779.763150 94.626 -144.0785
3807.152872 94.674 -143.8352
3834.741071 94.726 -143.6046
3862.529185 94.781 -143.3802
3890.518664 94.842 -143.1566
3918.710966 94.910 -142.9348
3947.107561 94.985 -142.7233
3975.709929 95.069 -142.5352
4004.519563 95.162 -142.3859
4033.537962 95.263 -142.2896
4062.766641 95.370 -142.2548
4092.207123 95.483 -142.2825
4121.860942 95.600 -142.3728
4151.729646 95.723 -142.5287
4181.814790 95.849 -142.7562
4212.117944 95.978 -143.0590
4242.640687 96.108 -143.4353
4273.384610 96.240 -143.8807
4304.351317 96.373 -144.3952
4335.542421 96.511 -144.9866
4366.959549 96.651 -145.6703
4398.604338 96.794 -146.4666
4430.478438 96.938 -147.3941
4462.583511 97.078 -148.4618
4494.921231 97.212 -149.6696
4527.493283 97.337 -151.0150
4560.301365 97.452 -152.4961
4593.347189 97.554 -154.1099
4626.632476 97.639 -155.8459
4660.158962 97.705 -157.6867
4693.928395 97.751 -159.6123
4727.942535 97.776 -161.6052
4762.203156 97.781 -163.6515
4796.712043 97.765 -165.7408
4831.470996 97.727 -167.8619
4866.481826 97.665 -169.9979
4901.746360 97.578 -172.1276
4937.266434 97.467 -174.2296
4973.043902 97.331 -176.2843
5009.080628 97.171 -178.2701
5045.378492 96.987 179.8380
5081.939384 96.780 178.0658
5118.765212 96.554 176.4345
5155.857894 96.313 174.9572
5193.219366 96.058 173.6371
5230.851574 95.795 172.4709
5268.756481 95.524 171.4545
5306.936062 95.248 170.5827
5345.392309 94.968 169.8481
5384.127225 94.686 169.2426
5423.142830 94.402 168.7623
5462.441159 94.115 168.4096
5502.024259 93.829 168.1894
5541.894195 93.544 168.1041
5582.053045 93.263 168.1491
5622.502902 92.990 168.3145
5663.245876 92.724 168.5893
5704.284090 92.467 168.9626
5745.619684 92.220 169.4221
5787.254813 91.982 169.9569
5829.191647 91.753 170.5627
5871.432373 91.532 171.2430
5913.979192 91.319 172.0047
5956.834323 91.117 172.8522
6000.000000 90.928 173.7819
6043.478473 90.754 174.7833
6087.272010 90.598 175.8387
6131.382892 90.461 176.9224
6175.813420 90.342 178.0041
6220.565910 90.241 179.0598
6265.642695 90.152 -179.9203
6311.046124 90.073 -178.9298
6356.778566 90.002 -177.9539
6402.842404 89.939 -176.9770
6449.240040 89.884 -175.9878
6495.973891 89.840 -174.9823
6543.046396 89.808 -173.9649
6590.460007 89.790 -172.9441
6638.217197 89.785 -171.9270
6686.320456 89.794 -170.9168
6734.772290 89.818 -169.9150
6783.575226 89.858 -168.9259
6832.731809 89.917 -167.9577
6882.244600 89.995 -167.0227
6932.116181 90.094 -166.1393
6982.349153 90.215 -165.3284
7032.946133 90.358 -164.6092
7083.909760 90.522 -163.9972
7135.242690 90.708 -163.5083
7186.947600 90.917 -163.1622
7239.027185 91.149 -162.9842
7291.484160 91.403 -163.0076
7344.321260 91.679 -163.2734
7397.541239 91.973 -163.8254
7451.146872 92.279 -164.7038
7505.140954 92.594 -165.9437
7559.526299 92.908 -167.5753
7614.305743 93.214 -169.6235
7669.482141 93.503 -172.1058
7725.058371 93.763 -175.0303
7781.037328 93.980 -178.3900
7837.421932 94.140 177.8464
7894.215122 94.230 173.7381
7951.419859 94.238 169.3712
8009.039125 94.155 164.8535
8067.075924 93.978 160.3053
8125.533282 93.707 155.8481
8184.414245 93.345 151.5941
8243.721885 92.900 147.6415
8303.459292 92.381 144.0721
8363.629581 91.800 140.9473
8424.235888 91.169 138.3088
8485.281374 90.501 136.1757
8546.769221 89.810 134.5423
8608.702634 89.110 133.3820
8671.084842 88.410 132.6560
8733.919097 87.718 132.3218
8797.208675 87.041 132.3393
8860.956876 86.382 132.6732
8925.167022 85.745 133.2890
8989.842461 85.133 134.1489
9054.986566 84.548 135.2148
9120.602731 83.990 136.4532
9186.694378 83.459 137.8392
9253.264952 82.952 139.3586
9320.317925 82.470 141.0016
9387.856790 82.012 142.7557
9455.885071 81.578 144.6040
9524.406312 81.168 146.5293
9593.424086 80.780 148.5200
9662.941992 80.413 150.5732
9732.963653 80.066 152.6895
9803.492719 79.740 154.8654
9874.532869 79.436 157.0913
9946.087805 79.151 159.3554
10018.161257 78.886 161.6503
10090.756983 78.640 163.9775
10163.878768 78.411 166.3403
10237.530423 78.202 168.7373
10311.715789 78.011 171.1602
10386.438732 77.839 173.6007
10461.703149 77.685 176.0574
10537.512962 77.550 178.5333
10613.872125 77.433 -178.9701
10690.784618 77.336 -176.4579
10768.254450 77.259 -173.9385
10846.285661 77.201 -171.4165
10924.882318 77.163 -168.8901
11004.048518 77.144 -166.3575
11083.788390 77.146 -163.8228
11164.106090 77.169 -161.2950
11245.005805 77.214 -158.7804
11326.491752 77.281 -156.2799
11408.568180 77.371 -153.7941
11491.239368 77.486 -151.3299
11574.509626 77.627 -148.9003
11658.383294 77.796 -146.5169
11742.864745 77.993 -144.1868
11827.958384 78.220 -141.9171
11913.668646 78.478 -139.7222
12000.000000 78.771 -137.6247
12086.956947 79.099 -135.6496
12174.544019 79.465 -133.8230
12262.765784 79.869 -132.1770
12351.626840 80.314 -130.7551
12441.131819 80.799 -129.6105
12531.285389 81.322 -128.8001
12622.092249 81.879 -128.3834
12713.557132 82.463 -128.4245
12805.684808 83.066 -128.9904
12898.480079 83.672 -130.1405
12991.947783 84.267 -131.9164
13086.092792 84.831 -134.3356
13180.920015 85.343 -137.3880
13276.434395 85.782 -141.0287
13372.640911 86.128 -145.1703
13469.544580 86.364 -149.6839
13567.150452 86.478 -154.4086
13665.463617 86.468 -159.1657
13764.489200 86.334 -163.7723
13864.232362 86.088 -168.0555
13964.698305 85.747 -171.8692
14065.892266 85.332 -175.1063
14167.819519 84.868 -177.7012
14270.485380 84.381 -179.6268
14373.895200 83.897 179.1082
14478.054370 83.439 178.4612
14582.968320 83.031 178.3632
14688.642520 82.693 178.7276
14795.082478 82.443 179.4507
14902.293745 82.298 -179.5935
15010.281908 82.273 -178.5555
15119.052599 82.378 -177.6123
15228.611486 82.616 -176.9684
15338.964283 82.979 -176.8477
15450.116741 83.446 -177.4694
15562.074656 83.985 -179.0192
15674.843864 84.551 178.3756
15788.430244 85.096 174.6638
15902.839718 85.571 169.8802
16018.078250 85.932 164.1465
16134.151848 86.144 157.6612
16251.066563 86.180 150.6827
16368.828491 86.028 143.5031
16487.443769 85.691 136.4144
16606.918584 85.182 129.6739
16727.259161 84.522 123.4822
16848.471777 83.741 117.9757
16970.562748 82.868 113.2258
17093.538442 81.935 109.2448
17217.405268 80.970 105.9982
17342.169684 79.999 103.4139
17467.838194 79.043 101.3909
17594.417350 78.118 99.8112
17721.913751 77.233 98.5520
17850.334044 76.392 97.4936
17979.684923 75.592 96.5285
18109.973131 74.828 95.5714
18241.205462 74.086 94.5634
18373.388756 73.353 93.4752
18506.529905 72.613 92.3127
18640.635849 71.849 91.1176
18775.713581 71.047 89.9639
18911.770141 70.196 88.9561
19048.812624 69.287 88.2219
19186.848172 68.322 87.9008
19325.883983 67.309 88.1263
19465.927305 66.271 88.9896
19606.985439 65.253 90.4775
19749.065738 64.330 92.3845
19892.175609 63.608 94.2480
20036.322514 63.206 95.4302
