* Measurement data measured by REW V5.31.3
* Source: EXCL: Microphone (USB Sound Device        ), MICROPHONE (Master Volume), R, volume: 0.390
* Format: 256k Log Swept Sine, 1 sweep at -17.0 dBFS with no timing reference
* Dated: Jul 4, 2025 1:37:46 PM
* REW Settings:
*  C-weighting compensation: Off
*  Target level: 75.0 dB
* Note: FlipEars Aegis L
* Measurement: L FlipEars Aegis L
* Smoothing: 1/12 octave
* Frequency Step: 96 ppo
* Start Frequency: 0.36621094 Hz
*
* Freq(Hz) SPL(dB) Phase(degrees)
0.366211 93.084 162.1430
0.368865 93.079 162.1240
0.371538 93.071 162.0956
0.374230 93.062 162.0600
0.376942 93.051 162.0189
0.379673 93.040 161.9738
0.382424 93.027 161.9256
0.385196 93.015 161.8747
0.387987 93.002 161.8216
0.390798 92.990 161.7663
0.393630 92.977 161.7090
0.396483 92.964 161.6498
0.399356 92.951 161.5885
0.402250 92.937 161.5252
0.405165 92.924 161.4599
0.408101 92.911 161.3926
0.411058 92.897 161.3233
0.414037 92.884 161.2518
0.417037 92.870 161.1783
0.420059 92.856 161.1027
0.423103 92.842 161.0250
0.426169 92.828 160.9451
0.429257 92.814 160.8631
0.432368 92.800 160.7789
0.435501 92.786 160.6926
0.438656 92.771 160.6040
0.441835 92.757 160.5131
0.445037 92.742 160.4201
0.448262 92.727 160.3248
0.451510 92.713 160.2272
0.454782 92.698 160.1273
0.458077 92.683 160.0251
0.461397 92.667 159.9207
0.464740 92.652 159.8138
0.468108 92.637 159.7047
0.471500 92.621 159.5932
0.474917 92.606 159.4793
0.478358 92.590 159.3631
0.481825 92.574 159.2444
0.485316 92.558 159.1234
0.488833 92.542 159.0000
0.492375 92.526 158.8742
0.495943 92.510 158.7459
0.499537 92.493 158.6153
0.503157 92.477 158.4822
0.506803 92.460 158.3467
0.510475 92.443 158.2088
0.514175 92.427 158.0685
0.517900 92.410 157.9257
0.521653 92.392 157.7805
0.525434 92.375 157.6329
0.529241 92.358 157.4829
0.533076 92.340 157.3305
0.536939 92.323 157.1757
0.540830 92.305 157.0186
0.544749 92.287 156.8590
0.548696 92.269 156.6971
0.552673 92.251 156.5329
0.556677 92.232 156.3664
0.560711 92.214 156.1976
0.564774 92.196 156.0265
0.568867 92.177 155.8532
0.572989 92.158 155.6777
0.577141 92.139 155.5001
0.581324 92.120 155.3203
0.585536 92.101 155.1384
0.589779 92.081 154.9545
0.594053 92.062 154.7685
0.598358 92.042 154.5806
0.602694 92.022 154.3908
0.607061 92.002 154.1992
0.611460 91.982 154.0057
0.615891 91.962 153.8106
0.620354 91.942 153.6138
0.624849 91.921 153.4155
0.629377 91.901 153.2156
0.633938 91.880 153.0144
0.638532 91.859 152.8118
0.643159 91.838 152.6080
0.647819 91.816 152.4031
0.652514 91.795 152.1972
0.657242 91.773 151.9904
0.662005 91.752 151.7828
0.666802 91.730 151.5745
0.671634 91.708 151.3657
0.676501 91.686 151.1566
0.681403 91.663 150.9472
0.686341 91.641 150.7377
0.691314 91.618 150.5282
0.696324 91.595 150.3190
0.701370 91.572 150.1101
0.706452 91.548 149.9017
0.711571 91.524 149.6938
0.716728 91.499 149.4863
0.721921 91.474 149.2792
0.727153 91.447 149.0721
0.732422 91.418 148.8643
0.737729 91.388 148.6552
0.743075 91.355 148.4438
0.748460 91.322 148.2297
0.753883 91.287 148.0121
0.759346 91.251 147.7908
0.764849 91.214 147.5655
0.770391 91.177 147.3360
0.775974 91.140 147.1022
0.781597 91.102 146.8641
0.787261 91.063 146.6215
0.792966 91.024 146.3745
0.798712 90.984 146.1230
0.804500 90.944 145.8670
0.810329 90.903 145.6064
0.816201 90.862 145.3413
0.822116 90.820 145.0715
0.828073 90.777 144.7972
0.834074 90.734 144.5183
0.840118 90.690 144.2347
0.846206 90.646 143.9466
0.852338 90.600 143.6538
0.858514 90.554 143.3565
0.864735 90.508 143.0546
0.871001 90.460 142.7481
0.877313 90.412 142.4371
0.883670 90.362 142.1217
0.890074 90.312 141.8018
0.896524 90.261 141.4776
0.903020 90.209 141.1490
0.909564 90.156 140.8163
0.916155 90.103 140.4794
0.922794 90.048 140.1386
0.929481 89.991 139.7938
0.936216 89.934 139.4453
0.943000 89.876 139.0931
0.949834 89.816 138.7375
0.956717 89.756 138.3786
0.963649 89.694 138.0167
0.970632 89.630 137.6519
0.977666 89.566 137.2845
0.984750 89.500 136.9148
0.991886 89.432 136.5430
0.999074 89.363 136.1695
1.006314 89.293 135.7946
1.013606 89.220 135.4187
1.020951 89.147 135.0422
1.028349 89.071 134.6654
1.035801 88.994 134.2890
1.043307 88.915 133.9133
1.050867 88.834 133.5389
1.058482 88.751 133.1663
1.066152 88.667 132.7960
1.073878 88.580 132.4285
1.081660 88.492 132.0642
1.089498 88.403 131.7032
1.097393 88.312 131.3457
1.105345 88.220 130.9913
1.113355 88.128 130.6397
1.121423 88.035 130.2905
1.129549 87.942 129.9431
1.137734 87.850 129.5974
1.145979 87.757 129.2529
1.154283 87.665 128.9095
1.162647 87.572 128.5668
1.171072 87.478 128.2248
1.179558 87.384 127.8831
1.188106 87.289 127.5415
1.196715 87.193 127.1999
1.205387 87.096 126.8579
1.214122 86.996 126.5154
1.222920 86.895 126.1720
1.231782 86.792 125.8276
1.240708 86.686 125.4817
1.249699 86.577 125.1341
1.258754 86.465 124.7846
1.267876 86.350 124.4326
1.277063 86.231 124.0780
1.286318 86.107 123.7202
1.295639 85.979 123.3590
1.305027 85.846 122.9938
1.314484 85.708 122.6243
1.324009 85.564 122.2499
1.333604 85.413 121.8701
1.343268 85.256 121.4845
1.353002 85.092 121.0925
1.362806 84.920 120.6934
1.372681 84.741 120.2867
1.382628 84.552 119.8717
1.392647 84.355 119.4478
1.402739 84.147 119.0144
1.412904 83.930 118.5708
1.423142 83.701 118.1165
1.433455 83.459 117.6511
1.443843 83.204 117.1743
1.454305 82.934 116.6864
1.464844 82.647 116.1876
1.475459 82.339 115.6787
1.486150 82.009 115.1602
1.496920 81.654 114.6324
1.507767 81.275 114.0953
1.518693 80.871 113.5484
1.529698 80.442 112.9908
1.540783 79.989 112.4215
1.551948 79.515 111.8390
1.563194 79.019 111.2417
1.574521 78.505 110.6276
1.585931 77.974 109.9945
1.597423 77.429 109.3398
1.608999 76.871 108.6605
1.620658 76.304 107.9530
1.632402 75.730 107.2133
1.644232 75.152 106.4366
1.656146 74.572 105.6171
1.668147 73.995 104.7482
1.680235 73.423 103.8216
1.692411 72.860 102.8277
1.704675 72.310 101.7546
1.717028 71.777 100.5876
1.729470 71.267 99.3088
1.742003 70.782 97.8957
1.754626 70.330 96.3200
1.767341 69.914 94.5460
1.780147 69.540 92.5276
1.793047 69.215 90.2051
1.806040 68.942 87.4999
1.819128 68.728 84.3066
1.832310 68.573 80.4805
1.845587 68.481 75.8184
1.858961 68.452 70.0330
1.872432 68.483 62.7290
1.886001 68.572 53.4172
1.899667 68.717 41.6608
1.913433 68.913 27.4881
1.927299 69.156 11.9317
1.941265 69.442 -3.1295
1.955332 69.766 -16.1265
1.969501 70.125 -26.5614
1.983773 70.513 -34.7040
1.998148 70.925 -41.0539
2.012627 71.357 -46.0686
2.027212 71.804 -50.0972
2.041902 72.260 -53.3908
2.056698 72.722 -56.1270
2.071602 73.183 -58.4320
2.086614 73.639 -60.3968
2.101734 74.086 -62.0882
2.116964 74.518 -63.5561
2.132304 74.933 -64.8390
2.147756 75.327 -65.9679
2.163320 75.699 -66.9687
2.178996 76.048 -67.8646
2.194786 76.377 -68.6772
2.210690 76.688 -69.4261
2.226710 76.985 -70.1282
2.242845 77.273 -70.7962
2.259098 77.553 -71.4385
2.275468 77.826 -72.0599
2.291957 78.095 -72.6629
2.308566 78.359 -73.2484
2.325295 78.619 -73.8161
2.342145 78.873 -74.3655
2.359117 79.124 -74.8952
2.376212 79.369 -75.4040
2.393431 79.610 -75.8905
2.410775 79.846 -76.3529
2.428244 80.076 -76.7896
2.445840 80.300 -77.1990
2.463564 80.519 -77.5795
2.481416 80.732 -77.9299
2.499397 80.938 -78.2490
2.517509 81.138 -78.5367
2.535752 81.330 -78.7935
2.554127 81.514 -79.0212
2.572635 81.689 -79.2228
2.591277 81.856 -79.4019
2.610055 82.012 -79.5618
2.628968 82.160 -79.7053
2.648019 82.298 -79.8341
2.667208 82.427 -79.9494
2.686535 82.549 -80.0516
2.706003 82.663 -80.1410
2.725612 82.771 -80.2174
2.745363 82.874 -80.2805
2.765257 82.972 -80.3300
2.785295 83.067 -80.3653
2.805478 83.159 -80.3860
2.825808 83.251 -80.3915
2.846285 83.342 -80.3812
2.866910 83.433 -80.3545
2.887685 83.526 -80.3108
2.908611 83.620 -80.2496
2.929688 83.714 -80.1705
2.950917 83.809 -80.0732
2.972301 83.904 -79.9578
2.993839 83.998 -79.8250
3.015534 84.090 -79.6757
3.037386 84.181 -79.5113
3.059396 84.271 -79.3332
3.081565 84.360 -79.1433
3.103896 84.448 -78.9432
3.126388 84.535 -78.7348
3.149043 84.623 -78.5199
3.171862 84.712 -78.3003
3.194847 84.801 -78.0774
3.217998 84.892 -77.8526
3.241317 84.984 -77.6266
3.264805 85.079 -77.3996
3.288463 85.175 -77.1709
3.312293 85.274 -76.9394
3.336295 85.374 -76.7039
3.360471 85.477 -76.4640
3.384822 85.581 -76.2203
3.409350 85.686 -75.9742
3.434056 85.793 -75.7280
3.458940 85.901 -75.4845
3.484005 86.010 -75.2466
3.509252 86.119 -75.0172
3.534681 86.229 -74.7995
3.560295 86.340 -74.5961
3.586094 86.450 -74.4092
3.612081 86.561 -74.2406
3.638255 86.673 -74.0910
3.664620 86.785 -73.9604
3.691175 86.897 -73.8476
3.717923 87.010 -73.7515
3.744864 87.123 -73.6710
3.772001 87.237 -73.6053
3.799335 87.351 -73.5541
3.826866 87.465 -73.5174
3.854597 87.578 -73.4954
3.882529 87.691 -73.4883
3.910664 87.802 -73.4964
3.939002 87.913 -73.5204
3.967546 88.021 -73.5604
3.996296 88.128 -73.6170
4.025255 88.233 -73.6904
4.054423 88.336 -73.7806
4.083804 88.438 -73.8873
4.113396 88.537 -74.0099
4.143204 88.635 -74.1474
4.173227 88.730 -74.2985
4.203468 88.824 -74.4620
4.233928 88.916 -74.6366
4.264609 89.005 -74.8209
4.295512 89.093 -75.0141
4.326639 89.177 -75.2154
4.357992 89.260 -75.4246
4.389572 89.339 -75.6419
4.421380 89.416 -75.8678
4.453419 89.490 -76.1026
4.485691 89.561 -76.3462
4.518196 89.629 -76.5979
4.550936 89.695 -76.8561
4.583914 89.758 -77.1191
4.617131 89.818 -77.3850
4.650589 89.877 -77.6518
4.684289 89.933 -77.9179
4.718233 89.987 -78.1822
4.752424 90.039 -78.4441
4.786862 90.088 -78.7038
4.821549 90.135 -78.9617
4.856488 90.180 -79.2181
4.891680 90.223 -79.4730
4.927127 90.263 -79.7259
4.962831 90.302 -79.9762
4.998794 90.339 -80.2229
5.035017 90.375 -80.4649
5.071503 90.410 -80.7014
5.108253 90.445 -80.9316
5.145270 90.478 -81.1552
5.182555 90.511 -81.3722
5.220110 90.543 -81.5832
5.257937 90.574 -81.7887
5.296038 90.605 -81.9896
5.334415 90.635 -82.1867
5.373071 90.665 -82.3808
5.412006 90.696 -82.5724
5.451224 90.727 -82.7619
5.490725 90.759 -82.9494
5.530514 90.792 -83.1349
5.570590 90.825 -83.3187
5.610957 90.859 -83.5016
5.651616 90.894 -83.6846
5.692570 90.930 -83.8695
5.733821 90.966 -84.0580
5.775370 91.004 -84.2516
5.817221 91.042 -84.4516
5.859375 91.082 -84.6590
5.901834 91.123 -84.8739
5.944602 91.164 -85.0968
5.987679 91.207 -85.3281
6.031068 91.251 -85.5686
6.074771 91.296 -85.8193
6.118792 91.341 -86.0816
6.163131 91.386 -86.3566
6.207792 91.432 -86.6451
6.252776 91.479 -86.9477
6.298086 91.525 -87.2644
6.343725 91.572 -87.5951
6.389694 91.619 -87.9392
6.435996 91.666 -88.2964
6.482634 91.712 -88.6663
6.529610 91.758 -89.0486
6.576926 91.804 -89.4432
6.624585 91.849 -89.8500
6.672590 91.893 -90.2688
6.720942 91.936 -90.6988
6.769645 91.979 -91.1391
6.818700 92.020 -91.5881
6.868111 92.061 -92.0447
6.917881 92.101 -92.5076
6.968010 92.140 -92.9761
7.018504 92.178 -93.4498
7.069362 92.216 -93.9280
7.120590 92.252 -94.4099
7.172189 92.288 -94.8942
7.224161 92.323 -95.3796
7.276511 92.358 -95.8647
7.329239 92.393 -96.3487
7.382350 92.427 -96.8309
7.435845 92.461 -97.3111
7.489729 92.495 -97.7889
7.544002 92.530 -98.2641
7.598669 92.564 -98.7360
7.653732 92.600 -99.2042
7.709194 92.636 -99.6685
7.765058 92.672 -100.1287
7.821327 92.710 -100.5850
7.878004 92.749 -101.0378
7.935091 92.789 -101.4875
7.992592 92.830 -101.9345
8.050510 92.872 -102.3793
8.108847 92.916 -102.8220
8.167607 92.961 -103.2631
8.226793 93.008 -103.7029
8.286408 93.056 -104.1421
8.346454 93.105 -104.5814
8.406936 93.155 -105.0213
8.467856 93.207 -105.4622
8.529218 93.260 -105.9042
8.591024 93.314 -106.3475
8.653278 93.368 -106.7920
8.715983 93.424 -107.2378
8.779143 93.480 -107.6851
8.842760 93.536 -108.1336
8.906839 93.593 -108.5830
8.971381 93.650 -109.0330
9.036392 93.707 -109.4827
9.101873 93.764 -109.9317
9.167829 93.821 -110.3793
9.234263 93.878 -110.8249
9.301178 93.934 -111.2680
9.368578 93.990 -111.7076
9.436467 94.046 -112.1430
9.504847 94.101 -112.5734
9.573723 94.155 -112.9981
9.643099 94.210 -113.4167
9.712976 94.263 -113.8286
9.783361 94.317 -114.2334
9.854255 94.370 -114.6306
9.925663 94.423 -115.0200
9.997588 94.475 -115.4014
10.070035 94.527 -115.7749
10.143007 94.579 -116.1405
10.216507 94.631 -116.4986
10.290540 94.682 -116.8492
10.365109 94.734 -117.1926
10.440219 94.785 -117.5294
10.515873 94.836 -117.8600
10.592076 94.887 -118.1850
10.668830 94.937 -118.5047
10.746141 94.987 -118.8198
10.824012 95.037 -119.1306
10.902447 95.086 -119.4377
10.981451 95.135 -119.7414
11.061027 95.183 -120.0423
11.141180 95.230 -120.3405
11.221913 95.276 -120.6363
11.303232 95.322 -120.9300
11.385140 95.366 -121.2216
11.467641 95.410 -121.5114
11.550741 95.452 -121.7993
11.634442 95.493 -122.0855
11.718750 95.533 -122.3699
11.803669 95.572 -122.6525
11.889203 95.610 -122.9334
11.975357 95.646 -123.2127
12.062136 95.681 -123.4903
12.149543 95.714 -123.7663
12.237583 95.747 -124.0409
12.326262 95.778 -124.3142
12.415583 95.807 -124.5864
12.505552 95.836 -124.8577
12.596172 95.863 -125.1283
12.687449 95.890 -125.3987
12.779387 95.915 -125.6689
12.871992 95.939 -125.9395
12.965268 95.962 -126.2108
13.059220 95.984 -126.4832
13.153852 96.005 -126.7570
13.249170 96.025 -127.0327
13.345179 96.045 -127.3106
13.441884 96.063 -127.5912
13.539289 96.081 -127.8750
13.637401 96.098 -128.1622
13.736223 96.114 -128.4532
13.835761 96.130 -128.7486
13.936021 96.145 -129.0485
14.037007 96.160 -129.3533
14.138725 96.174 -129.6633
14.241180 96.187 -129.9787
14.344377 96.200 -130.2998
14.448323 96.213 -130.6265
14.553021 96.225 -130.9591
14.658478 96.237 -131.2975
14.764700 96.248 -131.6416
14.871691 96.259 -131.9915
14.979457 96.270 -132.3468
15.088005 96.281 -132.7075
15.197339 96.292 -133.0733
15.307465 96.303 -133.4440
15.418389 96.314 -133.8194
15.530117 96.325 -134.1990
15.642655 96.336 -134.5828
15.756008 96.347 -134.9703
15.870182 96.359 -135.3613
15.985184 96.371 -135.7553
16.101019 96.383 -136.1521
16.217694 96.396 -136.5511
16.335214 96.409 -136.9518
16.453586 96.422 -137.3536
16.572815 96.436 -137.7559
16.692909 96.450 -138.1579
16.813872 96.465 -138.5588
16.935713 96.479 -138.9578
17.058436 96.494 -139.3540
17.182048 96.510 -139.7465
17.306556 96.526 -140.1347
17.431967 96.543 -140.5179
17.558286 96.560 -140.8956
17.685521 96.577 -141.2675
17.813677 96.595 -141.6335
17.942762 96.614 -141.9936
18.072783 96.634 -142.3481
18.203746 96.654 -142.6972
18.335658 96.674 -143.0412
18.468526 96.695 -143.3807
18.602356 96.716 -143.7159
18.737156 96.736 -144.0469
18.872934 96.757 -144.3738
19.009695 96.777 -144.6964
19.147447 96.797 -145.0143
19.286197 96.816 -145.3271
19.425953 96.834 -145.6342
19.566721 96.851 -145.9348
19.708510 96.867 -146.2286
19.851326 96.883 -146.5150
19.995177 96.897 -146.7938
20.140070 96.910 -147.0654
20.286013 96.923 -147.3300
20.433014 96.935 -147.5885
20.581080 96.947 -147.8420
20.730219 96.958 -148.0918
20.880439 96.969 -148.3393
21.031747 96.979 -148.5859
21.184152 96.988 -148.8330
21.337661 96.997 -149.0817
21.492282 97.005 -149.3330
21.648024 97.013 -149.5874
21.804895 97.019 -149.8455
21.962902 97.024 -150.1072
22.122054 97.029 -150.3728
22.282360 97.032 -150.6421
22.443827 97.035 -150.9153
22.606464 97.037 -151.1925
22.770280 97.038 -151.4742
22.935283 97.039 -151.7609
23.101481 97.040 -152.0533
23.268884 97.041 -152.3522
23.437500 97.041 -152.6583
23.607338 97.042 -152.9720
23.778406 97.042 -153.2934
23.950714 97.042 -153.6223
24.124271 97.041 -153.9578
24.299086 97.040 -154.2986
24.475167 97.039 -154.6429
24.652524 97.037 -154.9886
24.831166 97.034 -155.3337
25.011103 97.032 -155.6760
25.192344 97.029 -156.0141
25.374898 97.027 -156.3468
25.558775 97.026 -156.6736
25.743984 97.026 -156.9948
25.930536 97.027 -157.3111
26.118439 97.030 -157.6239
26.307704 97.034 -157.9345
26.498341 97.039 -158.2440
26.690359 97.045 -158.5533
26.883768 97.051 -158.8627
27.078579 97.058 -159.1718
27.274801 97.064 -159.4797
27.472446 97.070 -159.7851
27.671522 97.076 -160.0867
27.872042 97.080 -160.3831
28.074014 97.085 -160.6735
28.277450 97.089 -160.9576
28.482360 97.092 -161.2357
28.688755 97.095 -161.5087
28.896645 97.098 -161.7778
29.106042 97.100 -162.0443
29.316957 97.102 -162.3092
29.529400 97.102 -162.5734
29.743382 97.102 -162.8374
29.958915 97.101 -163.1012
30.176009 97.100 -163.3649
30.394677 97.097 -163.6285
30.614929 97.093 -163.8921
30.836778 97.089 -164.1562
31.060234 97.084 -164.4217
31.285309 97.079 -164.6894
31.512015 97.073 -164.9601
31.740364 97.068 -165.2347
31.970368 97.061 -165.5132
32.202039 97.055 -165.7957
32.435388 97.048 -166.0815
32.670428 97.041 -166.3699
32.907171 97.034 -166.6602
33.145630 97.027 -166.9518
33.385817 97.020 -167.2443
33.627745 97.013 -167.5377
33.871425 97.007 -167.8318
34.116871 97.001 -168.1264
34.364096 96.995 -168.4213
34.613113 96.989 -168.7157
34.863934 96.984 -169.0087
35.116572 96.978 -169.2996
35.371041 96.973 -169.5875
35.627354 96.967 -169.8719
35.885525 96.961 -170.1525
36.145566 96.955 -170.4294
36.407492 96.950 -170.7026
36.671316 96.943 -170.9720
36.937051 96.937 -171.2377
37.204712 96.930 -171.4992
37.474313 96.922 -171.7567
37.745867 96.914 -172.0101
38.019389 96.906 -172.2601
38.294893 96.898 -172.5076
38.572394 96.889 -172.7538
38.851905 96.880 -172.9998
39.133442 96.871 -173.2466
39.417019 96.862 -173.4943
39.702651 96.852 -173.7433
39.990353 96.842 -173.9932
40.280140 96.831 -174.2441
40.572026 96.821 -174.4961
40.866028 96.810 -174.7495
41.162160 96.799 -175.0045
41.460438 96.788 -175.2612
41.760877 96.777 -175.5193
42.063494 96.766 -175.7781
42.368303 96.755 -176.0363
42.675322 96.744 -176.2930
42.984565 96.732 -176.5472
43.296048 96.720 -176.7982
43.609789 96.709 -177.0458
43.925804 96.698 -177.2898
44.244108 96.687 -177.5308
44.564719 96.676 -177.7692
44.887654 96.666 -178.0061
45.212928 96.656 -178.2426
45.540560 96.647 -178.4796
45.870565 96.637 -178.7180
46.202962 96.627 -178.9580
46.537768 96.616 -179.1993
46.875000 96.605 -179.4413
47.214676 96.594 -179.6835
47.556813 96.582 -179.9254
47.901429 96.570 179.8331
48.248542 96.558 179.5919
48.598171 96.545 179.3509
48.950334 96.532 179.1106
49.305048 96.519 178.8713
49.662333 96.505 178.6336
50.022206 96.492 178.3974
50.384688 96.478 178.1625
50.749796 96.465 177.9283
51.117550 96.451 177.6945
51.487969 96.438 177.4612
51.861072 96.424 177.2292
52.236879 96.409 176.9993
52.615409 96.394 176.7724
52.996681 96.379 176.5491
53.380717 96.364 176.3292
53.767536 96.349 176.1120
54.157158 96.334 175.8964
54.549603 96.319 175.6813
54.944892 96.305 175.4655
55.343045 96.291 175.2481
55.744084 96.277 175.0286
56.148028 96.264 174.8066
56.554900 96.250 174.5820
56.964720 96.236 174.3544
57.377510 96.223 174.1235
57.793291 96.209 173.8896
58.212085 96.195 173.6533
58.633914 96.180 173.4161
59.058799 96.164 173.1800
59.486764 96.147 172.9465
59.917829 96.130 172.7162
60.352019 96.113 172.4887
60.789354 96.095 172.2632
61.229859 96.077 172.0390
61.673556 96.059 171.8159
62.120468 96.039 171.5940
62.570618 96.020 171.3736
63.024031 96.000 171.1550
63.480729 95.979 170.9383
63.940736 95.959 170.7235
64.404077 95.938 170.5105
64.870776 95.918 170.2992
65.340856 95.897 170.0895
65.814343 95.877 169.8815
66.291261 95.857 169.6753
66.771635 95.837 169.4712
67.255489 95.816 169.2692
67.742850 95.796 169.0692
68.233743 95.776 168.8707
68.728193 95.756 168.6735
69.226226 95.736 168.4772
69.727867 95.715 168.2816
70.233144 95.694 168.0868
70.742083 95.672 167.8930
71.254709 95.651 167.7006
71.771050 95.629 167.5094
72.291132 95.607 167.3191
72.814984 95.585 167.1292
73.342631 95.563 166.9394
73.874102 95.541 166.7500
74.409424 95.519 166.5617
74.948626 95.497 166.3750
75.491734 95.476 166.1905
76.038779 95.455 166.0079
76.589787 95.435 165.8271
77.144788 95.414 165.6472
77.703811 95.394 165.4678
78.266885 95.375 165.2882
78.834039 95.355 165.1076
79.405303 95.335 164.9252
79.980706 95.315 164.7399
80.560280 95.295 164.5505
81.144053 95.274 164.3562
81.732056 95.252 164.1566
82.324320 95.228 163.9523
82.920876 95.204 163.7442
83.521755 95.177 163.5338
84.126988 95.149 163.3235
84.736607 95.119 163.1163
85.350643 95.088 162.9148
85.969129 95.057 162.7204
86.592097 95.024 162.5334
87.219579 94.992 162.3534
87.851608 94.960 162.1799
88.488217 94.929 162.0116
89.129439 94.898 161.8477
89.775308 94.868 161.6874
90.425856 94.838 161.5302
91.081119 94.807 161.3758
91.741131 94.777 161.2245
92.405925 94.747 161.0760
93.075536 94.716 160.9297
93.750000 94.686 160.7849
94.429351 94.654 160.6412
95.113625 94.623 160.4980
95.802858 94.591 160.3542
96.497085 94.558 160.2098
97.196342 94.525 160.0655
97.900667 94.491 159.9221
98.610096 94.456 159.7803
99.324665 94.421 159.6412
100.044413 94.386 159.5064
100.769376 94.349 159.3773
101.499592 94.312 159.2560
102.235100 94.274 159.1454
102.975938 94.235 159.0475
103.722144 94.196 158.9631
104.473757 94.156 158.8924
105.230817 94.116 158.8366
105.993363 94.076 158.7973
106.761435 94.038 158.7750
107.535072 94.000 158.7694
108.314315 93.966 158.7798
109.099206 93.934 158.8035
109.889783 93.907 158.8361
110.686090 93.884 158.8715
111.488167 93.866 158.9027
112.296056 93.851 158.9208
113.109800 93.838 158.9180
113.929440 93.826 158.8911
114.755020 93.812 158.8416
115.586582 93.795 158.7741
116.424170 93.775 158.6942
117.267827 93.752 158.6089
118.117598 93.728 158.5244
118.973527 93.705 158.4402
119.835658 93.684 158.3469
120.704037 93.667 158.2321
121.578708 93.652 158.0908
122.459718 93.637 157.9291
123.347111 93.620 157.7583
124.240935 93.602 157.5890
125.141236 93.581 157.4285
126.048061 93.558 157.2796
126.961458 93.533 157.1408
127.881473 93.506 157.0084
128.808154 93.478 156.8788
129.741551 93.449 156.7496
130.681712 93.419 156.6196
131.628686 93.388 156.4887
132.582521 93.357 156.3575
133.543269 93.326 156.2272
134.510979 93.294 156.0995
135.485701 93.261 155.9757
136.467486 93.228 155.8558
137.456386 93.193 155.7390
138.452451 93.158 155.6248
139.455735 93.122 155.5129
140.466288 93.085 155.4035
141.484165 93.048 155.2965
142.509418 93.011 155.1912
143.542100 92.973 155.0872
144.582265 92.935 154.9852
145.629968 92.896 154.8858
146.685262 92.857 154.7892
147.748204 92.816 154.6957
148.818849 92.775 154.6059
149.897251 92.732 154.5216
150.983469 92.688 154.4455
152.077557 92.644 154.3806
153.179574 92.599 154.3285
154.289576 92.554 154.2884
155.407622 92.511 154.2567
156.533770 92.468 154.2271
157.668078 92.426 154.1926
158.810606 92.384 154.1480
159.961413 92.343 154.0922
161.120559 92.300 154.0274
162.288105 92.255 153.9586
163.464112 92.209 153.8915
164.648640 92.159 153.8317
165.841752 92.107 153.7834
167.043510 92.051 153.7509
168.253976 91.991 153.7386
169.473213 91.927 153.7509
170.701286 91.861 153.7913
171.938258 91.792 153.8633
173.184194 91.723 153.9716
174.439158 91.654 154.1209
175.703216 91.587 154.3162
176.976434 91.523 154.5615
178.258878 91.463 154.8594
179.550615 91.410 155.2092
180.851713 91.364 155.6058
182.162239 91.328 156.0399
183.482262 91.303 156.4982
184.811850 91.289 156.9659
186.151073 91.286 157.4285
187.500000 91.295 157.8708
188.858702 91.313 158.2772
190.227250 91.340 158.6319
191.605715 91.374 158.9225
192.994169 91.414 159.1410
194.392685 91.458 159.2832
195.801334 91.503 159.3484
197.220191 91.547 159.3400
198.649330 91.590 159.2657
200.088825 91.628 159.1344
201.538751 91.662 158.9520
202.999184 91.690 158.7213
204.470200 91.712 158.4427
205.951875 91.727 158.1180
207.444287 91.736 157.7509
208.947514 91.736 157.3470
210.461634 91.729 156.9141
211.986726 91.715 156.4605
213.522869 91.696 155.9933
215.070144 91.673 155.5160
216.628631 91.649 155.0260
218.198411 91.626 154.5146
219.779567 91.606 153.9661
221.372180 91.589 153.3583
222.976334 91.574 152.6639
224.592112 91.559 151.8521
226.219600 91.538 150.8937
227.858880 91.503 149.7673
229.510039 91.445 148.4677
231.173164 91.350 147.0140
232.848340 91.206 145.4553
234.535655 91.004 143.8732
236.235197 90.734 142.3818
237.947054 90.394 141.1235
239.671317 89.986 140.2623
241.408074 89.522 139.9702
243.157416 89.024 140.4022
244.919435 88.524 141.6573
246.694223 88.062 143.7295
248.481871 87.680 146.4676
250.282473 87.410 149.5824
252.096123 87.265 152.7163
253.922915 87.237 155.5471
255.762945 87.298 157.8649
257.616309 87.419 159.5894
259.483103 87.569 160.7420
261.363424 87.726 161.4052
263.257372 87.876 161.6861
265.165043 88.013 161.6903
267.086538 88.134 161.5082
269.021957 88.243 161.2122
270.971401 88.343 160.8589
272.934972 88.439 160.4926
274.912771 88.533 160.1500
276.904902 88.628 159.8635
278.911469 88.724 159.6619
280.932577 88.819 159.5669
282.968330 88.911 159.5891
285.018835 88.995 159.7237
287.084199 89.069 159.9497
289.164530 89.129 160.2321
291.259935 89.173 160.5276
293.370525 89.202 160.7921
295.496408 89.221 160.9854
297.637697 89.234 161.0755
299.794503 89.244 161.0424
301.966937 89.252 160.8815
304.155114 89.253 160.6084
306.359147 89.239 160.2623
308.579152 89.201 159.9045
310.815244 89.138 159.6074
313.067539 89.052 159.4347
315.336156 88.953 159.4243
317.621211 88.853 159.5773
319.922826 88.761 159.8611
322.241118 88.682 160.2250
324.576210 88.616 160.6187
326.928223 88.562 161.0052
329.297280 88.517 161.3651
331.683504 88.479 161.6927
334.087019 88.444 161.9904
336.507952 88.412 162.2632
338.946427 88.381 162.5178
341.402572 88.351 162.7608
343.876516 88.320 162.9991
346.368387 88.288 163.2383
348.878315 88.257 163.4820
351.406431 88.224 163.7316
353.952867 88.192 163.9869
356.517756 88.159 164.2465
359.101230 88.125 164.5089
361.703426 88.090 164.7730
364.324478 88.055 165.0385
366.964523 88.020 165.3062
369.623699 87.984 165.5776
372.302145 87.950 165.8543
375.000000 87.916 166.1377
377.717405 87.883 166.4287
380.454501 87.852 166.7271
383.211431 87.821 167.0315
385.988339 87.791 167.3398
388.785369 87.762 167.6496
391.602668 87.733 167.9589
394.440383 87.705 168.2662
397.298660 87.678 168.5706
400.177650 87.653 168.8710
403.077502 87.628 169.1667
405.998368 87.604 169.4567
408.940400 87.581 169.7412
411.903750 87.557 170.0220
414.888575 87.533 170.3024
417.895028 87.508 170.5864
420.923268 87.482 170.8770
423.973452 87.457 171.1756
427.045738 87.432 171.4814
430.140287 87.408 171.7905
433.257261 87.385 172.0984
436.396822 87.363 172.4024
439.559133 87.341 172.7024
442.744360 87.320 172.9991
445.952668 87.299 173.2914
449.184225 87.279 173.5750
452.439199 87.260 173.8451
455.717760 87.239 174.0989
459.020079 87.216 174.3405
462.346327 87.190 174.5807
465.696680 87.161 174.8322
469.071310 87.130 175.1029
472.470394 87.099 175.3946
475.894109 87.068 175.7038
479.342634 87.038 176.0236
482.816148 87.009 176.3470
486.314833 86.979 176.6706
489.838871 86.950 176.9985
493.388445 86.920 177.3381
496.963741 86.890 177.6931
500.564945 86.862 178.0593
504.192245 86.836 178.4279
507.845830 86.812 178.7916
511.525890 86.788 179.1477
515.232618 86.763 179.4978
518.966206 86.738 179.8463
522.726849 86.713 -179.8010
526.514743 86.686 -179.4385
530.330086 86.659 -179.0629
534.173076 86.633 -178.6758
538.043915 86.608 -178.2812
541.942803 86.583 -177.8811
545.869944 86.558 -177.4745
549.825542 86.533 -177.0603
553.809805 86.510 -176.6395
557.822939 86.487 -176.2141
561.865154 86.464 -175.7854
565.936660 86.442 -175.3529
570.037671 86.421 -174.9138
574.168399 86.399 -174.4649
578.329060 86.377 -174.0050
582.519870 86.357 -173.5351
586.741049 86.337 -173.0568
590.992817 86.318 -172.5692
595.275394 86.301 -172.0708
599.589005 86.286 -171.5637
603.933874 86.273 -171.0536
608.310228 86.262 -170.5465
612.718295 86.253 -170.0453
617.158304 86.244 -169.5484
621.630488 86.236 -169.0496
626.135079 86.229 -168.5418
630.672311 86.223 -168.0221
635.242423 86.219 -167.4945
639.845651 86.217 -166.9653
644.482237 86.217 -166.4373
649.152421 86.220 -165.9101
653.856447 86.225 -165.3857
658.594560 86.234 -164.8714
663.367008 86.245 -164.3782
668.174039 86.257 -163.9137
673.015903 86.269 -163.4763
677.892854 86.279 -163.0565
682.805145 86.286 -162.6436
687.753032 86.291 -162.2292
692.736774 86.294 -161.8072
697.756631 86.296 -161.3730
702.812863 86.297 -160.9250
707.905735 86.299 -160.4653
713.035511 86.302 -159.9978
718.202461 86.305 -159.5251
723.406852 86.309 -159.0479
728.648956 86.314 -158.5650
733.929047 86.319 -158.0759
739.247399 86.325 -157.5805
744.604290 86.332 -157.0793
750.000000 86.340 -156.5726
755.434809 86.349 -156.0608
760.909001 86.360 -155.5445
766.422861 86.371 -155.0241
771.976677 86.384 -154.5000
777.570739 86.399 -153.9731
783.205337 86.414 -153.4442
788.880766 86.430 -152.9125
794.597321 86.448 -152.3753
800.355301 86.467 -151.8301
806.155005 86.489 -151.2778
811.996736 86.514 -150.7239
817.880799 86.543 -150.1767
823.807501 86.575 -149.6453
829.777150 86.608 -149.1376
835.790057 86.642 -148.6554
841.846536 86.674 -148.1920
847.946903 86.705 -147.7371
854.091476 86.734 -147.2828
860.280575 86.762 -146.8248
866.514523 86.790 -146.3600
872.793644 86.817 -145.8848
879.118267 86.846 -145.3993
885.488720 86.876 -144.9081
891.905336 86.907 -144.4150
898.368450 86.938 -143.9202
904.878398 86.971 -143.4212
911.435520 87.005 -142.9173
918.040157 87.041 -142.4100
924.692655 87.079 -141.9025
931.393359 87.118 -141.3982
938.142619 87.160 -140.9013
944.940787 87.203 -140.4145
951.788218 87.246 -139.9374
958.685268 87.290 -139.4678
965.632296 87.334 -139.0029
972.629666 87.379 -138.5392
979.677741 87.423 -138.0751
986.776890 87.469 -137.6105
993.927482 87.515 -137.1436
1001.129891 87.561 -136.6699
1008.384491 87.609 -136.1853
1015.691660 87.659 -135.6911
1023.051781 87.712 -135.1927
1030.465236 87.770 -134.6989
1037.932411 87.831 -134.2218
1045.453698 87.895 -133.7737
1053.029486 87.961 -133.3598
1060.660172 88.026 -132.9761
1068.346153 88.089 -132.6136
1076.087829 88.150 -132.2626
1083.885605 88.209 -131.9161
1091.739887 88.267 -131.5713
1099.651084 88.325 -131.2280
1107.619609 88.381 -130.8855
1115.645878 88.437 -130.5426
1123.730308 88.492 -130.1976
1131.873321 88.546 -129.8490
1140.075341 88.600 -129.4953
1148.336797 88.654 -129.1357
1156.658119 88.708 -128.7692
1165.039741 88.763 -128.3945
1173.482099 88.818 -128.0097
1181.985634 88.876 -127.6152
1190.550789 88.937 -127.2167
1199.178011 89.001 -126.8251
1207.867749 89.068 -126.4518
1216.620457 89.136 -126.1023
1225.436590 89.203 -125.7725
1234.316609 89.267 -125.4534
1243.260976 89.330 -125.1356
1252.270157 89.391 -124.8110
1261.344623 89.451 -124.4750
1270.484846 89.511 -124.1265
1279.691303 89.571 -123.7642
1288.964474 89.632 -123.3870
1298.304842 89.696 -122.9964
1307.712894 89.761 -122.5956
1317.189120 89.829 -122.1893
1326.734016 89.900 -121.7801
1336.348077 89.973 -121.3678
1346.031806 90.048 -120.9503
1355.785708 90.126 -120.5251
1365.610290 90.207 -120.0906
1375.506065 90.291 -119.6446
1385.473549 90.380 -119.1859
1395.513261 90.475 -118.7174
1405.625726 90.578 -118.2495
1415.811469 90.690 -117.7994
1426.071023 90.810 -117.3874
1436.404921 90.936 -117.0283
1446.813703 91.066 -116.7279
1457.297912 91.198 -116.4853
1467.858093 91.332 -116.2981
1478.494798 91.465 -116.1644
1489.208581 91.598 -116.0819
1500.000000 91.728 -116.0477
1510.869618 91.856 -116.0573
1521.818002 91.980 -116.1054
1532.845723 92.101 -116.1858
1543.953355 92.217 -116.2916
1555.141477 92.330 -116.4166
1566.410674 92.440 -116.5584
1577.761531 92.549 -116.7208
1589.194642 92.654 -116.9107
1600.710601 92.756 -117.1308
1612.310010 92.853 -117.3766
1623.993473 92.944 -117.6388
1635.761599 93.029 -117.9068
1647.615002 93.108 -118.1718
1659.554299 93.183 -118.4273
1671.580114 93.255 -118.6688
1683.693072 93.324 -118.8950
1695.893807 93.391 -119.1080
1708.182952 93.456 -119.3102
1720.561150 93.520 -119.5023
1733.029045 93.582 -119.6823
1745.587288 93.643 -119.8466
1758.236533 93.703 -119.9900
1770.977440 93.764 -120.1088
1783.810673 93.828 -120.2053
1796.736900 93.895 -120.2900
1809.756796 93.967 -120.3782
1822.871040 94.042 -120.4825
1836.080315 94.119 -120.6082
1849.385310 94.197 -120.7558
1862.786718 94.274 -120.9234
1876.285239 94.351 -121.1076
1889.881575 94.427 -121.3037
1903.576436 94.502 -121.5067
1917.370535 94.578 -121.7120
1931.264593 94.654 -121.9170
1945.259332 94.732 -122.1238
1959.355483 94.813 -122.3418
1973.553781 94.897 -122.5850
1987.854965 94.983 -122.8651
2002.259781 95.069 -123.1865
2016.768981 95.153 -123.5480
2031.383320 95.236 -123.9453
2046.103561 95.315 -124.3730
2060.930471 95.392 -124.8267
2075.864823 95.466 -125.3046
2090.907395 95.536 -125.8059
2106.058972 95.603 -126.3286
2121.320344 95.665 -126.8676
2136.692305 95.723 -127.4150
2152.175658 95.777 -127.9625
2167.771210 95.829 -128.5072
2183.479774 95.881 -129.0548
2199.302169 95.932 -129.6156
2215.239219 95.982 -130.1982
2231.291755 96.029 -130.8065
2247.460615 96.073 -131.4399
2263.746641 96.112 -132.0938
2280.150683 96.146 -132.7608
2296.673595 96.175 -133.4315
2313.316238 96.200 -134.0979
2330.079481 96.222 -134.7568
2346.964198 96.243 -135.4133
2363.971268 96.262 -136.0774
2381.101578 96.280 -136.7574
2398.356022 96.293 -137.4566
2415.735498 96.303 -138.1737
2433.240913 96.307 -138.9044
2450.873180 96.305 -139.6438
2468.633217 96.297 -140.3874
2486.521951 96.283 -141.1304
2504.540314 96.262 -141.8652
2522.689246 96.234 -142.5809
2540.969692 96.200 -143.2664
2559.382606 96.163 -143.9165
2577.928947 96.123 -144.5340
2596.609683 96.081 -145.1253
2615.425787 96.037 -145.6959
2634.378241 95.990 -146.2477
2653.468031 95.940 -146.7784
2672.696154 95.886 -147.2812
2692.063613 95.828 -147.7478
2711.571415 95.769 -148.1719
2731.220579 95.709 -148.5553
2751.012130 95.651 -148.9067
2770.947098 95.595 -149.2362
2791.026522 95.539 -149.5509
2811.251451 95.484 -149.8545
2831.622938 95.428 -150.1476
2852.142045 95.371 -150.4301
2872.809842 95.312 -150.6998
2893.627406 95.251 -150.9508
2914.595823 95.187 -151.1729
2935.716186 95.121 -151.3566
2956.989596 95.055 -151.4994
2978.417161 94.990 -151.6058
3000.000000 94.927 -151.6826
3021.739237 94.865 -151.7353
3043.636005 94.804 -151.7642
3065.691446 94.743 -151.7648
3087.906710 94.683 -151.7296
3110.282955 94.626 -151.6554
3132.821347 94.574 -151.5465
3155.523062 94.526 -151.4124
3178.389283 94.483 -151.2637
3201.421202 94.445 -151.1086
3224.620020 94.411 -150.9536
3247.986946 94.379 -150.8025
3271.523198 94.350 -150.6548
3295.230004 94.321 -150.5033
3319.108599 94.293 -150.3382
3343.160228 94.267 -150.1540
3367.386145 94.243 -149.9518
3391.787613 94.223 -149.7365
3416.365904 94.206 -149.5119
3441.122300 94.191 -149.2767
3466.058091 94.179 -149.0248
3491.174576 94.171 -148.7497
3516.473066 94.168 -148.4514
3541.954880 94.172 -148.1369
3567.621345 94.183 -147.8171
3593.473800 94.202 -147.5031
3619.513592 94.227 -147.2051
3645.742080 94.257 -146.9305
3672.160630 94.292 -146.6804
3698.770620 94.330 -146.4489
3725.573436 94.371 -146.2296
3752.570477 94.416 -146.0212
3779.763150 94.466 -145.8271
3807.152872 94.519 -145.6512
3834.741071 94.577 -145.4926
3862.529185 94.638 -145.3453
3890.518664 94.704 -145.2042
3918.710966 94.778 -145.0712
3947.107561 94.859 -144.9553
3975.709929 94.949 -144.8703
4004.519563 95.047 -144.8322
4033.537962 95.153 -144.8559
4062.766641 95.264 -144.9500
4092.207123 95.379 -145.1161
4121.860942 95.498 -145.3545
4151.729646 95.619 -145.6688
4181.814790 95.743 -146.0651
4212.117944 95.868 -146.5472
4242.640687 95.993 -147.1130
4273.384610 96.116 -147.7573
4304.351317 96.239 -148.4785
4335.542421 96.362 -149.2812
4366.959549 96.485 -150.1761
4398.604338 96.607 -151.1773
4430.478438 96.725 -152.2979
4462.583511 96.838 -153.5444
4494.921231 96.941 -154.9159
4527.493283 97.034 -156.4086
4560.301365 97.113 -158.0186
4593.347189 97.176 -159.7386
4626.632476 97.220 -161.5547
4660.158962 97.243 -163.4458
4693.928395 97.245 -165.3889
4727.942535 97.225 -167.3637
4762.203156 97.184 -169.3539
4796.712043 97.122 -171.3477
4831.470996 97.039 -173.3339
4866.481826 96.934 -175.2975
4901.746360 96.808 -177.2209
4937.266434 96.661 -179.0875
4973.043902 96.493 179.1169
5009.080628 96.305 177.4079
5045.378492 96.097 175.8049
5081.939384 95.871 174.3283
5118.765212 95.629 172.9944
5155.857894 95.375 171.8118
5193.219366 95.112 170.7797
5230.851574 94.843 169.8914
5268.756481 94.570 169.1403
5306.936062 94.295 168.5199
5345.392309 94.020 168.0216
5384.127225 93.744 167.6366
5423.142830 93.469 167.3613
5462.441159 93.194 167.1985
5502.024259 92.920 167.1540
5541.894195 92.649 167.2308
5582.053045 92.383 167.4247
5622.502902 92.124 167.7260
5663.245876 91.873 168.1238
5704.284090 91.632 168.6077
5745.619684 91.401 169.1650
5787.254813 91.179 169.7847
5829.191647 90.967 170.4614
5871.432373 90.764 171.1967
5913.979192 90.570 171.9954
5956.834323 90.386 172.8587
6000.000000 90.215 173.7809
6043.478473 90.056 174.7518
6087.272010 89.912 175.7588
6131.382892 89.782 176.7877
6175.813420 89.665 177.8248
6220.565910 89.561 178.8625
6265.642695 89.467 179.9013
6311.046124 89.383 -179.0526
6356.778566 89.310 -177.9928
6402.842404 89.247 -176.9166
6449.240040 89.198 -175.8245
6495.973891 89.162 -174.7213
6543.046396 89.140 -173.6168
6590.460007 89.134 -172.5222
6638.217197 89.143 -171.4455
6686.320456 89.167 -170.3898
6734.772290 89.206 -169.3568
6783.575226 89.263 -168.3502
6832.731809 89.337 -167.3772
6882.244600 89.431 -166.4497
6932.116181 89.544 -165.5845
6982.349153 89.678 -164.8011
7032.946133 89.831 -164.1168
7083.909760 90.005 -163.5455
7135.242690 90.198 -163.1009
7186.947600 90.412 -162.7998
7239.027185 90.648 -162.6644
7291.484160 90.906 -162.7239
7344.321260 91.184 -163.0158
7397.541239 91.480 -163.5811
7451.146872 91.791 -164.4593
7505.140954 92.111 -165.6872
7559.526299 92.434 -167.2997
7614.305743 92.751 -169.3293
7669.482141 93.054 -171.8032
7725.058371 93.330 -174.7402
7781.037328 93.565 -178.1420
7837.421932 93.742 178.0169
7894.215122 93.847 173.7952
7951.419859 93.865 169.2836
8009.039125 93.787 164.5997
8067.075924 93.606 159.8774
8125.533282 93.325 155.2527
8184.414245 92.946 150.8514
8243.721885 92.478 146.7819
8303.459292 91.933 143.1316
8363.629581 91.322 139.9643
8424.235888 90.660 137.3202
8485.281374 89.962 135.2143
8546.769221 89.243 133.6358
8608.702634 88.517 132.5524
8671.084842 87.795 131.9194
8733.919097 87.085 131.6890
8797.208675 86.392 131.8168
8860.956876 85.721 132.2646
8925.167022 85.075 132.9958
8989.842461 84.456 133.9713
9054.986566 83.866 135.1517
9120.602731 83.305 136.5020
9186.694378 82.771 137.9960
9253.264952 82.265 139.6183
9320.317925 81.784 141.3583
9387.856790 81.329 143.2023
9455.885071 80.900 145.1335
9524.406312 80.495 147.1351
9593.424086 80.113 149.1959
9662.941992 79.752 151.3135
9732.963653 79.411 153.4885
9803.492719 79.091 155.7175
9874.532869 78.791 157.9911
9946.087805 78.511 160.2985
10018.161257 78.251 162.6343
10090.756983 78.009 165.0012
10163.878768 77.785 167.4025
10237.530423 77.579 169.8358
10311.715789 77.393 172.2924
10386.438732 77.225 174.7642
10461.703149 77.074 177.2504
10537.512962 76.941 179.7562
10613.872125 76.826 -177.7146
10690.784618 76.730 -175.1660
10768.254450 76.653 -172.6066
10846.285661 76.596 -170.0421
10924.882318 76.558 -167.4724
11004.048518 76.540 -164.8969
11083.788390 76.542 -162.3199
11164.106090 76.565 -159.7502
11245.005805 76.610 -157.1932
11326.491752 76.674 -154.6481
11408.568180 76.761 -152.1132
11491.239368 76.871 -149.5929
11574.509626 77.006 -147.0979
11658.383294 77.166 -144.6382
11742.864745 77.353 -142.2197
11827.958384 77.569 -139.8485
11913.668646 77.815 -137.5378
12000.000000 78.095 -135.3076
12086.956947 78.408 -133.1774
12174.544019 78.756 -131.1649
12262.765784 79.142 -129.2917
12351.626840 79.569 -127.5904
12441.131819 80.037 -126.1034
12531.285389 80.547 -124.8786
12622.092249 81.098 -123.9681
12713.557132 81.688 -123.4329
12805.684808 82.312 -123.3430
12898.480079 82.959 -123.7692
12991.947783 83.618 -124.7739
13086.092792 84.274 -126.4068
13180.920015 84.908 -128.7011
13276.434395 85.500 -131.6646
13372.640911 86.027 -135.2694
13469.544580 86.469 -139.4454
13567.150452 86.807 -144.0830
13665.463617 87.027 -149.0386
13764.489200 87.121 -154.1412
13864.232362 87.089 -159.2047
13964.698305 86.939 -164.0485
14065.892266 86.686 -168.5181
14167.819519 86.352 -172.4963
14270.485380 85.959 -175.9070
14373.895200 85.535 -178.7169
14478.054370 85.105 179.0648
14582.968320 84.694 177.3910
14688.642520 84.324 176.1855
14795.082478 84.016 175.3453
14902.293745 83.784 174.7409
15010.281908 83.641 174.2220
15119.052599 83.591 173.6259
15228.611486 83.633 172.7840
15338.964283 83.757 171.5304
15450.116741 83.945 169.7155
15562.074656 84.171 167.2211
15674.843864 84.404 163.9732
15788.430244 84.606 159.9532
15902.839718 84.740 155.2094
16018.078250 84.771 149.8620
16134.151848 84.671 144.0961
16251.066563 84.420 138.1440
16368.828491 84.012 132.2600
16487.443769 83.451 126.6882
16606.918584 82.754 121.6331
16727.259161 81.943 117.2431
16848.471777 81.046 113.6083
16970.562748 80.091 110.7628
17093.538442 79.107 108.6927
17217.405268 78.117 107.3492
17342.169684 77.145 106.6582
17467.838194 76.208 106.5286
17594.417350 75.318 106.8614
17721.913751 74.484 107.5570
17850.334044 73.713 108.5158
17979.684923 73.005 109.6402
18109.973131 72.359 110.8371
18241.205462 71.773 112.0168
18373.388756 71.240 113.0933
18506.529905 70.753 113.9898
18640.635849 70.299 114.6419
18775.713581 69.864 115.0029
18911.770141 69.428 115.0538
19048.812624 68.973 114.8121
19186.848172 68.480 114.3362
19325.883983 67.935 113.7264
19465.927305 67.337 113.1166
19606.985439 66.703 112.6494
19749.065738 66.087 112.4280
19892.175609 65.578 112.4459
20036.322514 65.284 112.5507
