* Measurement data measured by REW V5.31.3
* Source: EXCL: Microphone (USB Sound Device        ), MICROPHONE (Master Volume), R, volume: 0.390
* Format: 256k Log Swept Sine, 1 sweep at -15.0 dBFS with no timing reference
* Dated: Jul 20, 2025 12:01:57 AM
* REW Settings:
*  C-weighting compensation: Off
*  Target level: 75.0 dB
* Note: HeartField CU8 L
* Measurement: L HeartField CU8
* Smoothing: 1/12 octave
* Frequency Step: 96 ppo
* Start Frequency: 0.36621094 Hz
*
* Freq(Hz) SPL(dB) Phase(degrees)
0.366211 89.408 -173.8178
0.368865 89.416 -173.8346
0.371538 89.427 -173.8594
0.374230 89.441 -173.8902
0.376942 89.457 -173.9250
0.379673 89.474 -173.9624
0.382424 89.491 -174.0015
0.385196 89.509 -174.0419
0.387987 89.528 -174.0831
0.390798 89.546 -174.1249
0.393630 89.565 -174.1674
0.396483 89.584 -174.2105
0.399356 89.603 -174.2541
0.402250 89.622 -174.2982
0.405165 89.641 -174.3429
0.408101 89.661 -174.3882
0.411058 89.680 -174.4340
0.414037 89.700 -174.4804
0.417037 89.720 -174.5274
0.420059 89.740 -174.5750
0.423103 89.760 -174.6232
0.426169 89.781 -174.6721
0.429257 89.801 -174.7216
0.432368 89.822 -174.7717
0.435501 89.842 -174.8226
0.438656 89.863 -174.8742
0.441835 89.884 -174.9264
0.445037 89.906 -174.9794
0.448262 89.927 -175.0332
0.451510 89.949 -175.0877
0.454782 89.970 -175.1430
0.458077 89.992 -175.1991
0.461397 90.014 -175.2561
0.464740 90.036 -175.3138
0.468108 90.059 -175.3725
0.471500 90.081 -175.4320
0.474917 90.104 -175.4925
0.478358 90.127 -175.5538
0.481825 90.150 -175.6161
0.485316 90.173 -175.6794
0.488833 90.196 -175.7438
0.492375 90.220 -175.8091
0.495943 90.243 -175.8755
0.499537 90.267 -175.9429
0.503157 90.291 -176.0115
0.506803 90.315 -176.0812
0.510475 90.340 -176.1520
0.514175 90.364 -176.2241
0.517900 90.389 -176.2973
0.521653 90.414 -176.3719
0.525434 90.439 -176.4477
0.529241 90.464 -176.5248
0.533076 90.489 -176.6033
0.536939 90.515 -176.6831
0.540830 90.541 -176.7644
0.544749 90.567 -176.8471
0.548696 90.593 -176.9314
0.552673 90.619 -177.0171
0.556677 90.646 -177.1044
0.560711 90.673 -177.1934
0.564774 90.700 -177.2840
0.568867 90.727 -177.3763
0.572989 90.754 -177.4704
0.577141 90.781 -177.5662
0.581324 90.809 -177.6639
0.585536 90.837 -177.7635
0.589779 90.865 -177.8650
0.594053 90.894 -177.9685
0.598358 90.922 -178.0741
0.602694 90.951 -178.1817
0.607061 90.980 -178.2916
0.611460 91.009 -178.4036
0.615891 91.038 -178.5179
0.620354 91.068 -178.6346
0.624849 91.098 -178.7537
0.629377 91.128 -178.8752
0.633938 91.158 -178.9993
0.638532 91.189 -179.1260
0.643159 91.219 -179.2554
0.647819 91.250 -179.3876
0.652514 91.281 -179.5226
0.657242 91.313 -179.6605
0.662005 91.344 -179.8015
0.666802 91.376 -179.9455
0.671634 91.408 179.9072
0.676501 91.440 179.7567
0.681403 91.473 179.6027
0.686341 91.506 179.4453
0.691314 91.538 179.2843
0.696324 91.572 179.1196
0.701370 91.605 178.9511
0.706452 91.639 178.7787
0.711571 91.672 178.6023
0.716728 91.706 178.4217
0.721921 91.739 178.2369
0.727153 91.773 178.0479
0.732422 91.806 177.8545
0.737729 91.838 177.6567
0.743075 91.870 177.4547
0.748460 91.902 177.2484
0.753883 91.933 177.0378
0.759346 91.965 176.8230
0.764849 91.996 176.6041
0.770391 92.028 176.3810
0.775974 92.060 176.1540
0.781597 92.091 175.9229
0.787261 92.123 175.6879
0.792966 92.155 175.4489
0.798712 92.187 175.2061
0.804500 92.219 174.9594
0.810329 92.251 174.7090
0.816201 92.283 174.4548
0.822116 92.316 174.1970
0.828073 92.348 173.9355
0.834074 92.381 173.6704
0.840118 92.413 173.4018
0.846206 92.446 173.1297
0.852338 92.479 172.8541
0.858514 92.511 172.5751
0.864735 92.544 172.2928
0.871001 92.577 172.0071
0.877313 92.610 171.7181
0.883670 92.643 171.4259
0.890074 92.676 171.1305
0.896524 92.709 170.8318
0.903020 92.743 170.5301
0.909564 92.776 170.2251
0.916155 92.809 169.9171
0.922794 92.842 169.6060
0.929481 92.876 169.2918
0.936216 92.909 168.9745
0.943000 92.942 168.6542
0.949834 92.975 168.3309
0.956717 93.009 168.0045
0.963649 93.042 167.6750
0.970632 93.075 167.3425
0.977666 93.109 167.0069
0.984750 93.142 166.6682
0.991886 93.175 166.3264
0.999074 93.208 165.9814
1.006314 93.241 165.6332
1.013606 93.275 165.2818
1.020951 93.308 164.9270
1.028349 93.341 164.5689
1.035801 93.373 164.2073
1.043307 93.406 163.8422
1.050867 93.439 163.4734
1.058482 93.472 163.1007
1.066152 93.504 162.7239
1.073878 93.537 162.3429
1.081660 93.569 161.9570
1.089498 93.601 161.5659
1.097393 93.633 161.1687
1.105345 93.665 160.7647
1.113355 93.697 160.3533
1.121423 93.728 159.9337
1.129549 93.760 159.5056
1.137734 93.791 159.0688
1.145979 93.822 158.6234
1.154283 93.853 158.1693
1.162647 93.883 157.7068
1.171072 93.914 157.2361
1.179558 93.944 156.7573
1.188106 93.974 156.2707
1.196715 94.004 155.7765
1.205387 94.034 155.2750
1.214122 94.063 154.7665
1.222920 94.093 154.2513
1.231782 94.122 153.7297
1.240708 94.151 153.2019
1.249699 94.180 152.6682
1.258754 94.208 152.1291
1.267876 94.237 151.5847
1.277063 94.265 151.0355
1.286318 94.293 150.4817
1.295639 94.320 149.9237
1.305027 94.348 149.3618
1.314484 94.375 148.7964
1.324009 94.402 148.2279
1.333604 94.429 147.6566
1.343268 94.456 147.0828
1.353002 94.482 146.5069
1.362806 94.509 145.9293
1.372681 94.535 145.3503
1.382628 94.561 144.7703
1.392647 94.586 144.1896
1.402739 94.612 143.6084
1.412904 94.637 143.0270
1.423142 94.662 142.4455
1.433455 94.687 141.8637
1.443843 94.712 141.2813
1.454305 94.736 140.6975
1.464844 94.760 140.1111
1.475459 94.784 139.5209
1.486150 94.807 138.9252
1.496920 94.830 138.3230
1.507767 94.853 137.7135
1.518693 94.875 137.0962
1.529698 94.897 136.4711
1.540783 94.919 135.8381
1.551948 94.940 135.1976
1.563194 94.961 134.5496
1.574521 94.981 133.8946
1.585931 95.001 133.2328
1.597423 95.020 132.5648
1.608999 95.039 131.8907
1.620658 95.058 131.2112
1.632402 95.076 130.5265
1.644232 95.094 129.8371
1.656146 95.111 129.1435
1.668147 95.128 128.4462
1.680235 95.145 127.7455
1.692411 95.161 127.0421
1.704675 95.177 126.3363
1.717028 95.192 125.6288
1.729470 95.207 124.9199
1.742003 95.222 124.2101
1.754626 95.236 123.5000
1.767341 95.250 122.7897
1.780147 95.263 122.0794
1.793047 95.276 121.3691
1.806040 95.289 120.6583
1.819128 95.301 119.9460
1.832310 95.313 119.2308
1.845587 95.324 118.5108
1.858961 95.335 117.7842
1.872432 95.345 117.0496
1.886001 95.354 116.3060
1.899667 95.363 115.5532
1.913433 95.371 114.7910
1.927299 95.379 114.0199
1.941265 95.386 113.2401
1.955332 95.392 112.4525
1.969501 95.398 111.6577
1.983773 95.403 110.8564
1.998148 95.408 110.0497
2.012627 95.412 109.2385
2.027212 95.415 108.4239
2.041902 95.418 107.6068
2.056698 95.420 106.7886
2.071602 95.422 105.9704
2.086614 95.423 105.1535
2.101734 95.423 104.3391
2.116964 95.423 103.5284
2.132304 95.423 102.7226
2.147756 95.422 101.9224
2.163320 95.420 101.1282
2.178996 95.418 100.3398
2.194786 95.415 99.5562
2.210690 95.411 98.7757
2.226710 95.407 97.9964
2.242845 95.402 97.2164
2.259098 95.396 96.4345
2.275468 95.389 95.6500
2.291957 95.381 94.8626
2.308566 95.373 94.0724
2.325295 95.363 93.2799
2.342145 95.353 92.4857
2.359117 95.343 91.6905
2.376212 95.331 90.8953
2.393431 95.319 90.1012
2.410775 95.307 89.3094
2.428244 95.293 88.5211
2.445840 95.280 87.7379
2.463564 95.266 86.9613
2.481416 95.252 86.1928
2.499397 95.237 85.4338
2.517509 95.222 84.6857
2.535752 95.206 83.9494
2.554127 95.190 83.2252
2.572635 95.174 82.5131
2.591277 95.157 81.8122
2.610055 95.139 81.1216
2.628968 95.120 80.4404
2.648019 95.100 79.7679
2.667208 95.080 79.1035
2.686535 95.059 78.4470
2.706003 95.038 77.7982
2.725612 95.017 77.1574
2.745363 94.995 76.5246
2.765257 94.973 75.9003
2.785295 94.951 75.2850
2.805478 94.930 74.6794
2.825808 94.909 74.0841
2.846285 94.888 73.5003
2.866910 94.868 72.9291
2.887685 94.849 72.3717
2.908611 94.831 71.8295
2.929688 94.814 71.3039
2.950917 94.797 70.7961
2.972301 94.781 70.3071
2.993839 94.765 69.8369
3.015534 94.750 69.3854
3.037386 94.735 68.9521
3.059396 94.721 68.5358
3.081565 94.708 68.1357
3.103896 94.696 67.7503
3.126388 94.685 67.3786
3.149043 94.675 67.0192
3.171862 94.668 66.6711
3.194847 94.662 66.3332
3.217998 94.659 66.0048
3.241317 94.658 65.6859
3.264805 94.660 65.3768
3.288463 94.664 65.0789
3.312293 94.672 64.7939
3.336295 94.682 64.5237
3.360471 94.695 64.2695
3.384822 94.711 64.0313
3.409350 94.729 63.8082
3.434056 94.751 63.5984
3.458940 94.774 63.3994
3.484005 94.801 63.2083
3.509252 94.829 63.0224
3.534681 94.861 62.8385
3.560295 94.894 62.6537
3.586094 94.931 62.4656
3.612081 94.970 62.2724
3.638255 95.011 62.0734
3.664620 95.055 61.8688
3.691175 95.103 61.6598
3.717923 95.153 61.4478
3.744864 95.207 61.2337
3.772001 95.264 61.0177
3.799335 95.323 60.7991
3.826866 95.385 60.5770
3.854597 95.448 60.3498
3.882529 95.513 60.1157
3.910664 95.580 59.8730
3.939002 95.647 59.6198
3.967546 95.715 59.3546
3.996296 95.783 59.0762
4.025255 95.852 58.7840
4.054423 95.921 58.4779
4.083804 95.990 58.1585
4.113396 96.061 57.8266
4.143204 96.132 57.4834
4.173227 96.203 57.1299
4.203468 96.274 56.7673
4.233928 96.346 56.3964
4.264609 96.416 56.0181
4.295512 96.486 55.6328
4.326639 96.554 55.2406
4.357992 96.621 54.8412
4.389572 96.686 54.4342
4.421380 96.749 54.0188
4.453419 96.810 53.5946
4.485691 96.870 53.1621
4.518196 96.928 52.7224
4.550936 96.984 52.2774
4.583914 97.039 51.8294
4.617131 97.092 51.3809
4.650589 97.143 50.9341
4.684289 97.191 50.4909
4.718233 97.238 50.0526
4.752424 97.282 49.6194
4.786862 97.323 49.1912
4.821549 97.363 48.7673
4.856488 97.399 48.3475
4.891680 97.434 47.9324
4.927127 97.466 47.5233
4.962831 97.496 47.1221
4.998794 97.525 46.7310
5.035017 97.552 46.3521
5.071503 97.577 45.9874
5.108253 97.601 45.6381
5.145270 97.624 45.3048
5.182555 97.645 44.9877
5.220110 97.664 44.6862
5.257937 97.683 44.4000
5.296038 97.700 44.1291
5.334415 97.716 43.8733
5.373071 97.733 43.6328
5.412006 97.749 43.4083
5.451224 97.766 43.2001
5.490725 97.783 43.0089
5.530514 97.801 42.8351
5.570590 97.819 42.6783
5.610957 97.838 42.5379
5.651616 97.858 42.4121
5.692570 97.878 42.2992
5.733821 97.900 42.1968
5.775370 97.924 42.1032
5.817221 97.949 42.0168
5.859375 97.975 41.9368
5.901834 98.004 41.8627
5.944602 98.035 41.7941
5.987679 98.067 41.7297
6.031068 98.101 41.6678
6.074771 98.137 41.6060
6.118792 98.173 41.5417
6.163131 98.211 41.4727
6.207792 98.250 41.3971
6.252776 98.290 41.3139
6.298086 98.332 41.2227
6.343725 98.373 41.1235
6.389694 98.416 41.0157
6.435996 98.458 40.8991
6.482634 98.501 40.7729
6.529610 98.543 40.6364
6.576926 98.584 40.4892
6.624585 98.624 40.3307
6.672590 98.663 40.1614
6.720942 98.701 39.9819
6.769645 98.737 39.7934
6.818700 98.772 39.5974
6.868111 98.805 39.3950
6.917881 98.835 39.1875
6.968010 98.864 38.9756
7.018504 98.890 38.7599
7.069362 98.914 38.5413
7.120590 98.935 38.3210
7.172189 98.954 38.1006
7.224161 98.972 37.8823
7.276511 98.986 37.6675
7.329239 98.999 37.4578
7.382350 99.010 37.2538
7.435845 99.019 37.0561
7.489729 99.026 36.8651
7.544002 99.032 36.6815
7.598669 99.036 36.5059
7.653732 99.039 36.3389
7.709194 99.042 36.1811
7.765058 99.044 36.0323
7.821327 99.046 35.8922
7.878004 99.048 35.7599
7.935091 99.049 35.6342
7.992592 99.051 35.5141
8.050510 99.053 35.3985
8.108847 99.056 35.2867
8.167607 99.060 35.1776
8.226793 99.064 35.0696
8.286408 99.069 34.9612
8.346454 99.075 34.8505
8.406936 99.081 34.7357
8.467856 99.088 34.6156
8.529218 99.096 34.4893
8.591024 99.104 34.3558
8.653278 99.112 34.2143
8.715983 99.121 34.0638
8.779143 99.129 33.9036
8.842760 99.137 33.7332
8.906839 99.144 33.5526
8.971381 99.151 33.3620
9.036392 99.157 33.1620
9.101873 99.162 32.9532
9.167829 99.166 32.7361
9.234263 99.169 32.5114
9.301178 99.170 32.2797
9.368578 99.170 32.0422
9.436467 99.170 31.8001
9.504847 99.167 31.5545
9.573723 99.164 31.3063
9.643099 99.160 31.0562
9.712976 99.155 30.8048
9.783361 99.149 30.5529
9.854255 99.143 30.3009
9.925663 99.136 30.0494
9.997588 99.129 29.7984
10.070035 99.123 29.5479
10.143007 99.116 29.2975
10.216507 99.109 29.0469
10.290540 99.103 28.7957
10.365109 99.098 28.5434
10.440219 99.093 28.2895
10.515873 99.088 28.0333
10.592076 99.085 27.7740
10.668830 99.082 27.5112
10.746141 99.079 27.2444
10.824012 99.078 26.9732
10.902447 99.076 26.6975
10.981451 99.076 26.4171
11.061027 99.076 26.1321
11.141180 99.076 25.8425
11.221913 99.076 25.5489
11.303232 99.077 25.2516
11.385140 99.078 24.9514
11.467641 99.080 24.6485
11.550741 99.081 24.3437
11.634442 99.083 24.0376
11.718750 99.085 23.7309
11.803669 99.087 23.4240
11.889203 99.090 23.1174
11.975357 99.094 22.8114
12.062136 99.097 22.5062
12.149543 99.102 22.2023
12.237583 99.106 21.8994
12.326262 99.112 21.5978
12.415583 99.118 21.2974
12.505552 99.124 20.9982
12.596172 99.131 20.7003
12.687449 99.138 20.4037
12.779387 99.146 20.1086
12.871992 99.154 19.8154
12.965268 99.162 19.5242
13.059220 99.171 19.2355
13.153852 99.179 18.9498
13.249170 99.187 18.6677
13.345179 99.196 18.3898
13.441884 99.204 18.1166
13.539289 99.212 17.8485
13.637401 99.220 17.5859
13.736223 99.228 17.3292
13.835761 99.236 17.0782
13.936021 99.245 16.8331
14.037007 99.253 16.5934
14.138725 99.262 16.3588
14.241180 99.271 16.1285
14.344377 99.280 15.9019
14.448323 99.289 15.6783
14.553021 99.298 15.4569
14.658478 99.306 15.2371
14.764700 99.315 15.0181
14.871691 99.323 14.7998
14.979457 99.331 14.5818
15.088005 99.338 14.3640
15.197339 99.344 14.1465
15.307465 99.349 13.9296
15.418389 99.353 13.7137
15.530117 99.356 13.4991
15.642655 99.358 13.2861
15.756008 99.359 13.0751
15.870182 99.359 12.8661
15.985184 99.358 12.6592
16.101019 99.356 12.4539
16.217694 99.354 12.2499
16.335214 99.351 12.0466
16.453586 99.347 11.8430
16.572815 99.343 11.6383
16.692909 99.339 11.4316
16.813872 99.333 11.2220
16.935713 99.328 11.0089
17.058436 99.322 10.7914
17.182048 99.315 10.5692
17.306556 99.308 10.3421
17.431967 99.300 10.1100
17.558286 99.291 9.8729
17.685521 99.281 9.6311
17.813677 99.272 9.3847
17.942762 99.261 9.1340
18.072783 99.250 8.8791
18.203746 99.239 8.6201
18.335658 99.228 8.3569
18.468526 99.217 8.0897
18.602356 99.206 7.8182
18.737156 99.195 7.5422
18.872934 99.184 7.2618
19.009695 99.173 6.9769
19.147447 99.163 6.6876
19.286197 99.153 6.3942
19.425953 99.144 6.0969
19.566721 99.135 5.7964
19.708510 99.126 5.4930
19.851326 99.118 5.1873
19.995177 99.111 4.8799
20.140070 99.104 4.5714
20.286013 99.098 4.2623
20.433014 99.092 3.9529
20.581080 99.087 3.6439
20.730219 99.083 3.3357
20.880439 99.079 3.0288
21.031747 99.076 2.7236
21.184152 99.074 2.4208
21.337661 99.072 2.1207
21.492282 99.071 1.8241
21.648024 99.069 1.5312
21.804895 99.069 1.2424
21.962902 99.068 0.9580
22.122054 99.068 0.6780
22.282360 99.068 0.4024
22.443827 99.068 0.1311
22.606464 99.068 -0.1359
22.770280 99.068 -0.3988
22.935283 99.068 -0.6576
23.101481 99.067 -0.9121
23.268884 99.065 -1.1622
23.437500 99.063 -1.4078
23.607338 99.060 -1.6487
23.778406 99.056 -1.8850
23.950714 99.051 -2.1168
24.124271 99.046 -2.3446
24.299086 99.040 -2.5692
24.475167 99.033 -2.7913
24.652524 99.026 -3.0121
24.831166 99.018 -3.2326
25.011103 99.009 -3.4537
25.192344 99.000 -3.6763
25.374898 98.990 -3.9010
25.558775 98.978 -4.1283
25.743984 98.967 -4.3585
25.930536 98.954 -4.5919
26.118439 98.940 -4.8287
26.307704 98.926 -5.0691
26.498341 98.912 -5.3132
26.690359 98.897 -5.5612
26.883768 98.881 -5.8131
27.078579 98.865 -6.0690
27.274801 98.850 -6.3284
27.472446 98.834 -6.5911
27.671522 98.818 -6.8567
27.872042 98.802 -7.1248
28.074014 98.787 -7.3950
28.277450 98.772 -7.6672
28.482360 98.758 -7.9413
28.688755 98.744 -8.2172
28.896645 98.731 -8.4945
29.106042 98.719 -8.7731
29.316957 98.707 -9.0522
29.529400 98.696 -9.3314
29.743382 98.685 -9.6095
29.958915 98.674 -9.8858
30.176009 98.664 -10.1594
30.394677 98.654 -10.4297
30.614929 98.644 -10.6963
30.836778 98.635 -10.9590
31.060234 98.625 -11.2178
31.285309 98.615 -11.4725
31.512015 98.605 -11.7233
31.740364 98.595 -11.9700
31.970368 98.585 -12.2128
32.202039 98.574 -12.4517
32.435388 98.562 -12.6871
32.670428 98.550 -12.9196
32.907171 98.537 -13.1499
33.145630 98.523 -13.3789
33.385817 98.509 -13.6072
33.627745 98.494 -13.8354
33.871425 98.478 -14.0640
34.116871 98.461 -14.2931
34.364096 98.444 -14.5229
34.613113 98.425 -14.7538
34.863934 98.406 -14.9855
35.116572 98.386 -15.2185
35.371041 98.366 -15.4530
35.627354 98.346 -15.6891
35.885525 98.325 -15.9270
36.145566 98.304 -16.1668
36.407492 98.283 -16.4083
36.671316 98.262 -16.6513
36.937051 98.241 -16.8953
37.204712 98.220 -17.1400
37.474313 98.199 -17.3846
37.745867 98.178 -17.6288
38.019389 98.158 -17.8720
38.294893 98.137 -18.1136
38.572394 98.117 -18.3534
38.851905 98.097 -18.5907
39.133442 98.077 -18.8253
39.417019 98.057 -19.0569
39.702651 98.036 -19.2852
39.990353 98.016 -19.5101
40.280140 97.996 -19.7319
40.572026 97.975 -19.9509
40.866028 97.955 -20.1675
41.162160 97.933 -20.3818
41.460438 97.912 -20.5941
41.760877 97.889 -20.8038
42.063494 97.867 -21.0110
42.368303 97.843 -21.2155
42.675322 97.820 -21.4175
42.984565 97.796 -21.6175
43.296048 97.772 -21.8165
43.609789 97.748 -22.0155
43.925804 97.724 -22.2155
44.244108 97.700 -22.4169
44.564719 97.676 -22.6201
44.887654 97.651 -22.8248
45.212928 97.627 -23.0306
45.540560 97.602 -23.2367
45.870565 97.576 -23.4423
46.202962 97.551 -23.6467
46.537768 97.524 -23.8490
46.875000 97.498 -24.0486
47.214676 97.472 -24.2453
47.556813 97.445 -24.4389
47.901429 97.418 -24.6299
48.248542 97.391 -24.8190
48.598171 97.365 -25.0069
48.950334 97.338 -25.1940
49.305048 97.310 -25.3804
49.662333 97.282 -25.5656
50.022206 97.254 -25.7490
50.384688 97.226 -25.9303
50.749796 97.197 -26.1095
51.117550 97.168 -26.2870
51.487969 97.140 -26.4630
51.861072 97.111 -26.6376
52.236879 97.082 -26.8104
52.615409 97.053 -26.9810
52.996681 97.024 -27.1486
53.380717 96.995 -27.3130
53.767536 96.967 -27.4742
54.157158 96.938 -27.6326
54.549603 96.910 -27.7886
54.944892 96.882 -27.9429
55.343045 96.854 -28.0959
55.744084 96.827 -28.2484
56.148028 96.799 -28.4010
56.554900 96.771 -28.5547
56.964720 96.743 -28.7103
57.377510 96.714 -28.8685
57.793291 96.685 -29.0294
58.212085 96.655 -29.1926
58.633914 96.625 -29.3574
59.058799 96.594 -29.5226
59.486764 96.562 -29.6875
59.917829 96.530 -29.8513
60.352019 96.497 -30.0132
60.789354 96.465 -30.1727
61.229859 96.432 -30.3292
61.673556 96.399 -30.4824
62.120468 96.366 -30.6322
62.570618 96.333 -30.7784
63.024031 96.300 -30.9213
63.480729 96.267 -31.0610
63.940736 96.234 -31.1979
64.404077 96.201 -31.3323
64.870776 96.167 -31.4642
65.340856 96.133 -31.5942
65.814343 96.099 -31.7224
66.291261 96.064 -31.8491
66.771635 96.030 -31.9747
67.255489 95.995 -32.0992
67.742850 95.959 -32.2224
68.233743 95.924 -32.3440
68.728193 95.888 -32.4635
69.226226 95.853 -32.5807
69.727867 95.817 -32.6952
70.233144 95.782 -32.8071
70.742083 95.747 -32.9167
71.254709 95.712 -33.0243
71.771050 95.676 -33.1302
72.291132 95.641 -33.2346
72.814984 95.606 -33.3372
73.342631 95.570 -33.4380
73.874102 95.535 -33.5372
74.409424 95.499 -33.6349
74.948626 95.463 -33.7315
75.491734 95.427 -33.8271
76.038779 95.392 -33.9218
76.589787 95.356 -34.0155
77.144788 95.321 -34.1084
77.703811 95.285 -34.2010
78.266885 95.251 -34.2940
78.834039 95.216 -34.3883
79.405303 95.181 -34.4851
79.980706 95.147 -34.5859
80.560280 95.112 -34.6917
81.144053 95.076 -34.8032
81.732056 95.040 -34.9200
82.324320 95.002 -35.0411
82.920876 94.962 -35.1643
83.521755 94.921 -35.2869
84.126988 94.878 -35.4057
84.736607 94.834 -35.5178
85.350643 94.789 -35.6207
85.969129 94.743 -35.7133
86.592097 94.696 -35.7952
87.219579 94.649 -35.8668
87.851608 94.603 -35.9283
88.488217 94.556 -35.9800
89.129439 94.510 -36.0222
89.775308 94.465 -36.0571
90.425856 94.420 -36.0875
91.081119 94.376 -36.1160
91.741131 94.332 -36.1437
92.405925 94.289 -36.1711
93.075536 94.246 -36.1984
93.750000 94.203 -36.2253
94.429351 94.161 -36.2516
95.113625 94.118 -36.2769
95.802858 94.075 -36.3007
96.497085 94.033 -36.3224
97.196342 93.990 -36.3411
97.900667 93.946 -36.3563
98.610096 93.902 -36.3670
99.324665 93.859 -36.3727
100.044413 93.815 -36.3727
100.769376 93.771 -36.3668
101.499592 93.727 -36.3553
102.235100 93.684 -36.3386
102.975938 93.641 -36.3180
103.722144 93.599 -36.2956
104.473757 93.558 -36.2735
105.230817 93.517 -36.2536
105.993363 93.476 -36.2371
106.761435 93.436 -36.2245
107.535072 93.395 -36.2161
108.314315 93.354 -36.2117
109.099206 93.314 -36.2111
109.889783 93.272 -36.2136
110.686090 93.230 -36.2184
111.488167 93.188 -36.2241
112.296056 93.144 -36.2292
113.109800 93.098 -36.2313
113.929440 93.051 -36.2272
114.755020 93.003 -36.2128
115.586582 92.952 -36.1837
116.424170 92.900 -36.1362
117.267827 92.848 -36.0684
118.117598 92.797 -35.9819
118.973527 92.748 -35.8831
119.835658 92.700 -35.7804
120.704037 92.655 -35.6811
121.578708 92.611 -35.5878
122.459718 92.567 -35.4995
123.347111 92.525 -35.4146
124.240935 92.482 -35.3315
125.141236 92.441 -35.2493
126.048061 92.399 -35.1668
126.961458 92.359 -35.0837
127.881473 92.318 -34.9996
128.808154 92.278 -34.9150
129.741551 92.238 -34.8301
130.681712 92.197 -34.7449
131.628686 92.157 -34.6595
132.582521 92.116 -34.5739
133.543269 92.075 -34.4874
134.510979 92.033 -34.3997
135.485701 91.991 -34.3093
136.467486 91.948 -34.2149
137.456386 91.904 -34.1156
138.452451 91.861 -34.0113
139.455735 91.817 -33.9022
140.466288 91.774 -33.7893
141.484165 91.731 -33.6732
142.509418 91.689 -33.5546
143.542100 91.646 -33.4341
144.582265 91.604 -33.3122
145.629968 91.561 -33.1893
146.685262 91.517 -33.0653
147.748204 91.474 -32.9398
148.818849 91.430 -32.8114
149.897251 91.385 -32.6776
150.983469 91.341 -32.5354
152.077557 91.296 -32.3817
153.179574 91.252 -32.2146
154.289576 91.209 -32.0347
155.407622 91.167 -31.8449
156.533770 91.128 -31.6509
157.668078 91.090 -31.4591
158.810606 91.053 -31.2745
159.961413 91.018 -31.0994
161.120559 90.983 -30.9335
162.288105 90.948 -30.7748
163.464112 90.912 -30.6205
164.648640 90.874 -30.4672
165.841752 90.836 -30.3112
167.043510 90.796 -30.1488
168.253976 90.756 -29.9771
169.473213 90.714 -29.7941
170.701286 90.673 -29.5992
171.938258 90.633 -29.3943
173.184194 90.594 -29.1823
174.439158 90.557 -28.9668
175.703216 90.520 -28.7507
176.976434 90.485 -28.5355
178.258878 90.449 -28.3214
179.550615 90.414 -28.1080
180.851713 90.380 -27.8951
182.162239 90.345 -27.6825
183.482262 90.311 -27.4701
184.811850 90.277 -27.2577
186.151073 90.242 -27.0444
187.500000 90.208 -26.8298
188.858702 90.174 -26.6132
190.227250 90.139 -26.3942
191.605715 90.105 -26.1722
192.994169 90.071 -25.9468
194.392685 90.036 -25.7168
195.801334 90.001 -25.4813
197.220191 89.967 -25.2394
198.649330 89.932 -24.9899
200.088825 89.897 -24.7328
201.538751 89.864 -24.4689
202.999184 89.832 -24.2010
204.470200 89.801 -23.9331
205.951875 89.772 -23.6692
207.444287 89.744 -23.4116
208.947514 89.717 -23.1606
210.461634 89.689 -22.9138
211.986726 89.660 -22.6674
213.522869 89.629 -22.4163
215.070144 89.598 -22.1553
216.628631 89.567 -21.8806
218.198411 89.536 -21.5912
219.779567 89.507 -21.2905
221.372180 89.480 -20.9849
222.976334 89.455 -20.6808
224.592112 89.432 -20.3828
226.219600 89.410 -20.0919
227.858880 89.388 -19.8073
229.510039 89.367 -19.5269
231.173164 89.346 -19.2491
232.848340 89.326 -18.9736
234.535655 89.306 -18.7007
236.235197 89.285 -18.4312
237.947054 89.265 -18.1659
239.671317 89.244 -17.9049
241.408074 89.223 -17.6465
243.157416 89.200 -17.3873
244.919435 89.176 -17.1240
246.694223 89.152 -16.8532
248.481871 89.127 -16.5718
250.282473 89.101 -16.2764
252.096123 89.077 -15.9650
253.922915 89.055 -15.6385
255.762945 89.035 -15.3025
257.616309 89.018 -14.9668
259.483103 89.004 -14.6416
261.363424 88.991 -14.3325
263.257372 88.978 -14.0385
265.165043 88.963 -13.7538
267.086538 88.947 -13.4712
269.021957 88.929 -13.1834
270.971401 88.911 -12.8853
272.934972 88.894 -12.5749
274.912771 88.877 -12.2539
276.904902 88.862 -11.9255
278.911469 88.849 -11.5930
280.932577 88.838 -11.2593
282.968330 88.829 -10.9282
285.018835 88.822 -10.6053
287.084199 88.818 -10.2977
289.164530 88.814 -10.0110
291.259935 88.810 -9.7463
293.370525 88.803 -9.4978
295.496408 88.795 -9.2553
297.637697 88.783 -9.0087
299.794503 88.770 -8.7512
301.966937 88.756 -8.4806
304.155114 88.742 -8.1981
306.359147 88.728 -7.9076
308.579152 88.715 -7.6134
310.815244 88.702 -7.3187
313.067539 88.690 -7.0248
315.336156 88.677 -6.7294
317.621211 88.664 -6.4285
319.922826 88.651 -6.1176
322.241118 88.638 -5.7949
324.576210 88.628 -5.4620
326.928223 88.619 -5.1232
329.297280 88.612 -4.7828
331.683504 88.607 -4.4447
334.087019 88.602 -4.1116
336.507952 88.599 -3.7854
338.946427 88.596 -3.4664
341.402572 88.593 -3.1536
343.876516 88.590 -2.8436
346.368387 88.586 -2.5333
348.878315 88.583 -2.2206
351.406431 88.580 -1.9046
353.952867 88.578 -1.5862
356.517756 88.576 -1.2665
359.101230 88.575 -0.9474
361.703426 88.574 -0.6304
364.324478 88.574 -0.3164
366.964523 88.575 -0.0061
369.623699 88.576 0.3004
372.302145 88.577 0.6038
375.000000 88.579 0.9044
377.717405 88.580 1.2031
380.454501 88.582 1.4999
383.211431 88.584 1.7944
385.988339 88.585 2.0869
388.785369 88.586 2.3779
391.602668 88.587 2.6681
394.440383 88.588 2.9583
397.298660 88.590 3.2487
400.177650 88.592 3.5393
403.077502 88.594 3.8293
405.998368 88.596 4.1174
408.940400 88.598 4.4027
411.903750 88.599 4.6862
414.888575 88.600 4.9712
417.895028 88.599 5.2617
420.923268 88.599 5.5608
423.973452 88.600 5.8696
427.045738 88.602 6.1866
430.140287 88.606 6.5074
433.257261 88.611 6.8263
436.396822 88.618 7.1395
439.559133 88.626 7.4464
442.744360 88.635 7.7471
445.952668 88.645 8.0400
449.184225 88.657 8.3208
452.439199 88.668 8.5837
455.717760 88.679 8.8257
459.020079 88.687 9.0503
462.346327 88.692 9.2681
465.696680 88.695 9.4912
469.071310 88.695 9.7272
472.470394 88.695 9.9777
475.894109 88.695 10.2396
479.342634 88.695 10.5075
482.816148 88.695 10.7756
486.314833 88.695 11.0424
489.838871 88.694 11.3122
493.388445 88.693 11.5931
496.963741 88.692 11.8888
500.564945 88.692 12.1957
504.192245 88.694 12.5059
507.845830 88.697 12.8124
511.525890 88.701 13.1121
515.232618 88.704 13.4058
518.966206 88.707 13.6969
522.726849 88.708 13.9904
526.514743 88.709 14.2908
530.330086 88.711 14.6007
534.173076 88.714 14.9177
538.043915 88.717 15.2373
541.942803 88.722 15.5566
545.869944 88.726 15.8765
549.825542 88.732 16.1979
553.809805 88.738 16.5194
557.822939 88.744 16.8385
561.865154 88.751 17.1530
565.936660 88.757 17.4634
570.037671 88.763 17.7722
574.168399 88.768 18.0829
578.329060 88.773 18.3973
582.519870 88.777 18.7153
586.741049 88.782 19.0364
590.992817 88.786 19.3629
595.275394 88.790 19.6976
599.589005 88.795 20.0400
603.933874 88.801 20.3865
608.310228 88.808 20.7330
612.718295 88.815 21.0782
617.158304 88.821 21.4245
621.630488 88.827 21.7775
626.135079 88.833 22.1437
630.672311 88.840 22.5251
635.242423 88.848 22.9178
639.845651 88.858 23.3153
644.482237 88.870 23.7152
649.152421 88.884 24.1179
653.856447 88.900 24.5219
658.594560 88.919 24.9204
663.367008 88.940 25.3035
668.174039 88.963 25.6637
673.015903 88.984 26.0016
677.892854 89.004 26.3250
682.805145 89.022 26.6429
687.753032 89.037 26.9626
692.736774 89.051 27.2894
697.756631 89.064 27.6277
702.812863 89.076 27.9794
707.905735 89.089 28.3422
713.035511 89.103 28.7120
718.202461 89.118 29.0854
723.406852 89.134 29.4616
728.648956 89.150 29.8418
733.929047 89.166 30.2270
739.247399 89.183 30.6175
744.604290 89.200 31.0135
750.000000 89.218 31.4151
755.434809 89.237 31.8224
760.909001 89.256 32.2350
766.422861 89.277 32.6527
771.976677 89.299 33.0745
777.570739 89.322 33.4997
783.205337 89.346 33.9280
788.880766 89.371 34.3608
794.597321 89.398 34.8013
800.355301 89.425 35.2520
806.155005 89.456 35.7118
811.996736 89.490 36.1744
817.880799 89.528 36.6306
823.807501 89.569 37.0704
829.777150 89.612 37.4852
835.790057 89.655 37.8729
841.846536 89.698 38.2404
847.946903 89.738 38.5988
854.091476 89.777 38.9567
860.280575 89.814 39.3183
866.514523 89.852 39.6868
872.793644 89.889 40.0651
879.118267 89.927 40.4526
885.488720 89.966 40.8451
891.905336 90.007 41.2382
898.368450 90.048 41.6316
904.878398 90.090 42.0274
911.435520 90.134 42.4266
918.040157 90.179 42.8272
924.692655 90.227 43.2260
931.393359 90.276 43.6196
938.142619 90.327 44.0043
944.940787 90.379 44.3784
951.788218 90.432 44.7429
958.685268 90.485 45.1004
965.632296 90.539 45.4535
972.629666 90.593 45.8047
979.677741 90.647 46.1544
986.776890 90.702 46.5016
993.927482 90.758 46.8467
1001.129891 90.814 47.1932
1008.384491 90.872 47.5449
1015.691660 90.932 47.9013
1023.051781 90.995 48.2584
1030.465236 91.062 48.6086
1037.932411 91.133 48.9403
1045.453698 91.206 49.2412
1053.029486 91.281 49.5056
1060.660172 91.354 49.7368
1068.346153 91.426 49.9434
1076.087829 91.495 50.1346
1083.885605 91.562 50.3165
1091.739887 91.628 50.4914
1099.651084 91.693 50.6594
1107.619609 91.757 50.8208
1115.645878 91.820 50.9769
1123.730308 91.882 51.1292
1131.873321 91.943 51.2795
1140.075341 92.003 51.4290
1148.336797 92.063 51.5786
1156.658119 92.122 51.7286
1165.039741 92.181 51.8801
1173.482099 92.241 52.0341
1181.985634 92.302 52.1899
1190.550789 92.365 52.3417
1199.178011 92.430 52.4789
1207.867749 92.497 52.5906
1216.620457 92.563 52.6715
1225.436590 92.627 52.7255
1234.316609 92.687 52.7610
1243.260976 92.744 52.7868
1252.270157 92.798 52.8105
1261.344623 92.849 52.8368
1270.484846 92.898 52.8676
1279.691303 92.945 52.9048
1288.964474 92.991 52.9505
1298.304842 93.036 53.0043
1307.712894 93.081 53.0641
1317.189120 93.126 53.1263
1326.734016 93.170 53.1887
1336.348077 93.212 53.2519
1346.031806 93.253 53.3185
1355.785708 93.293 53.3921
1365.610290 93.331 53.4765
1375.506065 93.368 53.5762
1385.473549 93.406 53.6963
1395.513261 93.445 53.8379
1405.625726 93.486 53.9960
1415.811469 93.531 54.1590
1426.071023 93.580 54.3125
1436.404921 93.630 54.4471
1446.813703 93.681 54.5622
1457.297912 93.731 54.6631
1467.858093 93.779 54.7558
1478.494798 93.826 54.8448
1489.208581 93.872 54.9337
1500.000000 93.917 55.0263
1510.869618 93.962 55.1262
1521.818002 94.005 55.2361
1532.845723 94.049 55.3582
1543.953355 94.094 55.4937
1555.141477 94.141 55.6432
1566.410674 94.190 55.8027
1577.761531 94.243 55.9622
1589.194642 94.300 56.1078
1600.710601 94.358 56.2302
1612.310010 94.417 56.3280
1623.993473 94.474 56.4059
1635.761599 94.530 56.4710
1647.615002 94.585 56.5298
1659.554299 94.638 56.5872
1671.580114 94.691 56.6470
1683.693072 94.743 56.7101
1695.893807 94.795 56.7746
1708.182952 94.848 56.8382
1720.561150 94.899 56.9009
1733.029045 94.950 56.9655
1745.587288 95.000 57.0366
1758.236533 95.050 57.1209
1770.977440 95.100 57.2237
1783.810673 95.154 57.3441
1796.736900 95.211 57.4728
1809.756796 95.273 57.5952
1822.871040 95.338 57.6999
1836.080315 95.405 57.7828
1849.385310 95.472 57.8449
1862.786718 95.540 57.8894
1876.285239 95.606 57.9204
1889.881575 95.673 57.9432
1903.576436 95.739 57.9632
1917.370535 95.805 57.9854
1931.264593 95.872 58.0128
1945.259332 95.942 58.0434
1959.355483 96.016 58.0678
1973.553781 96.094 58.0720
1987.854965 96.175 58.0447
2002.259781 96.256 57.9820
2016.768981 96.337 57.8854
2031.383320 96.417 57.7592
2046.103561 96.495 57.6082
2060.930471 96.572 57.4367
2075.864823 96.648 57.2463
2090.907395 96.722 57.0373
2106.058972 96.795 56.8112
2121.320344 96.865 56.5725
2136.692305 96.933 56.3280
2152.175658 97.000 56.0847
2167.771210 97.067 55.8448
2183.479774 97.136 55.6014
2199.302169 97.206 55.3434
2215.239219 97.278 55.0611
2231.291755 97.350 54.7495
2247.460615 97.421 54.4084
2263.746641 97.490 54.0406
2280.150683 97.557 53.6521
2296.673595 97.623 53.2487
2313.316238 97.687 52.8348
2330.079481 97.753 52.4088
2346.964198 97.820 51.9611
2363.971268 97.887 51.4787
2381.101578 97.955 50.9507
2398.356022 98.020 50.3720
2415.735498 98.082 49.7428
2433.240913 98.140 49.0667
2450.873180 98.192 48.3488
2468.633217 98.240 47.5940
2486.521951 98.281 46.8078
2504.540314 98.315 45.9980
2522.689246 98.342 45.1754
2540.969692 98.363 44.3507
2559.382606 98.379 43.5288
2577.928947 98.391 42.7072
2596.609683 98.399 41.8799
2615.425787 98.403 41.0422
2634.378241 98.402 40.1927
2653.468031 98.395 39.3348
2672.696154 98.381 38.4767
2692.063613 98.362 37.6288
2711.571415 98.337 36.7997
2731.220579 98.309 35.9908
2751.012130 98.278 35.1972
2770.947098 98.244 34.4130
2791.026522 98.207 33.6348
2811.251451 98.165 32.8631
2831.622938 98.118 32.1010
2852.142045 98.066 31.3535
2872.809842 98.008 30.6274
2893.627406 97.945 29.9329
2914.595823 97.877 29.2828
2935.716186 97.806 28.6880
2956.989596 97.735 28.1508
2978.417161 97.665 27.6643
3000.000000 97.597 27.2166
3021.739237 97.533 26.7941
3043.636005 97.470 26.3855
3065.691446 97.409 25.9850
3087.906710 97.348 25.5919
3110.282955 97.288 25.2059
3132.821347 97.228 24.8243
3155.523062 97.168 24.4434
3178.389283 97.108 24.0606
3201.421202 97.045 23.6765
3224.620020 96.980 23.2932
3247.986946 96.911 22.9139
3271.523198 96.839 22.5445
3295.230004 96.761 22.1953
3319.108599 96.680 21.8781
3343.160228 96.595 21.6002
3367.386145 96.509 21.3621
3391.787613 96.422 21.1602
3416.365904 96.333 20.9913
3441.122300 96.243 20.8573
3466.058091 96.151 20.7660
3491.174576 96.058 20.7269
3516.473066 95.966 20.7448
3541.954880 95.876 20.8184
3567.621345 95.789 20.9421
3593.473800 95.707 21.1088
3619.513592 95.630 21.3102
3645.742080 95.558 21.5385
3672.160630 95.491 21.7900
3698.770620 95.429 22.0661
3725.573436 95.373 22.3666
3752.570477 95.323 22.6855
3779.763150 95.281 23.0116
3807.152872 95.244 23.3333
3834.741071 95.213 23.6449
3862.529185 95.186 23.9478
3890.518664 95.162 24.2452
3918.710966 95.142 24.5364
3947.107561 95.127 24.8159
3975.709929 95.115 25.0770
4004.519563 95.106 25.3132
4033.537962 95.097 25.5225
4062.766641 95.087 25.7114
4092.207123 95.075 25.8950
4121.860942 95.060 26.0903
4151.729646 95.045 26.3087
4181.814790 95.031 26.5559
4212.117944 95.017 26.8365
4242.640687 95.006 27.1588
4273.384610 95.000 27.5317
4304.351317 95.001 27.9572
4335.542421 95.014 28.4257
4366.959549 95.041 28.9160
4398.604338 95.084 29.3988
4430.478438 95.142 29.8436
4462.583511 95.213 30.2269
4494.921231 95.296 30.5344
4527.493283 95.388 30.7555
4560.301365 95.487 30.8806
4593.347189 95.591 30.9031
4626.632476 95.697 30.8240
4660.158962 95.803 30.6508
4693.928395 95.909 30.3911
4727.942535 96.016 30.0475
4762.203156 96.123 29.6162
4796.712043 96.229 29.0877
4831.470996 96.333 28.4526
4866.481826 96.433 27.7068
4901.746360 96.526 26.8504
4937.266434 96.612 25.8846
4973.043902 96.688 24.8113
5009.080628 96.750 23.6382
5045.378492 96.797 22.3809
5081.939384 96.828 21.0596
5118.765212 96.841 19.6938
5155.857894 96.839 18.2990
5193.219366 96.820 16.8846
5230.851574 96.785 15.4583
5268.756481 96.734 14.0306
5306.936062 96.666 12.6131
5345.392309 96.581 11.2163
5384.127225 96.479 9.8505
5423.142830 96.359 8.5300
5462.441159 96.223 7.2738
5502.024259 96.070 6.1017
5541.894195 95.902 5.0293
5582.053045 95.724 4.0645
5622.502902 95.536 3.2089
5663.245876 95.340 2.4625
5704.284090 95.138 1.8246
5745.619684 94.931 1.2916
5787.254813 94.720 0.8589
5829.191647 94.506 0.5258
5871.432373 94.290 0.2963
5913.979192 94.071 0.1770
5956.834323 93.854 0.1718
6000.000000 93.638 0.2781
6043.478473 93.427 0.4897
6087.272010 93.220 0.7982
6131.382892 93.021 1.1921
6175.813420 92.829 1.6599
6220.565910 92.643 2.1956
6265.642695 92.464 2.8009
6311.046124 92.292 3.4840
6356.778566 92.128 4.2533
6402.842404 91.973 5.1139
6449.240040 91.831 6.0673
6495.973891 91.705 7.1105
6543.046396 91.598 8.2325
6590.460007 91.514 9.4147
6638.217197 91.456 10.6305
6686.320456 91.425 11.8459
6734.772290 91.424 13.0181
6783.575226 91.449 14.0990
6832.731809 91.497 15.0481
6882.244600 91.562 15.8423
6932.116181 91.639 16.4775
6982.349153 91.722 16.9626
7032.946133 91.809 17.3115
7083.909760 91.897 17.5359
7135.242690 91.987 17.6433
7186.947600 92.077 17.6391
7239.027185 92.167 17.5276
7291.484160 92.256 17.3098
7344.321260 92.345 16.9813
7397.541239 92.433 16.5345
7451.146872 92.518 15.9636
7505.140954 92.597 15.2659
7559.526299 92.670 14.4409
7614.305743 92.733 13.4897
7669.482141 92.785 12.4143
7725.058371 92.824 11.2152
7781.037328 92.847 9.8932
7837.421932 92.850 8.4553
7894.215122 92.830 6.9175
7951.419859 92.784 5.3024
8009.039125 92.709 3.6375
8067.075924 92.606 1.9520
8125.533282 92.472 0.2725
8184.414245 92.309 -1.3768
8243.721885 92.115 -2.9695
8303.459292 91.890 -4.4738
8363.629581 91.637 -5.8546
8424.235888 91.356 -7.0770
8485.281374 91.052 -8.1111
8546.769221 90.729 -8.9373
8608.702634 90.393 -9.5439
8671.084842 90.047 -9.9203
8733.919097 89.696 -10.0536
8797.208675 89.345 -9.9318
8860.956876 89.002 -9.5516
8925.167022 88.674 -8.9327
8989.842461 88.370 -8.1223
9054.986566 88.093 -7.1836
9120.602731 87.843 -6.1723
9186.694378 87.614 -5.1145
9253.264952 87.402 -4.0027
9320.317925 87.207 -2.8137
9387.856790 87.029 -1.5293
9455.885071 86.872 -0.1453
9524.406312 86.740 1.3312
9593.424086 86.636 2.8887
9662.941992 86.564 4.5157
9732.963653 86.529 6.1934
9803.492719 86.533 7.8890
9874.532869 86.581 9.5574
9946.087805 86.673 11.1495
10018.161257 86.808 12.6252
10090.756983 86.984 13.9556
10163.878768 87.201 15.1156
10237.530423 87.461 16.0743
10311.715789 87.764 16.7892
10386.438732 88.109 17.2068
10461.703149 88.496 17.2662
10537.512962 88.919 16.8995
10613.872125 89.371 16.0336
10690.784618 89.842 14.5954
10768.254450 90.316 12.5218
10846.285661 90.774 9.7704
10924.882318 91.195 6.3270
11004.048518 91.556 2.2087
11083.788390 91.836 -2.5310
11164.106090 92.011 -7.7991
11245.005805 92.064 -13.4594
11326.491752 91.981 -19.3384
11408.568180 91.755 -25.2417
11491.239368 91.389 -30.9749
11574.509626 90.891 -36.3618
11658.383294 90.272 -41.2543
11742.864745 89.550 -45.5347
11827.958384 88.741 -49.1161
11913.668646 87.867 -51.9429
12000.000000 86.948 -53.9868
12086.956947 86.003 -55.2390
12174.544019 85.051 -55.7034
12262.765784 84.113 -55.3973
12351.626840 83.207 -54.3597
12441.131819 82.354 -52.6584
12531.285389 81.573 -50.3934
12622.092249 80.882 -47.6993
12713.557132 80.293 -44.7451
12805.684808 79.812 -41.7189
12898.480079 79.434 -38.7972
12991.947783 79.149 -36.1168
13086.092792 78.939 -33.7668
13180.920015 78.787 -31.7980
13276.434395 78.673 -30.2280
13372.640911 78.580 -29.0411
13469.544580 78.493 -28.1911
13567.150452 78.399 -27.6136
13665.463617 78.293 -27.2385
13764.489200 78.173 -26.9966
13864.232362 78.038 -26.8252
13964.698305 77.892 -26.6779
14065.892266 77.743 -26.5321
14167.819519 77.595 -26.3859
14270.485380 77.453 -26.2480
14373.895200 77.321 -26.1335
14478.054370 77.204 -26.0623
14582.968320 77.103 -26.0565
14688.642520 77.022 -26.1389
14795.082478 76.963 -26.3375
14902.293745 76.931 -26.6913
15010.281908 76.928 -27.2479
15119.052599 76.955 -28.0636
15228.611486 77.014 -29.2078
15338.964283 77.101 -30.7650
15450.116741 77.208 -32.8247
15562.074656 77.321 -35.4656
15674.843864 77.421 -38.7421
15788.430244 77.483 -42.6749
15902.839718 77.481 -47.2451
16018.078250 77.386 -52.3845
16134.151848 77.167 -57.9661
16251.066563 76.798 -63.7959
16368.828491 76.260 -69.6169
16487.443769 75.544 -75.1348
16606.918584 74.659 -80.0575
16727.259161 73.621 -84.1322
16848.471777 72.459 -87.1689
16970.562748 71.209 -89.0601
17093.538442 69.910 -89.7899
17217.405268 68.602 -89.4325
17342.169684 67.322 -88.1313
17467.838194 66.097 -86.0503
17594.417350 64.949 -83.2926
17721.913751 63.893 -79.8168
17850.334044 62.957 -75.3907
17979.684923 62.205 -69.6331
18109.973131 61.737 -62.2881
18241.205462 61.662 -53.8792
18373.388756 61.996 -46.1796
18506.529905 62.608 -41.2774
18640.635849 63.294 -40.0154
18775.713581 63.884 -41.8236
18911.770141 64.305 -45.5775
19048.812624 64.563 -50.3042
19186.848172 64.704 -55.4166
19325.883983 64.783 -60.6469
19465.927305 64.841 -65.8766
19606.985439 64.896 -70.9639
19749.065738 64.951 -75.6081
19892.175609 64.995 -79.2947
20036.322514 65.020 -81.3846
