* Measurement data measured by REW V5.31
* Source: EXCL: Microphone (2- USB Sound Device        ), MICROPHONE (Master Volume), L, volume: 0.560
* Format: 256k Log Swept Sine, 1 sweep at -15.0 dBFS with no timing reference
* Dated: May 22, 2024 11:34:50 AM
* REW Settings:
*  C-weighting compensation: Off
*  Target level: 75.0 dB
* Note: Splendor with Phantasm
* Measurement: L Intuaura View Splendor DS
* Smoothing: 1/12 octave
* Frequency Step: 96 ppo
* Start Frequency: 0.36621094 Hz
*
* Freq(Hz) SPL(dB) Phase(degrees)
0.366211 79.147 167.5522
0.368865 79.139 167.5423
0.371538 79.127 167.5273
0.374230 79.113 167.5083
0.376942 79.097 167.4864
0.379673 79.079 167.4622
0.382424 79.061 167.4361
0.385196 79.042 167.4083
0.387987 79.023 167.3792
0.390798 79.004 167.3486
0.393630 78.984 167.3168
0.396483 78.964 167.2836
0.399356 78.944 167.2491
0.402250 78.924 167.2134
0.405165 78.904 167.1763
0.408101 78.884 167.1378
0.411058 78.864 167.0981
0.414037 78.843 167.0570
0.417037 78.822 167.0145
0.420059 78.801 166.9707
0.423103 78.780 166.9255
0.426169 78.759 166.8789
0.429257 78.738 166.8310
0.432368 78.716 166.7816
0.435501 78.695 166.7309
0.438656 78.673 166.6787
0.441835 78.651 166.6251
0.445037 78.629 166.5700
0.448262 78.606 166.5136
0.451510 78.584 166.4557
0.454782 78.561 166.3963
0.458077 78.538 166.3355
0.461397 78.515 166.2733
0.464740 78.492 166.2096
0.468108 78.469 166.1444
0.471500 78.446 166.0778
0.474917 78.422 166.0097
0.478358 78.398 165.9402
0.481825 78.374 165.8692
0.485316 78.350 165.7967
0.488833 78.326 165.7228
0.492375 78.301 165.6474
0.495943 78.277 165.5706
0.499537 78.252 165.4923
0.503157 78.227 165.4126
0.506803 78.201 165.3315
0.510475 78.176 165.2489
0.514175 78.150 165.1649
0.517900 78.125 165.0796
0.521653 78.099 164.9928
0.525434 78.073 164.9047
0.529241 78.046 164.8152
0.533076 78.020 164.7244
0.536939 77.993 164.6323
0.540830 77.966 164.5389
0.544749 77.939 164.4442
0.548696 77.912 164.3483
0.552673 77.884 164.2511
0.556677 77.856 164.1528
0.560711 77.829 164.0533
0.564774 77.801 163.9528
0.568867 77.772 163.8511
0.572989 77.744 163.7485
0.577141 77.715 163.6448
0.581324 77.686 163.5403
0.585536 77.657 163.4348
0.589779 77.628 163.3285
0.594053 77.598 163.2215
0.598358 77.568 163.1137
0.602694 77.538 163.0054
0.607061 77.508 162.8964
0.611460 77.478 162.7870
0.615891 77.447 162.6772
0.620354 77.416 162.5671
0.624849 77.385 162.4568
0.629377 77.354 162.3463
0.633938 77.322 162.2359
0.638532 77.290 162.1255
0.643159 77.258 162.0154
0.647819 77.226 161.9055
0.652514 77.194 161.7962
0.657242 77.161 161.6875
0.662005 77.128 161.5795
0.666802 77.095 161.4725
0.671634 77.062 161.3665
0.676501 77.028 161.2618
0.681403 76.994 161.1585
0.686341 76.960 161.0569
0.691314 76.925 160.9571
0.696324 76.890 160.8593
0.701370 76.855 160.7637
0.706452 76.819 160.6705
0.711571 76.782 160.5799
0.716728 76.744 160.4918
0.721921 76.704 160.4062
0.727153 76.661 160.3230
0.732422 76.614 160.2416
0.737729 76.563 160.1615
0.743075 76.507 160.0821
0.748460 76.448 160.0030
0.753883 76.386 159.9236
0.759346 76.322 159.8437
0.764849 76.255 159.7632
0.770391 76.187 159.6820
0.775974 76.116 159.6002
0.781597 76.044 159.5176
0.787261 75.971 159.4344
0.792966 75.896 159.3506
0.798712 75.819 159.2662
0.804500 75.740 159.1814
0.810329 75.660 159.0962
0.816201 75.579 159.0106
0.822116 75.496 158.9248
0.828073 75.411 158.8389
0.834074 75.325 158.7530
0.840118 75.237 158.6672
0.846206 75.148 158.5816
0.852338 75.057 158.4963
0.858514 74.964 158.4116
0.864735 74.870 158.3276
0.871001 74.775 158.2444
0.877313 74.678 158.1623
0.883670 74.579 158.0815
0.890074 74.479 158.0022
0.896524 74.377 157.9246
0.903020 74.274 157.8491
0.909564 74.170 157.7759
0.916155 74.064 157.7054
0.922794 73.956 157.6378
0.929481 73.847 157.5737
0.936216 73.737 157.5133
0.943000 73.625 157.4571
0.949834 73.512 157.4057
0.956717 73.398 157.3595
0.963649 73.282 157.3192
0.970632 73.165 157.2852
0.977666 73.047 157.2584
0.984750 72.928 157.2395
0.991886 72.807 157.2292
0.999074 72.685 157.2284
1.006314 72.562 157.2380
1.013606 72.438 157.2591
1.020951 72.313 157.2928
1.028349 72.187 157.3403
1.035801 72.060 157.4028
1.043307 71.932 157.4819
1.050867 71.802 157.5790
1.058482 71.672 157.6957
1.066152 71.541 157.8340
1.073878 71.409 157.9957
1.081660 71.275 158.1828
1.089498 71.139 158.3978
1.097393 71.000 158.6428
1.105345 70.856 158.9204
1.113355 70.708 159.2333
1.121423 70.553 159.5843
1.129549 70.392 159.9762
1.137734 70.225 160.4121
1.145979 70.050 160.8956
1.154283 69.869 161.4301
1.162647 69.681 162.0196
1.171072 69.487 162.6685
1.179558 69.288 163.3814
1.188106 69.083 164.1636
1.196715 68.874 165.0207
1.205387 68.661 165.9588
1.214122 68.444 166.9846
1.222920 68.224 168.1054
1.231782 68.003 169.3289
1.240708 67.780 170.6633
1.249699 67.555 172.1175
1.258754 67.331 173.7006
1.267876 67.108 175.4220
1.277063 66.886 177.2909
1.286318 66.667 179.3164
1.295639 66.451 -178.4934
1.305027 66.240 -176.1315
1.314484 66.033 -173.5933
1.324009 65.833 -170.8767
1.333604 65.641 -167.9836
1.343268 65.457 -164.9204
1.353002 65.283 -161.6991
1.362806 65.120 -158.3374
1.372681 64.969 -154.8592
1.382628 64.832 -151.2939
1.392647 64.711 -147.6754
1.402739 64.606 -144.0403
1.412904 64.519 -140.4259
1.423142 64.452 -136.8683
1.433455 64.407 -133.3995
1.443843 64.386 -130.0465
1.454305 64.389 -126.8299
1.464844 64.418 -123.7641
1.475459 64.475 -120.8577
1.486150 64.559 -118.1151
1.496920 64.672 -115.5381
1.507767 64.813 -113.1260
1.518693 64.980 -110.8762
1.529698 65.174 -108.7845
1.540783 65.392 -106.8450
1.551948 65.634 -105.0508
1.563194 65.898 -103.3944
1.574521 66.182 -101.8677
1.585931 66.485 -100.4625
1.597423 66.805 -99.1705
1.608999 67.140 -97.9839
1.620658 67.488 -96.8949
1.632402 67.848 -95.8965
1.644232 68.217 -94.9818
1.656146 68.594 -94.1446
1.668147 68.976 -93.3788
1.680235 69.361 -92.6793
1.692411 69.747 -92.0409
1.704675 70.131 -91.4592
1.717028 70.511 -90.9299
1.729470 70.885 -90.4492
1.742003 71.251 -90.0137
1.754626 71.605 -89.6202
1.767341 71.947 -89.2661
1.780147 72.273 -88.9486
1.793047 72.584 -88.6658
1.806040 72.877 -88.4160
1.819128 73.153 -88.1979
1.832310 73.414 -88.0105
1.845587 73.660 -87.8530
1.858961 73.895 -87.7247
1.872432 74.119 -87.6243
1.886001 74.334 -87.5504
1.899667 74.542 -87.5015
1.913433 74.743 -87.4756
1.927299 74.936 -87.4710
1.941265 75.124 -87.4858
1.955332 75.306 -87.5182
1.969501 75.482 -87.5665
1.983773 75.654 -87.6291
1.998148 75.820 -87.7045
2.012627 75.982 -87.7912
2.027212 76.140 -87.8878
2.041902 76.294 -87.9931
2.056698 76.445 -88.1058
2.071602 76.593 -88.2247
2.086614 76.739 -88.3487
2.101734 76.883 -88.4770
2.116964 77.025 -88.6087
2.132304 77.166 -88.7431
2.147756 77.306 -88.8799
2.163320 77.445 -89.0190
2.178996 77.583 -89.1611
2.194786 77.720 -89.3071
2.210690 77.855 -89.4583
2.226710 77.986 -89.6161
2.242845 78.115 -89.7815
2.259098 78.240 -89.9547
2.275468 78.361 -90.1357
2.291957 78.479 -90.3239
2.308566 78.593 -90.5185
2.325295 78.703 -90.7185
2.342145 78.810 -90.9229
2.359117 78.914 -91.1307
2.376212 79.015 -91.3406
2.393431 79.113 -91.5517
2.410775 79.209 -91.7628
2.428244 79.303 -91.9728
2.445840 79.395 -92.1808
2.463564 79.486 -92.3857
2.481416 79.575 -92.5866
2.499397 79.664 -92.7830
2.517509 79.751 -92.9743
2.535752 79.838 -93.1606
2.554127 79.923 -93.3423
2.572635 80.007 -93.5204
2.591277 80.090 -93.6960
2.610055 80.170 -93.8701
2.628968 80.249 -94.0436
2.648019 80.325 -94.2167
2.667208 80.398 -94.3893
2.686535 80.470 -94.5612
2.706003 80.539 -94.7318
2.725612 80.607 -94.9008
2.745363 80.672 -95.0673
2.765257 80.736 -95.2307
2.785295 80.799 -95.3904
2.805478 80.861 -95.5455
2.825808 80.922 -95.6955
2.846285 80.983 -95.8395
2.866910 81.042 -95.9772
2.887685 81.102 -96.1079
2.908611 81.161 -96.2316
2.929688 81.219 -96.3482
2.950917 81.277 -96.4581
2.972301 81.334 -96.5618
2.993839 81.389 -96.6595
3.015534 81.444 -96.7518
3.037386 81.497 -96.8388
3.059396 81.549 -96.9207
3.081565 81.600 -96.9977
3.103896 81.651 -97.0698
3.126388 81.701 -97.1369
3.149043 81.750 -97.1992
3.171862 81.800 -97.2566
3.194847 81.849 -97.3090
3.217998 81.899 -97.3562
3.241317 81.949 -97.3982
3.264805 81.999 -97.4345
3.288463 82.050 -97.4650
3.312293 82.101 -97.4892
3.336295 82.152 -97.5070
3.360471 82.204 -97.5183
3.384822 82.256 -97.5235
3.409350 82.307 -97.5231
3.434056 82.359 -97.5179
3.458940 82.411 -97.5087
3.484005 82.463 -97.4965
3.509252 82.516 -97.4823
3.534681 82.569 -97.4670
3.560295 82.623 -97.4515
3.586094 82.677 -97.4367
3.612081 82.732 -97.4229
3.638255 82.788 -97.4103
3.664620 82.844 -97.3989
3.691175 82.902 -97.3881
3.717923 82.960 -97.3777
3.744864 83.019 -97.3676
3.772001 83.079 -97.3578
3.799335 83.139 -97.3491
3.826866 83.200 -97.3419
3.854597 83.262 -97.3373
3.882529 83.324 -97.3361
3.910664 83.386 -97.3392
3.939002 83.449 -97.3475
3.967546 83.512 -97.3616
3.996296 83.576 -97.3819
4.025255 83.639 -97.4087
4.054423 83.703 -97.4418
4.083804 83.768 -97.4810
4.113396 83.833 -97.5260
4.143204 83.898 -97.5768
4.173227 83.963 -97.6334
4.203468 84.029 -97.6959
4.233928 84.094 -97.7644
4.264609 84.160 -97.8394
4.295512 84.225 -97.9210
4.326639 84.290 -98.0096
4.357992 84.354 -98.1055
4.389572 84.418 -98.2088
4.421380 84.482 -98.3197
4.453419 84.545 -98.4382
4.485691 84.607 -98.5640
4.518196 84.669 -98.6967
4.550936 84.731 -98.8359
4.583914 84.792 -98.9809
4.617131 84.852 -99.1310
4.650589 84.912 -99.2859
4.684289 84.971 -99.4451
4.718233 85.029 -99.6082
4.752424 85.087 -99.7753
4.786862 85.143 -99.9465
4.821549 85.198 -100.1219
4.856488 85.253 -100.3014
4.891680 85.307 -100.4846
4.927127 85.359 -100.6711
4.962831 85.411 -100.8600
4.998794 85.463 -101.0507
5.035017 85.513 -101.2424
5.071503 85.563 -101.4346
5.108253 85.613 -101.6268
5.145270 85.661 -101.8190
5.182555 85.709 -102.0113
5.220110 85.756 -102.2036
5.257937 85.803 -102.3961
5.296038 85.849 -102.5884
5.334415 85.894 -102.7805
5.373071 85.940 -102.9720
5.412006 85.985 -103.1624
5.451224 86.030 -103.3516
5.490725 86.075 -103.5392
5.530514 86.119 -103.7254
5.570590 86.164 -103.9100
5.610957 86.209 -104.0934
5.651616 86.254 -104.2759
5.692570 86.299 -104.4578
5.733821 86.344 -104.6396
5.775370 86.390 -104.8214
5.817221 86.436 -105.0035
5.859375 86.482 -105.1859
5.901834 86.529 -105.3689
5.944602 86.577 -105.5524
5.987679 86.625 -105.7369
6.031068 86.674 -105.9229
6.074771 86.723 -106.1111
6.118792 86.773 -106.3021
6.163131 86.823 -106.4965
6.207792 86.874 -106.6949
6.252776 86.925 -106.8974
6.298086 86.977 -107.1041
6.343725 87.030 -107.3153
6.389694 87.083 -107.5311
6.435996 87.137 -107.7519
6.482634 87.191 -107.9780
6.529610 87.245 -108.2097
6.576926 87.299 -108.4475
6.624585 87.354 -108.6914
6.672590 87.409 -108.9414
6.720942 87.463 -109.1974
6.769645 87.518 -109.4591
6.818700 87.573 -109.7264
6.868111 87.628 -109.9991
6.917881 87.683 -110.2769
6.968010 87.737 -110.5598
7.018504 87.791 -110.8476
7.069362 87.845 -111.1401
7.120590 87.898 -111.4368
7.172189 87.952 -111.7371
7.224161 88.004 -112.0405
7.276511 88.057 -112.3462
7.329239 88.109 -112.6540
7.382350 88.161 -112.9635
7.435845 88.212 -113.2745
7.489729 88.263 -113.5865
7.544002 88.313 -113.8992
7.598669 88.364 -114.2119
7.653732 88.414 -114.5241
7.709194 88.464 -114.8356
7.765058 88.513 -115.1461
7.821327 88.563 -115.4556
7.878004 88.613 -115.7639
7.935091 88.663 -116.0710
7.992592 88.712 -116.3766
8.050510 88.762 -116.6809
8.108847 88.813 -116.9837
8.167607 88.863 -117.2852
8.226793 88.914 -117.5856
8.286408 88.965 -117.8852
8.346454 89.016 -118.1842
8.406936 89.068 -118.4830
8.467856 89.120 -118.7817
8.529218 89.173 -119.0805
8.591024 89.226 -119.3798
8.653278 89.279 -119.6799
8.715983 89.332 -119.9810
8.779143 89.386 -120.2836
8.842760 89.440 -120.5877
8.906839 89.494 -120.8935
8.971381 89.548 -121.2011
9.036392 89.602 -121.5105
9.101873 89.656 -121.8217
9.167829 89.710 -122.1347
9.234263 89.763 -122.4495
9.301178 89.817 -122.7659
9.368578 89.870 -123.0836
9.436467 89.922 -123.4023
9.504847 89.975 -123.7217
9.573723 90.026 -124.0417
9.643099 90.078 -124.3618
9.712976 90.128 -124.6817
9.783361 90.178 -125.0011
9.854255 90.228 -125.3195
9.925663 90.277 -125.6367
9.997588 90.326 -125.9524
10.070035 90.373 -126.2664
10.143007 90.421 -126.5786
10.216507 90.468 -126.8887
10.290540 90.515 -127.1967
10.365109 90.561 -127.5026
10.440219 90.607 -127.8065
10.515873 90.652 -128.1083
10.592076 90.697 -128.4084
10.668830 90.742 -128.7070
10.746141 90.786 -129.0041
10.824012 90.831 -129.3002
10.902447 90.875 -129.5955
10.981451 90.918 -129.8904
11.061027 90.962 -130.1852
11.141180 91.004 -130.4801
11.221913 91.047 -130.7755
11.303232 91.089 -131.0714
11.385140 91.131 -131.3683
11.467641 91.172 -131.6662
11.550741 91.213 -131.9653
11.634442 91.253 -132.2656
11.718750 91.292 -132.5672
11.803669 91.331 -132.8701
11.889203 91.369 -133.1742
11.975357 91.406 -133.4795
12.062136 91.443 -133.7859
12.149543 91.479 -134.0934
12.237583 91.514 -134.4019
12.326262 91.548 -134.7112
12.415583 91.582 -135.0213
12.505552 91.615 -135.3322
12.596172 91.647 -135.6439
12.687449 91.678 -135.9564
12.779387 91.709 -136.2698
12.871992 91.739 -136.5842
12.965268 91.769 -136.8995
13.059220 91.798 -137.2161
13.153852 91.827 -137.5340
13.249170 91.855 -137.8534
13.345179 91.883 -138.1744
13.441884 91.910 -138.4973
13.539289 91.936 -138.8221
13.637401 91.962 -139.1489
13.736223 91.988 -139.4779
13.835761 92.013 -139.8091
13.936021 92.038 -140.1425
14.037007 92.062 -140.4783
14.138725 92.086 -140.8164
14.241180 92.110 -141.1567
14.344377 92.133 -141.4992
14.448323 92.155 -141.8438
14.553021 92.178 -142.1906
14.658478 92.200 -142.5392
14.764700 92.221 -142.8898
14.871691 92.243 -143.2423
14.979457 92.264 -143.5964
15.088005 92.285 -143.9522
15.197339 92.305 -144.3096
15.307465 92.326 -144.6685
15.418389 92.346 -145.0287
15.530117 92.366 -145.3903
15.642655 92.386 -145.7531
15.756008 92.405 -146.1170
15.870182 92.425 -146.4820
15.985184 92.445 -146.8478
16.101019 92.464 -147.2144
16.217694 92.483 -147.5815
16.335214 92.502 -147.9491
16.453586 92.521 -148.3169
16.572815 92.540 -148.6848
16.692909 92.559 -149.0524
16.813872 92.577 -149.4196
16.935713 92.596 -149.7862
17.058436 92.614 -150.1519
17.182048 92.632 -150.5164
17.306556 92.649 -150.8795
17.431967 92.667 -151.2409
17.558286 92.684 -151.6005
17.685521 92.701 -151.9581
17.813677 92.718 -152.3135
17.942762 92.734 -152.6665
18.072783 92.751 -153.0171
18.203746 92.767 -153.3652
18.335658 92.782 -153.7109
18.468526 92.798 -154.0542
18.602356 92.813 -154.3951
18.737156 92.828 -154.7338
18.872934 92.842 -155.0703
19.009695 92.856 -155.4048
19.147447 92.870 -155.7374
19.286197 92.883 -156.0683
19.425953 92.896 -156.3976
19.566721 92.908 -156.7253
19.708510 92.920 -157.0515
19.851326 92.931 -157.3763
19.995177 92.941 -157.6998
20.140070 92.951 -158.0219
20.286013 92.960 -158.3426
20.433014 92.968 -158.6620
20.581080 92.976 -158.9801
20.730219 92.983 -159.2968
20.880439 92.989 -159.6121
21.031747 92.994 -159.9258
21.184152 92.999 -160.2380
21.337661 93.003 -160.5488
21.492282 93.006 -160.8580
21.648024 93.009 -161.1659
21.804895 93.011 -161.4725
21.962902 93.014 -161.7782
22.122054 93.016 -162.0834
22.282360 93.017 -162.3885
22.443827 93.019 -162.6940
22.606464 93.020 -163.0006
22.770280 93.022 -163.3088
22.935283 93.023 -163.6191
23.101481 93.024 -163.9319
23.268884 93.026 -164.2473
23.437500 93.026 -164.5652
23.607338 93.027 -164.8854
23.778406 93.027 -165.2074
23.950714 93.027 -165.5306
24.124271 93.026 -165.8544
24.299086 93.025 -166.1779
24.475167 93.024 -166.5004
24.652524 93.022 -166.8215
24.831166 93.021 -167.1406
25.011103 93.019 -167.4574
25.192344 93.017 -167.7717
25.374898 93.016 -168.0834
25.558775 93.015 -168.3925
25.743984 93.013 -168.6988
25.930536 93.012 -169.0026
26.118439 93.012 -169.3037
26.307704 93.011 -169.6024
26.498341 93.010 -169.8989
26.690359 93.010 -170.1935
26.883768 93.010 -170.4865
27.078579 93.010 -170.7783
27.274801 93.010 -171.0693
27.472446 93.009 -171.3597
27.671522 93.008 -171.6494
27.872042 93.007 -171.9378
28.074014 93.005 -172.2245
28.277450 93.002 -172.5084
28.482360 92.998 -172.7885
28.688755 92.994 -173.0639
28.896645 92.990 -173.3342
29.106042 92.984 -173.5991
29.316957 92.979 -173.8592
29.529400 92.974 -174.1154
29.743382 92.969 -174.3691
29.958915 92.964 -174.6220
30.176009 92.960 -174.8756
30.394677 92.955 -175.1310
30.614929 92.951 -175.3889
30.836778 92.946 -175.6493
31.060234 92.940 -175.9118
31.285309 92.934 -176.1757
31.512015 92.928 -176.4401
31.740364 92.921 -176.7040
31.970368 92.914 -176.9671
32.202039 92.907 -177.2292
32.435388 92.900 -177.4905
32.670428 92.893 -177.7517
32.907171 92.886 -178.0132
33.145630 92.880 -178.2757
33.385817 92.873 -178.5392
33.627745 92.867 -178.8038
33.871425 92.861 -179.0690
34.116871 92.855 -179.3344
34.364096 92.848 -179.5994
34.613113 92.842 -179.8636
34.863934 92.836 179.8732
35.116572 92.830 179.6108
35.371041 92.824 179.3490
35.627354 92.818 179.0874
35.885525 92.813 178.8258
36.145566 92.807 178.5641
36.407492 92.801 178.3026
36.671316 92.795 178.0414
36.937051 92.788 177.7812
37.204712 92.781 177.5223
37.474313 92.775 177.2648
37.745867 92.768 177.0085
38.019389 92.761 176.7529
38.294893 92.754 176.4974
38.572394 92.747 176.2413
38.851905 92.740 175.9841
39.133442 92.732 175.7256
39.417019 92.725 175.4659
39.702651 92.717 175.2050
39.990353 92.709 174.9435
40.280140 92.701 174.6814
40.572026 92.693 174.4189
40.866028 92.684 174.1558
41.162160 92.676 173.8920
41.460438 92.668 173.6273
41.760877 92.659 173.3615
42.063494 92.650 173.0948
42.368303 92.642 172.8269
42.675322 92.633 172.5579
42.984565 92.624 172.2877
43.296048 92.614 172.0163
43.609789 92.605 171.7439
43.925804 92.595 171.4705
44.244108 92.585 171.1964
44.564719 92.575 170.9219
44.887654 92.564 170.6470
45.212928 92.553 170.3718
45.540560 92.542 170.0961
45.870565 92.530 169.8201
46.202962 92.519 169.5443
46.537768 92.506 169.2692
46.875000 92.494 168.9954
47.214676 92.481 168.7233
47.556813 92.468 168.4527
47.901429 92.456 168.1832
48.248542 92.443 167.9146
48.598171 92.431 167.6471
48.950334 92.418 167.3811
49.305048 92.405 167.1172
49.662333 92.393 166.8548
50.022206 92.381 166.5924
50.384688 92.370 166.3278
50.749796 92.358 166.0592
51.117550 92.346 165.7862
51.487969 92.332 165.5109
51.861072 92.318 165.2364
52.236879 92.302 164.9662
52.615409 92.285 164.7023
52.996681 92.268 164.4448
53.380717 92.251 164.1922
53.767536 92.234 163.9429
54.157158 92.217 163.6952
54.549603 92.200 163.4483
54.944892 92.184 163.2016
55.343045 92.167 162.9542
55.744084 92.150 162.7056
56.148028 92.133 162.4555
56.554900 92.116 162.2045
56.964720 92.099 161.9531
57.377510 92.082 161.7018
57.793291 92.065 161.4503
58.212085 92.047 161.1985
58.633914 92.029 160.9468
59.058799 92.010 160.6962
59.486764 91.991 160.4481
59.917829 91.971 160.2035
60.352019 91.951 159.9627
60.789354 91.930 159.7250
61.229859 91.910 159.4893
61.673556 91.889 159.2550
62.120468 91.868 159.0213
62.570618 91.846 158.7877
63.024031 91.823 158.5536
63.480729 91.801 158.3187
63.940736 91.777 158.0829
64.404077 91.753 157.8463
64.870776 91.728 157.6099
65.340856 91.702 157.3745
65.814343 91.676 157.1407
66.291261 91.649 156.9092
66.771635 91.622 156.6802
67.255489 91.595 156.4539
67.742850 91.568 156.2298
68.233743 91.542 156.0068
68.728193 91.517 155.7830
69.226226 91.491 155.5569
69.727867 91.466 155.3287
70.233144 91.440 155.1002
70.742083 91.414 154.8742
71.254709 91.388 154.6522
71.771050 91.362 154.4338
72.291132 91.337 154.2161
72.814984 91.311 153.9963
73.342631 91.284 153.7738
73.874102 91.255 153.5527
74.409424 91.224 153.3403
74.948626 91.192 153.1429
75.491734 91.160 152.9604
76.038779 91.130 152.7858
76.589787 91.100 152.6091
77.144788 91.072 152.4232
77.703811 91.043 152.2275
78.266885 91.012 152.0255
78.834039 90.981 151.8213
79.405303 90.950 151.6171
79.980706 90.918 151.4131
80.560280 90.885 151.2095
81.144053 90.853 151.0073
81.732056 90.821 150.8080
82.324320 90.788 150.6136
82.920876 90.756 150.4251
83.521755 90.724 150.2426
84.126988 90.691 150.0653
84.736607 90.659 149.8919
85.350643 90.627 149.7213
85.969129 90.594 149.5529
86.592097 90.561 149.3864
87.219579 90.527 149.2222
87.851608 90.493 149.0602
88.488217 90.458 148.9002
89.129439 90.423 148.7419
89.775308 90.388 148.5853
90.425856 90.353 148.4300
91.081119 90.318 148.2763
91.741131 90.283 148.1245
92.405925 90.249 147.9752
93.075536 90.214 147.8288
93.750000 90.180 147.6850
94.429351 90.146 147.5440
95.113625 90.111 147.4055
95.802858 90.075 147.2690
96.497085 90.040 147.1339
97.196342 90.003 146.9998
97.900667 89.967 146.8664
98.610096 89.930 146.7329
99.324665 89.893 146.5988
100.044413 89.856 146.4639
100.769376 89.820 146.3290
101.499592 89.784 146.1957
102.235100 89.748 146.0666
102.975938 89.713 145.9436
103.722144 89.678 145.8275
104.473757 89.643 145.7176
105.230817 89.608 145.6134
105.993363 89.572 145.5139
106.761435 89.536 145.4174
107.535072 89.501 145.3213
108.314315 89.465 145.2232
109.099206 89.429 145.1226
109.889783 89.393 145.0216
110.686090 89.357 144.9242
111.488167 89.322 144.8341
112.296056 89.287 144.7532
113.109800 89.252 144.6812
113.929440 89.217 144.6179
114.755020 89.178 144.5647
115.586582 89.137 144.5243
116.424170 89.093 144.4995
117.267827 89.046 144.4912
118.117598 89.001 144.4962
118.973527 88.958 144.5023
119.835658 88.921 144.4855
120.704037 88.889 144.4226
121.578708 88.859 144.3103
122.459718 88.829 144.1669
123.347111 88.799 144.0162
124.240935 88.769 143.8762
125.141236 88.738 143.7577
126.048061 88.708 143.6655
126.961458 88.679 143.5976
127.881473 88.651 143.5466
128.808154 88.623 143.5026
129.741551 88.595 143.4585
130.681712 88.566 143.4116
131.628686 88.536 143.3623
132.582521 88.505 143.3119
133.543269 88.473 143.2602
134.510979 88.440 143.2055
135.485701 88.407 143.1465
136.467486 88.374 143.0835
137.456386 88.340 143.0181
138.452451 88.307 142.9521
139.455735 88.273 142.8873
140.466288 88.239 142.8247
141.484165 88.206 142.7647
142.509418 88.171 142.7074
143.542100 88.136 142.6540
144.582265 88.100 142.6049
145.629968 88.063 142.5594
146.685262 88.026 142.5168
147.748204 87.990 142.4781
148.818849 87.955 142.4455
149.897251 87.921 142.4198
150.983469 87.889 142.3999
152.077557 87.858 142.3844
153.179574 87.826 142.3738
154.289576 87.794 142.3694
155.407622 87.759 142.3724
156.533770 87.724 142.3823
157.668078 87.688 142.3972
158.810606 87.652 142.4158
159.961413 87.617 142.4383
161.120559 87.583 142.4663
162.288105 87.550 142.5015
163.464112 87.519 142.5449
164.648640 87.488 142.5963
165.841752 87.457 142.6541
167.043510 87.428 142.7160
168.253976 87.399 142.7803
169.473213 87.370 142.8463
170.701286 87.343 142.9144
171.938258 87.317 142.9856
173.184194 87.292 143.0602
174.439158 87.268 143.1376
175.703216 87.246 143.2166
176.976434 87.227 143.2951
178.258878 87.211 143.3701
179.550615 87.199 143.4372
180.851713 87.190 143.4919
182.162239 87.184 143.5310
183.482262 87.180 143.5526
184.811850 87.177 143.5543
186.151073 87.174 143.5347
187.500000 87.170 143.4944
188.858702 87.164 143.4359
190.227250 87.155 143.3633
191.605715 87.145 143.2812
192.994169 87.132 143.1941
194.392685 87.117 143.1055
195.801334 87.099 143.0176
197.220191 87.080 142.9324
198.649330 87.059 142.8517
200.088825 87.037 142.7769
201.538751 87.013 142.7086
202.999184 86.990 142.6457
204.470200 86.966 142.5848
205.951875 86.942 142.5231
207.444287 86.919 142.4607
208.947514 86.896 142.3999
210.461634 86.872 142.3434
211.986726 86.849 142.2924
213.522869 86.825 142.2470
215.070144 86.801 142.2063
216.628631 86.777 142.1692
218.198411 86.753 142.1348
219.779567 86.729 142.1028
221.372180 86.705 142.0726
222.976334 86.681 142.0440
224.592112 86.658 142.0171
226.219600 86.634 141.9917
227.858880 86.611 141.9679
229.510039 86.588 141.9452
231.173164 86.565 141.9234
232.848340 86.543 141.9026
234.535655 86.520 141.8834
236.235197 86.498 141.8664
237.947054 86.476 141.8519
239.671317 86.454 141.8395
241.408074 86.433 141.8287
243.157416 86.411 141.8184
244.919435 86.389 141.8076
246.694223 86.368 141.7955
248.481871 86.346 141.7818
250.282473 86.326 141.7670
252.096123 86.306 141.7518
253.922915 86.286 141.7369
255.762945 86.266 141.7227
257.616309 86.246 141.7097
259.483103 86.227 141.6979
261.363424 86.207 141.6874
263.257372 86.188 141.6777
265.165043 86.169 141.6686
267.086538 86.149 141.6596
269.021957 86.130 141.6506
270.971401 86.111 141.6409
272.934972 86.091 141.6300
274.912771 86.072 141.6174
276.904902 86.053 141.6034
278.911469 86.034 141.5888
280.932577 86.015 141.5745
282.968330 85.997 141.5611
285.018835 85.979 141.5488
287.084199 85.960 141.5374
289.164530 85.942 141.5264
291.259935 85.924 141.5154
293.370525 85.906 141.5043
295.496408 85.888 141.4932
297.637697 85.870 141.4818
299.794503 85.852 141.4699
301.966937 85.835 141.4576
304.155114 85.817 141.4450
306.359147 85.799 141.4323
308.579152 85.782 141.4198
310.815244 85.765 141.4075
313.067539 85.748 141.3955
315.336156 85.730 141.3837
317.621211 85.714 141.3723
319.922826 85.697 141.3611
322.241118 85.680 141.3498
324.576210 85.664 141.3383
326.928223 85.647 141.3269
329.297280 85.631 141.3158
331.683504 85.614 141.3053
334.087019 85.597 141.2953
336.507952 85.581 141.2853
338.946427 85.564 141.2749
341.402572 85.548 141.2640
343.876516 85.532 141.2528
346.368387 85.516 141.2416
348.878315 85.500 141.2311
351.406431 85.484 141.2212
353.952867 85.468 141.2116
356.517756 85.453 141.2018
359.101230 85.437 141.1915
361.703426 85.421 141.1814
364.324478 85.406 141.1723
366.964523 85.390 141.1647
369.623699 85.375 141.1584
372.302145 85.359 141.1524
375.000000 85.344 141.1462
377.717405 85.329 141.1396
380.454501 85.314 141.1329
383.211431 85.299 141.1264
385.988339 85.284 141.1200
388.785369 85.270 141.1133
391.602668 85.255 141.1066
394.440383 85.241 141.1001
397.298660 85.226 141.0945
400.177650 85.211 141.0905
403.077502 85.196 141.0883
405.998368 85.182 141.0880
408.940400 85.167 141.0891
411.903750 85.152 141.0911
414.888575 85.138 141.0934
417.895028 85.124 141.0960
420.923268 85.110 141.0990
423.973452 85.096 141.1023
427.045738 85.082 141.1061
430.140287 85.069 141.1102
433.257261 85.056 141.1149
436.396822 85.043 141.1204
439.559133 85.030 141.1270
442.744360 85.018 141.1349
445.952668 85.005 141.1436
449.184225 84.992 141.1528
452.439199 84.979 141.1623
455.717760 84.967 141.1720
459.020079 84.954 141.1824
462.346327 84.942 141.1936
465.696680 84.930 141.2060
469.071310 84.918 141.2198
472.470394 84.907 141.2348
475.894109 84.896 141.2510
479.342634 84.885 141.2682
482.816148 84.874 141.2862
486.314833 84.863 141.3051
489.838871 84.853 141.3252
493.388445 84.842 141.3467
496.963741 84.832 141.3698
500.564945 84.822 141.3941
504.192245 84.811 141.4190
507.845830 84.801 141.4443
511.525890 84.791 141.4702
515.232618 84.781 141.4970
518.966206 84.772 141.5254
522.726849 84.763 141.5559
526.514743 84.754 141.5886
530.330086 84.746 141.6228
534.173076 84.737 141.6578
538.043915 84.729 141.6932
541.942803 84.722 141.7290
545.869944 84.714 141.7657
549.825542 84.707 141.8040
553.809805 84.700 141.8440
557.822939 84.693 141.8860
561.865154 84.687 141.9301
565.936660 84.681 141.9763
570.037671 84.675 142.0243
574.168399 84.670 142.0738
578.329060 84.665 142.1245
582.519870 84.661 142.1767
586.741049 84.657 142.2305
590.992817 84.653 142.2858
595.275394 84.649 142.3427
599.589005 84.646 142.4012
603.933874 84.644 142.4616
608.310228 84.641 142.5239
612.718295 84.640 142.5875
617.158304 84.639 142.6524
621.630488 84.638 142.7188
626.135079 84.638 142.7868
630.672311 84.638 142.8564
635.242423 84.639 142.9275
639.845651 84.641 142.9998
644.482237 84.642 143.0735
649.152421 84.645 143.1495
653.856447 84.648 143.2283
658.594560 84.651 143.3102
663.367008 84.655 143.3951
668.174039 84.660 143.4822
673.015903 84.665 143.5707
677.892854 84.671 143.6602
682.805145 84.677 143.7504
687.753032 84.685 143.8415
692.736774 84.692 143.9337
697.756631 84.701 144.0274
702.812863 84.711 144.1230
707.905735 84.721 144.2207
713.035511 84.732 144.3203
718.202461 84.745 144.4216
723.406852 84.758 144.5238
728.648956 84.772 144.6266
733.929047 84.787 144.7295
739.247399 84.803 144.8325
744.604290 84.820 144.9357
750.000000 84.838 145.0397
755.434809 84.857 145.1447
760.909001 84.877 145.2513
766.422861 84.899 145.3592
771.976677 84.921 145.4684
777.570739 84.945 145.5789
783.205337 84.970 145.6910
788.880766 84.997 145.8049
794.597321 85.024 145.9205
800.355301 85.053 146.0378
806.155005 85.084 146.1558
811.996736 85.116 146.2734
817.880799 85.151 146.3887
823.807501 85.188 146.4994
829.777150 85.227 146.6027
835.790057 85.269 146.6959
841.846536 85.312 146.7766
847.946903 85.356 146.8449
854.091476 85.402 146.9023
860.280575 85.448 146.9518
866.514523 85.495 146.9958
872.793644 85.542 147.0356
879.118267 85.590 147.0710
885.488720 85.640 147.1010
891.905336 85.691 147.1238
898.368450 85.744 147.1375
904.878398 85.799 147.1401
911.435520 85.855 147.1296
918.040157 85.912 147.1044
924.692655 85.971 147.0630
931.393359 86.029 147.0038
938.142619 86.088 146.9259
944.940787 86.147 146.8289
951.788218 86.203 146.7136
958.685268 86.258 146.5822
965.632296 86.310 146.4387
972.629666 86.360 146.2888
979.677741 86.406 146.1405
986.776890 86.449 146.0023
993.927482 86.491 145.8819
1001.129891 86.532 145.7844
1008.384491 86.575 145.7115
1015.691660 86.620 145.6609
1023.051781 86.668 145.6266
1030.465236 86.721 145.6003
1037.932411 86.778 145.5730
1045.453698 86.840 145.5362
1053.029486 86.906 145.4837
1060.660172 86.975 145.4110
1068.346153 87.047 145.3157
1076.087829 87.121 145.1967
1083.885605 87.196 145.0541
1091.739887 87.271 144.8886
1099.651084 87.347 144.7012
1107.619609 87.423 144.4928
1115.645878 87.499 144.2649
1123.730308 87.575 144.0187
1131.873321 87.650 143.7555
1140.075341 87.724 143.4762
1148.336797 87.797 143.1817
1156.658119 87.870 142.8726
1165.039741 87.941 142.5490
1173.482099 88.012 142.2114
1181.985634 88.081 141.8607
1190.550789 88.149 141.4980
1199.178011 88.216 141.1242
1207.867749 88.282 140.7401
1216.620457 88.346 140.3461
1225.436590 88.410 139.9431
1234.316609 88.471 139.5320
1243.260976 88.532 139.1135
1252.270157 88.590 138.6886
1261.344623 88.647 138.2583
1270.484846 88.703 137.8234
1279.691303 88.757 137.3851
1288.964474 88.810 136.9444
1298.304842 88.861 136.5025
1307.712894 88.910 136.0602
1317.189120 88.959 135.6186
1326.734016 89.005 135.1783
1336.348077 89.050 134.7405
1346.031806 89.094 134.3063
1355.785708 89.137 133.8774
1365.610290 89.179 133.4550
1375.506065 89.220 133.0404
1385.473549 89.261 132.6345
1395.513261 89.302 132.2382
1405.625726 89.343 131.8518
1415.811469 89.385 131.4747
1426.071023 89.429 131.1056
1436.404921 89.474 130.7416
1446.813703 89.522 130.3791
1457.297912 89.572 130.0137
1467.858093 89.624 129.6409
1478.494798 89.678 129.2564
1489.208581 89.733 128.8568
1500.000000 89.789 128.4404
1510.869618 89.844 128.0071
1521.818002 89.898 127.5584
1532.845723 89.951 127.0975
1543.953355 90.002 126.6279
1555.141477 90.051 126.1541
1566.410674 90.098 125.6799
1577.761531 90.143 125.2090
1589.194642 90.186 124.7442
1600.710601 90.229 124.2878
1612.310010 90.270 123.8416
1623.993473 90.311 123.4067
1635.761599 90.353 122.9838
1647.615002 90.394 122.5731
1659.554299 90.437 122.1749
1671.580114 90.480 121.7892
1683.693072 90.525 121.4161
1695.893807 90.572 121.0553
1708.182952 90.621 120.7067
1720.561150 90.673 120.3694
1733.029045 90.728 120.0426
1745.587288 90.787 119.7244
1758.236533 90.850 119.4122
1770.977440 90.918 119.1031
1783.810673 90.991 118.7930
1796.736900 91.070 118.4768
1809.756796 91.156 118.1486
1822.871040 91.248 117.8012
1836.080315 91.346 117.4268
1849.385310 91.450 117.0171
1862.786718 91.560 116.5638
1876.285239 91.674 116.0591
1889.881575 91.792 115.4960
1903.576436 91.912 114.8694
1917.370535 92.032 114.1767
1931.264593 92.151 113.4173
1945.259332 92.267 112.5933
1959.355483 92.378 111.7090
1973.553781 92.485 110.7707
1987.854965 92.584 109.7862
2002.259781 92.677 108.7645
2016.768981 92.761 107.7150
2031.383320 92.838 106.6468
2046.103561 92.908 105.5686
2060.930471 92.970 104.4876
2075.864823 93.026 103.4101
2090.907395 93.077 102.3406
2106.058972 93.122 101.2825
2121.320344 93.164 100.2382
2136.692305 93.203 99.2094
2152.175658 93.239 98.1968
2167.771210 93.274 97.2004
2183.479774 93.309 96.2191
2199.302169 93.344 95.2496
2215.239219 93.381 94.2866
2231.291755 93.420 93.3219
2247.460615 93.461 92.3456
2263.746641 93.504 91.3470
2280.150683 93.548 90.3163
2296.673595 93.592 89.2465
2313.316238 93.633 88.1344
2330.079481 93.669 86.9808
2346.964198 93.699 85.7910
2363.971268 93.722 84.5731
2381.101578 93.736 83.3375
2398.356022 93.741 82.0957
2415.735498 93.737 80.8586
2433.240913 93.724 79.6365
2450.873180 93.704 78.4385
2468.633217 93.676 77.2720
2486.521951 93.642 76.1429
2504.540314 93.603 75.0561
2522.689246 93.560 74.0148
2540.969692 93.513 73.0218
2559.382606 93.465 72.0787
2577.928947 93.416 71.1863
2596.609683 93.367 70.3441
2615.425787 93.320 69.5503
2634.378241 93.276 68.8011
2653.468031 93.236 68.0902
2672.696154 93.202 67.4085
2692.063613 93.174 66.7442
2711.571415 93.153 66.0845
2731.220579 93.137 65.4169
2751.012130 93.125 64.7315
2770.947098 93.116 64.0227
2791.026522 93.107 63.2891
2811.251451 93.099 62.5338
2831.622938 93.088 61.7626
2852.142045 93.075 60.9826
2872.809842 93.059 60.2011
2893.627406 93.041 59.4243
2914.595823 93.020 58.6573
2935.716186 92.997 57.9040
2956.989596 92.973 57.1675
2978.417161 92.947 56.4506
3000.000000 92.922 55.7554
3021.739237 92.896 55.0837
3043.636005 92.870 54.4363
3065.691446 92.847 53.8128
3087.906710 92.826 53.2111
3110.282955 92.808 52.6277
3132.821347 92.793 52.0582
3155.523062 92.783 51.4971
3178.389283 92.776 50.9393
3201.421202 92.773 50.3800
3224.620020 92.773 49.8153
3247.986946 92.776 49.2424
3271.523198 92.781 48.6602
3295.230004 92.788 48.0688
3319.108599 92.797 47.4692
3343.160228 92.807 46.8628
3367.386145 92.817 46.2512
3391.787613 92.830 45.6360
3416.365904 92.843 45.0183
3441.122300 92.858 44.3991
3466.058091 92.875 43.7788
3491.174576 92.894 43.1573
3516.473066 92.916 42.5345
3541.954880 92.939 41.9096
3567.621345 92.966 41.2815
3593.473800 92.996 40.6484
3619.513592 93.030 40.0078
3645.742080 93.068 39.3565
3672.160630 93.110 38.6910
3698.770620 93.157 38.0075
3725.573436 93.208 37.3020
3752.570477 93.263 36.5702
3779.763150 93.323 35.8078
3807.152872 93.387 35.0102
3834.741071 93.456 34.1727
3862.529185 93.528 33.2903
3890.518664 93.603 32.3579
3918.710966 93.683 31.3703
3947.107561 93.764 30.3217
3975.709929 93.849 29.2064
4004.519563 93.934 28.0185
4033.537962 94.021 26.7519
4062.766641 94.107 25.4010
4092.207123 94.191 23.9602
4121.860942 94.273 22.4247
4151.729646 94.350 20.7909
4181.814790 94.421 19.0560
4212.117944 94.483 17.2190
4242.640687 94.536 15.2802
4273.384610 94.576 13.2416
4304.351317 94.601 11.1073
4335.542421 94.610 8.8830
4366.959549 94.600 6.5765
4398.604338 94.569 4.1979
4430.478438 94.514 1.7594
4462.583511 94.434 -0.7238
4494.921231 94.327 -3.2342
4527.493283 94.191 -5.7510
4560.301365 94.024 -8.2509
4593.347189 93.826 -10.7079
4626.632476 93.596 -13.0943
4660.158962 93.335 -15.3817
4693.928395 93.043 -17.5415
4727.942535 92.724 -19.5467
4762.203156 92.378 -21.3725
4796.712043 92.010 -22.9974
4831.470996 91.624 -24.4042
4866.481826 91.223 -25.5806
4901.746360 90.812 -26.5198
4937.266434 90.395 -27.2200
4973.043902 89.977 -27.6846
5009.080628 89.563 -27.9211
5045.378492 89.155 -27.9412
5081.939384 88.758 -27.7599
5118.765212 88.374 -27.3948
5155.857894 88.005 -26.8652
5193.219366 87.653 -26.1912
5230.851574 87.319 -25.3928
5268.756481 87.003 -24.4895
5306.936062 86.705 -23.4987
5345.392309 86.423 -22.4356
5384.127225 86.157 -21.3119
5423.142830 85.905 -20.1353
5462.441159 85.665 -18.9095
5502.024259 85.435 -17.6342
5541.894195 85.214 -16.3043
5582.053045 85.001 -14.9098
5622.502902 84.793 -13.4351
5663.245876 84.591 -11.8586
5704.284090 84.394 -10.1524
5745.619684 84.205 -8.2821
5787.254813 84.026 -6.2083
5829.191647 83.866 -3.8903
5871.432373 83.733 -1.2930
5913.979192 83.641 1.6024
5956.834323 83.605 4.7857
6000.000000 83.642 8.2025
6043.478473 83.766 11.7405
6087.272010 83.987 15.2277
6131.382892 84.303 18.4518
6175.813420 84.698 21.2029
6220.565910 85.147 23.3216
6265.642695 85.621 24.7323
6311.046124 86.090 25.4487
6356.778566 86.528 25.5564
6402.842404 86.919 25.1855
6449.240040 87.254 24.4828
6495.973891 87.530 23.5902
6543.046396 87.752 22.6311
6590.460007 87.927 21.7024
6638.217197 88.065 20.8738
6686.320456 88.175 20.1889
6734.772290 88.269 19.6698
6783.575226 88.356 19.3213
6832.731809 88.442 19.1356
6882.244600 88.536 19.0960
6932.116181 88.642 19.1805
6982.349153 88.767 19.3633
7032.946133 88.913 19.6161
7083.909760 89.084 19.9085
7135.242690 89.283 20.2081
7186.947600 89.513 20.4795
7239.027185 89.775 20.6838
7291.484160 90.071 20.7770
7344.321260 90.400 20.7095
7397.541239 90.763 20.4255
7451.146872 91.156 19.8641
7505.140954 91.573 18.9615
7559.526299 92.007 17.6548
7614.305743 92.446 15.8880
7669.482141 92.875 13.6177
7725.058371 93.278 10.8216
7781.037328 93.635 7.5053
7837.421932 93.927 3.7077
7894.215122 94.136 -0.4956
7951.419859 94.248 -4.9928
8009.039125 94.250 -9.6426
8067.075924 94.140 -14.2852
8125.533282 93.919 -18.7571
8184.414245 93.595 -22.9074
8243.721885 93.183 -26.6105
8303.459292 92.698 -29.7750
8363.629581 92.161 -32.3465
8424.235888 91.592 -34.3055
8485.281374 91.008 -35.6635
8546.769221 90.428 -36.4552
8608.702634 89.864 -36.7324
8671.084842 89.329 -36.5565
8733.919097 88.829 -35.9926
8797.208675 88.370 -35.1045
8860.956876 87.954 -33.9512
8925.167022 87.584 -32.5852
8989.842461 87.258 -31.0515
9054.986566 86.975 -29.3881
9120.602731 86.736 -27.6265
9186.694378 86.537 -25.7927
9253.264952 86.378 -23.9085
9320.317925 86.258 -21.9927
9387.856790 86.177 -20.0619
9455.885071 86.133 -18.1312
9524.406312 86.127 -16.2150
9593.424086 86.159 -14.3281
9662.941992 86.230 -12.4868
9732.963653 86.341 -10.7099
9803.492719 86.495 -9.0206
9874.532869 86.693 -7.4475
9946.087805 86.938 -6.0277
10018.161257 87.230 -4.8084
10090.756983 87.572 -3.8490
10163.878768 87.963 -3.2211
10237.530423 88.398 -3.0076
10311.715789 88.871 -3.2983
10386.438732 89.371 -4.1833
10461.703149 89.878 -5.7433
10537.512962 90.372 -8.0378
10613.872125 90.827 -11.0935
10690.784618 91.212 -14.8918
10768.254450 91.498 -19.3598
10846.285661 91.659 -24.3654
10924.882318 91.673 -29.7207
11004.048518 91.526 -35.1961
11083.788390 91.215 -40.5432
11164.106090 90.749 -45.5238
11245.005805 90.143 -49.9343
11326.491752 89.419 -53.6205
11408.568180 88.605 -56.4835
11491.239368 87.728 -58.4772
11574.509626 86.815 -59.6021
11658.383294 85.891 -59.8959
11742.864745 84.977 -59.4239
11827.958384 84.090 -58.2684
11913.668646 83.244 -56.5188
12000.000000 82.446 -54.2640
12086.956947 81.703 -51.5855
12174.544019 81.015 -48.5542
12262.765784 80.384 -45.2298
12351.626840 79.809 -41.6609
12441.131819 79.287 -37.8857
12531.285389 78.818 -33.9341
12622.092249 78.400 -29.8308
12713.557132 78.032 -25.5985
12805.684808 77.713 -21.2611
12898.480079 77.444 -16.8446
12991.947783 77.223 -12.3775
13086.092792 77.048 -7.8861
13180.920015 76.917 -3.3881
13276.434395 76.829 1.1108
13372.640911 76.783 5.6138
13469.544580 76.780 10.1278
13567.150452 76.821 14.6571
13665.463617 76.910 19.2005
13764.489200 77.052 23.7485
13864.232362 77.251 28.2844
13964.698305 77.515 32.7831
14065.892266 77.849 37.2108
14167.819519 78.263 41.5201
14270.485380 78.763 45.6453
14373.895200 79.356 49.4970
14478.054370 80.047 52.9595
14582.968320 80.835 55.8918
14688.642520 81.711 58.1328
14795.082478 82.659 59.5124
14902.293745 83.653 59.8679
15010.281908 84.660 59.0640
15119.052599 85.638 57.0126
15228.611486 86.543 53.6906
15338.964283 87.327 49.1568
15450.116741 87.946 43.5656
15562.074656 88.363 37.1735
15674.843864 88.555 30.3272
15788.430244 88.517 23.4218
15902.839718 88.267 16.8325
16018.078250 87.841 10.8505
16134.151848 87.287 5.6430
16251.066563 86.661 1.2372
16368.828491 86.016 -2.4779
16487.443769 85.399 -5.7281
16606.918584 84.835 -8.8058
16727.259161 84.328 -12.0064
16848.471777 83.855 -15.5610
16970.562748 83.372 -19.5857
17093.538442 82.827 -24.0574
17217.405268 82.173 -28.8188
17342.169684 81.371 -33.6116
17467.838194 80.400 -38.1270
17594.417350 79.257 -42.0579
17721.913751 77.951 -45.1359
17850.334044 76.501 -47.1476
17979.684923 74.930 -47.9356
18109.973131 73.264 -47.3926
18241.205462 71.527 -45.4537
18373.388756 69.746 -42.0886
18506.529905 67.948 -37.2916
18640.635849 66.158 -31.0693
18775.713581 64.403 -23.4417
18911.770141 62.715 -14.4974
19048.812624 61.128 -4.5240
19186.848172 59.676 5.9047
19325.883983 58.380 16.0894
19465.927305 57.250 25.5121
19606.985439 56.289 33.9170
19749.065738 55.517 41.0762
19892.175609 54.970 46.5191
20036.322514 54.686 49.5343
