* Measurement data measured by REW V5.31
* Source: EXCL: Microphone (USB Sound Device        ), MICROPHONE (Master Volume), R, volume: 0.390
* Format: 256k Log Swept Sine, 1 sweep at -15.0 dBFS with no timing reference
* Dated: Jan 15, 2025 6:05:13 PM
* REW Settings:
*  C-weighting compensation: Off
*  Target level: 75.0 dB
* Note: KBEAR KB02
* Measurement: L KBEAR KB02
* Smoothing: 1/12 octave
* Frequency Step: 96 ppo
* Start Frequency: 0.36621094 Hz
*
* Freq(Hz) SPL(dB) Phase(degrees)
0.366211 94.813 158.9845
0.368865 94.806 158.9628
0.371538 94.796 158.9301
0.374230 94.784 158.8891
0.376942 94.770 158.8418
0.379673 94.754 158.7897
0.382424 94.739 158.7339
0.385196 94.722 158.6750
0.387987 94.706 158.6134
0.390798 94.689 158.5493
0.393630 94.672 158.4826
0.396483 94.655 158.4135
0.399356 94.638 158.3420
0.402250 94.620 158.2681
0.405165 94.603 158.1917
0.408101 94.585 158.1128
0.411058 94.567 158.0314
0.414037 94.550 157.9476
0.417037 94.532 157.8611
0.420059 94.513 157.7721
0.423103 94.495 157.6805
0.426169 94.477 157.5863
0.429257 94.458 157.4894
0.432368 94.440 157.3898
0.435501 94.421 157.2876
0.438656 94.402 157.1826
0.441835 94.383 157.0749
0.445037 94.364 156.9644
0.448262 94.344 156.8512
0.451510 94.325 156.7351
0.454782 94.305 156.6163
0.458077 94.285 156.4945
0.461397 94.265 156.3699
0.464740 94.245 156.2424
0.468108 94.225 156.1120
0.471500 94.205 155.9787
0.474917 94.184 155.8424
0.478358 94.164 155.7032
0.481825 94.143 155.5610
0.485316 94.122 155.4158
0.488833 94.101 155.2676
0.492375 94.079 155.1164
0.495943 94.058 154.9622
0.499537 94.036 154.8049
0.503157 94.015 154.6446
0.506803 93.993 154.4812
0.510475 93.971 154.3148
0.514175 93.949 154.1454
0.517900 93.926 153.9728
0.521653 93.904 153.7972
0.525434 93.881 153.6186
0.529241 93.858 153.4369
0.533076 93.835 153.2521
0.536939 93.812 153.0643
0.540830 93.789 152.8735
0.544749 93.765 152.6797
0.548696 93.741 152.4828
0.552673 93.718 152.2830
0.556677 93.694 152.0802
0.560711 93.669 151.8745
0.564774 93.645 151.6659
0.568867 93.620 151.4544
0.572989 93.596 151.2400
0.577141 93.571 151.0228
0.581324 93.546 150.8029
0.585536 93.520 150.5803
0.589779 93.495 150.3550
0.594053 93.469 150.1271
0.598358 93.444 149.8966
0.602694 93.417 149.6636
0.607061 93.391 149.4283
0.611460 93.365 149.1906
0.615891 93.338 148.9506
0.620354 93.312 148.7085
0.624849 93.285 148.4642
0.629377 93.257 148.2180
0.633938 93.230 147.9699
0.638532 93.202 147.7201
0.643159 93.175 147.4686
0.647819 93.147 147.2157
0.652514 93.119 146.9613
0.657242 93.090 146.7057
0.662005 93.062 146.4490
0.666802 93.033 146.1915
0.671634 93.004 145.9331
0.676501 92.975 145.6743
0.681403 92.945 145.4150
0.686341 92.916 145.1556
0.691314 92.886 144.8961
0.696324 92.855 144.6370
0.701370 92.825 144.3782
0.706452 92.794 144.1199
0.711571 92.762 143.8623
0.716728 92.729 143.6053
0.721921 92.695 143.3486
0.727153 92.659 143.0918
0.732422 92.621 142.8340
0.737729 92.579 142.5742
0.743075 92.536 142.3114
0.748460 92.490 142.0446
0.753883 92.442 141.7729
0.759346 92.394 141.4959
0.764849 92.344 141.2132
0.770391 92.294 140.9245
0.775974 92.244 140.6296
0.781597 92.193 140.3284
0.787261 92.141 140.0207
0.792966 92.089 139.7065
0.798712 92.036 139.3855
0.804500 91.983 139.0578
0.810329 91.929 138.7232
0.816201 91.874 138.3817
0.822116 91.818 138.0331
0.828073 91.762 137.6773
0.834074 91.705 137.3144
0.840118 91.647 136.9441
0.846206 91.588 136.5665
0.852338 91.528 136.1814
0.858514 91.467 135.7888
0.864735 91.405 135.3887
0.871001 91.341 134.9810
0.877313 91.277 134.5655
0.883670 91.211 134.1424
0.890074 91.143 133.7116
0.896524 91.074 133.2731
0.903020 91.004 132.8268
0.909564 90.932 132.3728
0.916155 90.858 131.9111
0.922794 90.782 131.4418
0.929481 90.705 130.9649
0.936216 90.625 130.4805
0.943000 90.544 129.9887
0.949834 90.460 129.4896
0.956717 90.374 128.9834
0.963649 90.286 128.4703
0.970632 90.195 127.9504
0.977666 90.102 127.4240
0.984750 90.006 126.8914
0.991886 89.907 126.3529
0.999074 89.805 125.8088
1.006314 89.701 125.2596
1.013606 89.593 124.7056
1.020951 89.481 124.1473
1.028349 89.367 123.5853
1.035801 89.248 123.0202
1.043307 89.126 122.4526
1.050867 89.000 121.8832
1.058482 88.870 121.3127
1.066152 88.736 120.7416
1.073878 88.597 120.1707
1.081660 88.452 119.6001
1.089498 88.302 119.0301
1.097393 88.145 118.4603
1.105345 87.980 117.8897
1.113355 87.807 117.3172
1.121423 87.624 116.7414
1.129549 87.431 116.1612
1.137734 87.228 115.5752
1.145979 87.015 114.9823
1.154283 86.792 114.3814
1.162647 86.559 113.7713
1.171072 86.317 113.1509
1.179558 86.067 112.5190
1.188106 85.807 111.8742
1.196715 85.541 111.2151
1.205387 85.266 110.5401
1.214122 84.986 109.8475
1.222920 84.699 109.1355
1.231782 84.407 108.4020
1.240708 84.110 107.6448
1.249699 83.810 106.8615
1.258754 83.507 106.0492
1.267876 83.201 105.2050
1.277063 82.894 104.3255
1.286318 82.586 103.4072
1.295639 82.279 102.4457
1.305027 81.974 101.4365
1.314484 81.671 100.3747
1.324009 81.372 99.2544
1.333604 81.078 98.0694
1.343268 80.789 96.8125
1.353002 80.508 95.4761
1.362806 80.236 94.0513
1.372681 79.974 92.5284
1.382628 79.723 90.8967
1.392647 79.485 89.1444
1.402739 79.262 87.2587
1.412904 79.055 85.2255
1.423142 78.866 83.0296
1.433455 78.696 80.6544
1.443843 78.547 78.0821
1.454305 78.419 75.2926
1.464844 78.314 72.2635
1.475459 78.230 68.9691
1.486150 78.169 65.3809
1.496920 78.129 61.4696
1.507767 78.109 57.2079
1.518693 78.110 52.5747
1.529698 78.129 47.5610
1.540783 78.168 42.1753
1.551948 78.224 36.4506
1.563194 78.297 30.4477
1.574521 78.386 24.2554
1.585931 78.491 17.9842
1.597423 78.610 11.7549
1.608999 78.743 5.6840
1.620658 78.889 -0.1294
1.632402 79.046 -5.6120
1.644232 79.213 -10.7194
1.656146 79.390 -15.4327
1.668147 79.575 -19.7541
1.680235 79.768 -23.6998
1.692411 79.966 -27.2947
1.704675 80.169 -30.5682
1.717028 80.375 -33.5509
1.729470 80.583 -36.2727
1.742003 80.792 -38.7618
1.754626 81.000 -41.0441
1.767341 81.206 -43.1433
1.780147 81.410 -45.0808
1.793047 81.611 -46.8768
1.806040 81.808 -48.5502
1.819128 82.004 -50.1191
1.832310 82.199 -51.6009
1.845587 82.395 -53.0118
1.858961 82.595 -54.3654
1.872432 82.800 -55.6720
1.886001 83.010 -56.9388
1.899667 83.228 -58.1702
1.913433 83.451 -59.3692
1.927299 83.680 -60.5374
1.941265 83.914 -61.6757
1.955332 84.153 -62.7846
1.969501 84.395 -63.8642
1.983773 84.640 -64.9146
1.998148 84.887 -65.9356
2.012627 85.135 -66.9269
2.027212 85.382 -67.8883
2.041902 85.629 -68.8195
2.056698 85.874 -69.7199
2.071602 86.115 -70.5892
2.086614 86.352 -71.4272
2.101734 86.584 -72.2334
2.116964 86.809 -73.0079
2.132304 87.026 -73.7508
2.147756 87.235 -74.4630
2.163320 87.435 -75.1462
2.178996 87.625 -75.8030
2.194786 87.806 -76.4374
2.210690 87.976 -77.0543
2.226710 88.137 -77.6585
2.242845 88.290 -78.2540
2.259098 88.434 -78.8434
2.275468 88.570 -79.4282
2.291957 88.699 -80.0086
2.308566 88.822 -80.5844
2.325295 88.938 -81.1549
2.342145 89.048 -81.7191
2.359117 89.152 -82.2757
2.376212 89.252 -82.8234
2.393431 89.348 -83.3608
2.410775 89.440 -83.8864
2.428244 89.529 -84.3985
2.445840 89.615 -84.8956
2.463564 89.699 -85.3762
2.481416 89.782 -85.8387
2.499397 89.864 -86.2820
2.517509 89.945 -86.7052
2.535752 90.025 -87.1080
2.554127 90.105 -87.4911
2.572635 90.183 -87.8558
2.591277 90.259 -88.2039
2.610055 90.333 -88.5375
2.628968 90.404 -88.8583
2.648019 90.472 -89.1674
2.667208 90.536 -89.4658
2.686535 90.598 -89.7539
2.706003 90.657 -90.0320
2.725612 90.713 -90.3001
2.745363 90.768 -90.5583
2.765257 90.821 -90.8063
2.785295 90.872 -91.0439
2.805478 90.923 -91.2707
2.825808 90.974 -91.4865
2.846285 91.024 -91.6906
2.866910 91.075 -91.8825
2.887685 91.126 -92.0616
2.908611 91.178 -92.2273
2.929688 91.230 -92.3788
2.950917 91.283 -92.5156
2.972301 91.335 -92.6377
2.993839 91.387 -92.7452
3.015534 91.438 -92.8389
3.037386 91.489 -92.9198
3.059396 91.540 -92.9891
3.081565 91.591 -93.0483
3.103896 91.641 -93.0989
3.126388 91.692 -93.1424
3.149043 91.743 -93.1805
3.171862 91.795 -93.2145
3.194847 91.848 -93.2459
3.217998 91.902 -93.2756
3.241317 91.958 -93.3045
3.264805 92.015 -93.3325
3.288463 92.074 -93.3591
3.312293 92.134 -93.3833
3.336295 92.197 -93.4039
3.360471 92.261 -93.4204
3.384822 92.326 -93.4331
3.409350 92.393 -93.4429
3.434056 92.461 -93.4516
3.458940 92.530 -93.4612
3.484005 92.600 -93.4741
3.509252 92.671 -93.4929
3.534681 92.743 -93.5199
3.560295 92.815 -93.5574
3.586094 92.888 -93.6076
3.612081 92.961 -93.6719
3.638255 93.035 -93.7512
3.664620 93.109 -93.8455
3.691175 93.184 -93.9543
3.717923 93.260 -94.0767
3.744864 93.336 -94.2118
3.772001 93.413 -94.3590
3.799335 93.491 -94.5182
3.826866 93.569 -94.6893
3.854597 93.646 -94.8726
3.882529 93.723 -95.0685
3.910664 93.800 -95.2774
3.939002 93.875 -95.5000
3.967546 93.949 -95.7370
3.996296 94.022 -95.9891
4.025255 94.093 -96.2569
4.054423 94.163 -96.5408
4.083804 94.231 -96.8409
4.113396 94.298 -97.1567
4.143204 94.364 -97.4873
4.173227 94.428 -97.8315
4.203468 94.490 -98.1879
4.233928 94.551 -98.5550
4.264609 94.610 -98.9314
4.295512 94.667 -99.3161
4.326639 94.721 -99.7084
4.357992 94.773 -100.1081
4.389572 94.822 -100.5156
4.421380 94.869 -100.9319
4.453419 94.914 -101.3575
4.485691 94.955 -101.7927
4.518196 94.994 -102.2365
4.550936 95.031 -102.6876
4.583914 95.065 -103.1439
4.617131 95.096 -103.6031
4.650589 95.126 -104.0631
4.684289 95.153 -104.5220
4.718233 95.177 -104.9783
4.752424 95.200 -105.4316
4.786862 95.220 -105.8822
4.821549 95.237 -106.3307
4.856488 95.252 -106.7775
4.891680 95.265 -107.2225
4.927127 95.276 -107.6651
4.962831 95.284 -108.1042
4.998794 95.292 -108.5382
5.035017 95.298 -108.9657
5.071503 95.302 -109.3851
5.108253 95.306 -109.7954
5.145270 95.309 -110.1961
5.182555 95.311 -110.5870
5.220110 95.312 -110.9687
5.257937 95.312 -111.3418
5.296038 95.312 -111.7071
5.334415 95.312 -112.0650
5.373071 95.311 -112.4162
5.412006 95.311 -112.7608
5.451224 95.312 -113.0990
5.490725 95.314 -113.4303
5.530514 95.317 -113.7547
5.570590 95.321 -114.0724
5.610957 95.326 -114.3840
5.651616 95.332 -114.6910
5.692570 95.339 -114.9955
5.733821 95.348 -115.2994
5.775370 95.359 -115.6049
5.817221 95.371 -115.9132
5.859375 95.385 -116.2255
5.901834 95.401 -116.5421
5.944602 95.419 -116.8633
5.987679 95.439 -117.1898
6.031068 95.461 -117.5226
6.074771 95.484 -117.8635
6.118792 95.508 -118.2143
6.163131 95.534 -118.5766
6.207792 95.561 -118.9518
6.252776 95.588 -119.3405
6.298086 95.617 -119.7430
6.343725 95.647 -120.1591
6.389694 95.677 -120.5883
6.435996 95.708 -121.0305
6.482634 95.739 -121.4853
6.529610 95.770 -121.9529
6.576926 95.800 -122.4333
6.624585 95.830 -122.9266
6.672590 95.860 -123.4324
6.720942 95.888 -123.9498
6.769645 95.916 -124.4774
6.818700 95.944 -125.0135
6.868111 95.970 -125.5562
6.917881 95.995 -126.1043
6.968010 96.019 -126.6567
7.018504 96.042 -127.2127
7.069362 96.064 -127.7716
7.120590 96.084 -128.3321
7.172189 96.104 -128.8925
7.224161 96.122 -129.4507
7.276511 96.140 -130.0050
7.329239 96.157 -130.5540
7.382350 96.173 -131.0969
7.435845 96.189 -131.6331
7.489729 96.205 -132.1621
7.544002 96.220 -132.6834
7.598669 96.236 -133.1961
7.653732 96.251 -133.6994
7.709194 96.268 -134.1928
7.765058 96.285 -134.6761
7.821327 96.302 -135.1496
7.878004 96.321 -135.6138
7.935091 96.341 -136.0695
7.992592 96.362 -136.5173
8.050510 96.385 -136.9579
8.108847 96.409 -137.3917
8.167607 96.434 -137.8194
8.226793 96.462 -138.2418
8.286408 96.490 -138.6602
8.346454 96.520 -139.0758
8.406936 96.552 -139.4896
8.467856 96.584 -139.9025
8.529218 96.618 -140.3150
8.591024 96.653 -140.7274
8.653278 96.689 -141.1402
8.715983 96.725 -141.5539
8.779143 96.761 -141.9688
8.842760 96.798 -142.3849
8.906839 96.835 -142.8023
8.971381 96.872 -143.2202
9.036392 96.908 -143.6382
9.101873 96.944 -144.0555
9.167829 96.979 -144.4714
9.234263 97.014 -144.8853
9.301178 97.047 -145.2964
9.368578 97.080 -145.7038
9.436467 97.111 -146.1063
9.504847 97.142 -146.5029
9.573723 97.171 -146.8929
9.643099 97.198 -147.2755
9.712976 97.224 -147.6503
9.783361 97.248 -148.0166
9.854255 97.269 -148.3740
9.925663 97.287 -148.7222
9.997588 97.302 -149.0611
10.070035 97.315 -149.3908
10.143007 97.325 -149.7116
10.216507 97.333 -150.0240
10.290540 97.339 -150.3284
10.365109 97.345 -150.6252
10.440219 97.348 -150.9151
10.515873 97.352 -151.1990
10.592076 97.354 -151.4776
10.668830 97.356 -151.7517
10.746141 97.358 -152.0219
10.824012 97.359 -152.2888
10.902447 97.359 -152.5531
10.981451 97.360 -152.8154
11.061027 97.359 -153.0759
11.141180 97.358 -153.3352
11.221913 97.356 -153.5934
11.303232 97.353 -153.8507
11.385140 97.349 -154.1074
11.467641 97.344 -154.3635
11.550741 97.339 -154.6191
11.634442 97.333 -154.8744
11.718750 97.326 -155.1294
11.803669 97.318 -155.3843
11.889203 97.310 -155.6393
11.975357 97.302 -155.8946
12.062136 97.292 -156.1506
12.149543 97.283 -156.4075
12.237583 97.272 -156.6657
12.326262 97.261 -156.9256
12.415583 97.250 -157.1875
12.505552 97.237 -157.4519
12.596172 97.224 -157.7189
12.687449 97.209 -157.9889
12.779387 97.194 -158.2621
12.871992 97.178 -158.5385
12.965268 97.161 -158.8182
13.059220 97.143 -159.1012
13.153852 97.125 -159.3873
13.249170 97.106 -159.6766
13.345179 97.087 -159.9688
13.441884 97.067 -160.2639
13.539289 97.047 -160.5618
13.637401 97.027 -160.8625
13.736223 97.007 -161.1662
13.835761 96.987 -161.4730
13.936021 96.967 -161.7833
14.037007 96.947 -162.0974
14.138725 96.927 -162.4157
14.241180 96.907 -162.7387
14.344377 96.887 -163.0670
14.448323 96.868 -163.4008
14.553021 96.849 -163.7406
14.658478 96.831 -164.0865
14.764700 96.813 -164.4385
14.871691 96.795 -164.7964
14.979457 96.777 -165.1598
15.088005 96.760 -165.5281
15.197339 96.743 -165.9006
15.307465 96.727 -166.2764
15.418389 96.710 -166.6544
15.530117 96.694 -167.0338
15.642655 96.679 -167.4135
15.756008 96.664 -167.7928
15.870182 96.649 -168.1708
15.985184 96.635 -168.5470
16.101019 96.621 -168.9211
16.217694 96.609 -169.2929
16.335214 96.598 -169.6623
16.453586 96.587 -170.0293
16.572815 96.578 -170.3941
16.692909 96.570 -170.7568
16.813872 96.563 -171.1174
16.935713 96.557 -171.4757
17.058436 96.552 -171.8316
17.182048 96.548 -172.1846
17.306556 96.544 -172.5341
17.431967 96.540 -172.8795
17.558286 96.537 -173.2201
17.685521 96.533 -173.5550
17.813677 96.530 -173.8835
17.942762 96.526 -174.2052
18.072783 96.522 -174.5196
18.203746 96.518 -174.8265
18.335658 96.514 -175.1259
18.468526 96.510 -175.4180
18.602356 96.505 -175.7033
18.737156 96.501 -175.9821
18.872934 96.496 -176.2550
19.009695 96.492 -176.5226
19.147447 96.487 -176.7853
19.286197 96.481 -177.0436
19.425953 96.475 -177.2979
19.566721 96.468 -177.5485
19.708510 96.460 -177.7956
19.851326 96.451 -178.0397
19.995177 96.440 -178.2810
20.140070 96.429 -178.5199
20.286013 96.417 -178.7568
20.433014 96.403 -178.9923
20.581080 96.389 -179.2270
20.730219 96.373 -179.4614
20.880439 96.357 -179.6962
21.031747 96.339 -179.9318
21.184152 96.321 179.8312
21.337661 96.302 179.5923
21.492282 96.282 179.3512
21.648024 96.262 179.1074
21.804895 96.241 178.8604
21.962902 96.220 178.6098
22.122054 96.198 178.3551
22.282360 96.176 178.0957
22.443827 96.153 177.8313
22.606464 96.130 177.5615
22.770280 96.107 177.2862
22.935283 96.084 177.0055
23.101481 96.060 176.7197
23.268884 96.037 176.4294
23.437500 96.013 176.1354
23.607338 95.989 175.8384
23.778406 95.965 175.5392
23.950714 95.942 175.2386
24.124271 95.919 174.9369
24.299086 95.897 174.6345
24.475167 95.875 174.3313
24.652524 95.854 174.0275
24.831166 95.834 173.7230
25.011103 95.815 173.4184
25.192344 95.796 173.1140
25.374898 95.778 172.8108
25.558775 95.761 172.5101
25.743984 95.743 172.2131
25.930536 95.726 171.9213
26.118439 95.709 171.6356
26.307704 95.693 171.3570
26.498341 95.676 171.0856
26.690359 95.660 170.8211
26.883768 95.645 170.5630
27.078579 95.629 170.3104
27.274801 95.614 170.0623
27.472446 95.598 169.8181
27.671522 95.582 169.5775
27.872042 95.565 169.3405
28.074014 95.546 169.1075
28.277450 95.527 168.8792
28.482360 95.506 168.6561
28.688755 95.484 168.4385
28.896645 95.461 168.2266
29.106042 95.437 168.0195
29.316957 95.412 167.8161
29.529400 95.387 167.6148
29.743382 95.361 167.4139
29.958915 95.335 167.2116
30.176009 95.308 167.0063
30.394677 95.281 166.7972
30.614929 95.253 166.5838
30.836778 95.225 166.3661
31.060234 95.195 166.1447
31.285309 95.165 165.9203
31.512015 95.135 165.6938
31.740364 95.104 165.4658
31.970368 95.073 165.2367
32.202039 95.042 165.0069
32.435388 95.011 164.7765
32.670428 94.981 164.5456
32.907171 94.952 164.3144
33.145630 94.923 164.0830
33.385817 94.895 163.8516
33.627745 94.868 163.6201
33.871425 94.841 163.3886
34.116871 94.816 163.1568
34.364096 94.791 162.9247
34.613113 94.767 162.6924
34.863934 94.742 162.4604
35.116572 94.718 162.2299
35.371041 94.693 162.0020
35.627354 94.668 161.7783
35.885525 94.643 161.5596
36.145566 94.617 161.3463
36.407492 94.591 161.1379
36.671316 94.564 160.9336
36.937051 94.537 160.7324
37.204712 94.510 160.5336
37.474313 94.481 160.3376
37.745867 94.451 160.1452
38.019389 94.421 159.9575
38.294893 94.390 159.7753
38.572394 94.358 159.5983
38.851905 94.326 159.4250
39.133442 94.295 159.2530
39.417019 94.264 159.0794
39.702651 94.234 158.9019
39.990353 94.203 158.7195
40.280140 94.171 158.5328
40.572026 94.139 158.3434
40.866028 94.107 158.1535
41.162160 94.074 157.9647
41.460438 94.041 157.7776
41.760877 94.008 157.5922
42.063494 93.976 157.4079
42.368303 93.943 157.2241
42.675322 93.911 157.0412
42.984565 93.878 156.8598
43.296048 93.844 156.6812
43.609789 93.811 156.5063
43.925804 93.777 156.3353
44.244108 93.743 156.1683
44.564719 93.709 156.0048
44.887654 93.674 155.8448
45.212928 93.640 155.6886
45.540560 93.605 155.5363
45.870565 93.570 155.3881
46.202962 93.535 155.2431
46.537768 93.500 155.1000
46.875000 93.465 154.9573
47.214676 93.431 154.8138
47.556813 93.396 154.6689
47.901429 93.362 154.5234
48.248542 93.327 154.3778
48.598171 93.292 154.2330
48.950334 93.257 154.0892
49.305048 93.221 153.9467
49.662333 93.186 153.8056
50.022206 93.150 153.6664
50.384688 93.113 153.5300
50.749796 93.076 153.3970
51.117550 93.039 153.2679
51.487969 93.002 153.1429
51.861072 92.965 153.0215
52.236879 92.928 152.9031
52.615409 92.891 152.7867
52.996681 92.854 152.6713
53.380717 92.818 152.5561
53.767536 92.781 152.4406
54.157158 92.745 152.3253
54.549603 92.709 152.2111
54.944892 92.673 152.0989
55.343045 92.637 151.9890
55.744084 92.603 151.8807
56.148028 92.569 151.7723
56.554900 92.536 151.6623
56.964720 92.504 151.5502
57.377510 92.472 151.4363
57.793291 92.440 151.3213
58.212085 92.408 151.2057
58.633914 92.375 151.0895
59.058799 92.342 150.9730
59.486764 92.307 150.8574
59.917829 92.271 150.7454
60.352019 92.234 150.6400
60.789354 92.195 150.5430
61.229859 92.155 150.4543
61.673556 92.115 150.3712
62.120468 92.075 150.2905
62.570618 92.035 150.2093
63.024031 91.994 150.1266
63.480729 91.954 150.0427
63.940736 91.913 149.9586
64.404077 91.872 149.8753
64.870776 91.832 149.7932
65.340856 91.792 149.7127
65.814343 91.752 149.6346
66.291261 91.713 149.5595
66.771635 91.675 149.4876
67.255489 91.637 149.4183
67.742850 91.599 149.3508
68.233743 91.562 149.2847
68.728193 91.525 149.2197
69.226226 91.488 149.1555
69.727867 91.451 149.0917
70.233144 91.413 149.0281
70.742083 91.375 148.9645
71.254709 91.336 148.9009
71.771050 91.296 148.8372
72.291132 91.256 148.7735
72.814984 91.216 148.7104
73.342631 91.175 148.6495
73.874102 91.134 148.5925
74.409424 91.092 148.5402
74.948626 91.052 148.4915
75.491734 91.012 148.4450
76.038779 90.973 148.3993
76.589787 90.934 148.3544
77.144788 90.896 148.3098
77.703811 90.859 148.2641
78.266885 90.823 148.2155
78.834039 90.787 148.1626
79.405303 90.751 148.1053
79.980706 90.715 148.0437
80.560280 90.679 147.9784
81.144053 90.641 147.9103
81.732056 90.603 147.8418
82.324320 90.563 147.7753
82.920876 90.522 147.7131
83.521755 90.480 147.6566
84.126988 90.436 147.6061
84.736607 90.391 147.5617
85.350643 90.345 147.5235
85.969129 90.299 147.4920
86.592097 90.251 147.4680
87.219579 90.204 147.4515
87.851608 90.157 147.4407
88.488217 90.112 147.4331
89.129439 90.068 147.4261
89.775308 90.025 147.4184
90.425856 89.984 147.4095
91.081119 89.944 147.4014
91.741131 89.903 147.3983
92.405925 89.863 147.4064
93.075536 89.824 147.4295
93.750000 89.785 147.4666
94.429351 89.748 147.5118
95.113625 89.710 147.5588
95.802858 89.673 147.6047
96.497085 89.634 147.6517
97.196342 89.594 147.7035
97.900667 89.554 147.7619
98.610096 89.513 147.8256
99.324665 89.473 147.8931
100.044413 89.433 147.9643
100.769376 89.394 148.0396
101.499592 89.357 148.1180
102.235100 89.321 148.1968
102.975938 89.286 148.2733
103.722144 89.253 148.3438
104.473757 89.222 148.4040
105.230817 89.191 148.4519
105.993363 89.161 148.4890
106.761435 89.132 148.5184
107.535072 89.103 148.5421
108.314315 89.074 148.5614
109.099206 89.046 148.5787
109.889783 89.018 148.5976
110.686090 88.988 148.6211
111.488167 88.957 148.6497
112.296056 88.924 148.6801
113.109800 88.888 148.7069
113.929440 88.849 148.7249
114.755020 88.806 148.7282
115.586582 88.760 148.7121
116.424170 88.711 148.6770
117.267827 88.660 148.6333
118.117598 88.608 148.6031
118.973527 88.558 148.6182
119.835658 88.515 148.7019
120.704037 88.486 148.8463
121.578708 88.471 149.0157
122.459718 88.468 149.1794
123.347111 88.471 149.3278
124.240935 88.477 149.4626
125.141236 88.483 149.5847
126.048061 88.489 149.6885
126.961458 88.495 149.7621
127.881473 88.500 149.7947
128.808154 88.505 149.7834
129.741551 88.509 149.7307
130.681712 88.514 149.6361
131.628686 88.521 149.4929
132.582521 88.529 149.2919
133.543269 88.535 149.0263
134.510979 88.538 148.6951
135.485701 88.535 148.3023
136.467486 88.525 147.8559
137.456386 88.505 147.3670
138.452451 88.477 146.8467
139.455735 88.439 146.3053
140.466288 88.391 145.7570
141.484165 88.331 145.2235
142.509418 88.260 144.7275
143.542100 88.179 144.2840
144.582265 88.091 143.8976
145.629968 87.996 143.5643
146.685262 87.896 143.2756
147.748204 87.792 143.0211
148.818849 87.686 142.7903
149.897251 87.577 142.5743
150.983469 87.466 142.3724
152.077557 87.354 142.1902
153.179574 87.241 142.0318
154.289576 87.130 141.8952
155.407622 87.020 141.7731
156.533770 86.910 141.6544
157.668078 86.799 141.5264
158.810606 86.685 141.3777
159.961413 86.564 141.2023
161.120559 86.435 141.0049
162.288105 86.294 140.8033
163.464112 86.142 140.6236
164.648640 85.978 140.4927
165.841752 85.805 140.4296
167.043510 85.625 140.4417
168.253976 85.440 140.5242
169.473213 85.253 140.6603
170.701286 85.065 140.8235
171.938258 84.876 140.9800
173.184194 84.681 141.0969
174.439158 84.477 141.1548
175.703216 84.255 141.1546
176.976434 84.010 141.1091
178.258878 83.736 141.0290
179.550615 83.426 140.9242
180.851713 83.065 140.8400
182.162239 82.636 140.9410
183.482262 82.124 141.6370
184.811850 81.536 143.7092
186.151073 80.938 148.3114
187.500000 80.468 156.4930
188.858702 80.300 167.7880
190.227250 80.529 179.2198
191.605715 81.091 -172.3267
192.994169 81.825 -167.5893
194.392685 82.585 -165.7660
195.801334 83.282 -165.8682
197.220191 83.881 -167.1554
198.649330 84.374 -169.1350
200.088825 84.766 -171.4856
201.538751 85.071 -173.9961
202.999184 85.302 -176.5267
204.470200 85.471 -178.9865
205.951875 85.589 178.6803
207.444287 85.663 176.5031
208.947514 85.702 174.4920
210.461634 85.709 172.6425
211.986726 85.692 170.9395
213.522869 85.654 169.3608
215.070144 85.603 167.8817
216.628631 85.545 166.4783
218.198411 85.488 165.1336
219.779567 85.440 163.8434
221.372180 85.407 162.6210
222.976334 85.393 161.4979
224.592112 85.398 160.5178
226.219600 85.419 159.7266
227.858880 85.447 159.1636
229.510039 85.473 158.8573
231.173164 85.489 158.8253
232.848340 85.485 159.0749
234.535655 85.460 159.6008
236.235197 85.413 160.3792
237.947054 85.353 161.3580
239.671317 85.291 162.4493
241.408074 85.242 163.5311
243.157416 85.220 164.4694
244.919435 85.231 165.1526
246.694223 85.268 165.5219
248.481871 85.317 165.5828
250.282473 85.356 165.4020
252.096123 85.369 165.0848
253.922915 85.348 164.7374
255.762945 85.297 164.4371
257.616309 85.229 164.2267
259.483103 85.155 164.1272
261.363424 85.082 164.1478
263.257372 85.014 164.2839
265.165043 84.948 164.5125
267.086538 84.884 164.7990
269.021957 84.822 165.1139
270.971401 84.765 165.4449
272.934972 84.713 165.7949
274.912771 84.666 166.1685
276.904902 84.624 166.5627
278.911469 84.585 166.9679
280.932577 84.550 167.3733
282.968330 84.519 167.7717
285.018835 84.494 168.1574
287.084199 84.473 168.5233
289.164530 84.456 168.8614
291.259935 84.441 169.1684
293.370525 84.427 169.4491
295.496408 84.414 169.7155
297.637697 84.400 169.9803
299.794503 84.387 170.2519
301.966937 84.374 170.5327
304.155114 84.360 170.8210
306.359147 84.347 171.1117
308.579152 84.334 171.3985
310.815244 84.320 171.6752
313.067539 84.307 171.9389
315.336156 84.293 172.1913
317.621211 84.280 172.4388
319.922826 84.266 172.6881
322.241118 84.253 172.9435
324.576210 84.241 173.2048
326.928223 84.229 173.4687
329.297280 84.218 173.7307
331.683504 84.207 173.9870
334.087019 84.197 174.2351
336.507952 84.186 174.4743
338.946427 84.175 174.7054
341.402572 84.163 174.9302
343.876516 84.148 175.1516
346.368387 84.133 175.3732
348.878315 84.117 175.5984
351.406431 84.100 175.8292
353.952867 84.083 176.0663
356.517756 84.066 176.3088
359.101230 84.048 176.5554
361.703426 84.030 176.8046
364.324478 84.012 177.0551
366.964523 83.994 177.3062
369.623699 83.975 177.5582
372.302145 83.957 177.8125
375.000000 83.940 178.0702
377.717405 83.922 178.3315
380.454501 83.905 178.5961
383.211431 83.889 178.8635
385.988339 83.873 179.1346
388.785369 83.857 179.4102
391.602668 83.842 179.6904
394.440383 83.826 179.9746
397.298660 83.811 -179.7380
400.177650 83.796 -179.4491
403.077502 83.783 -179.1609
405.998368 83.769 -178.8753
408.940400 83.756 -178.5931
411.903750 83.742 -178.3122
414.888575 83.728 -178.0286
417.895028 83.714 -177.7378
420.923268 83.700 -177.4367
423.973452 83.687 -177.1251
427.045738 83.674 -176.8058
430.140287 83.664 -176.4836
433.257261 83.655 -176.1630
436.396822 83.648 -175.8468
439.559133 83.641 -175.5348
442.744360 83.636 -175.2264
445.952668 83.633 -174.9233
449.184225 83.630 -174.6298
452.439199 83.628 -174.3517
455.717760 83.626 -174.0926
459.020079 83.621 -173.8499
462.346327 83.613 -173.6143
465.696680 83.603 -173.3742
469.071310 83.590 -173.1215
472.470394 83.577 -172.8531
475.894109 83.565 -172.5714
479.342634 83.553 -172.2816
482.816148 83.541 -171.9897
486.314833 83.529 -171.6979
489.838871 83.517 -171.4024
493.388445 83.503 -171.0956
496.963741 83.490 -170.7733
500.564945 83.478 -170.4390
504.192245 83.467 -170.1003
507.845830 83.459 -169.7640
511.525890 83.450 -169.4333
515.232618 83.442 -169.1076
518.966206 83.434 -168.7839
522.726849 83.425 -168.4578
526.514743 83.415 -168.1246
530.330086 83.406 -167.7819
534.173076 83.399 -167.4313
538.043915 83.392 -167.0774
541.942803 83.387 -166.7224
545.869944 83.382 -166.3655
549.825542 83.378 -166.0059
553.809805 83.376 -165.6457
557.822939 83.374 -165.2884
561.865154 83.373 -164.9368
565.936660 83.372 -164.5907
570.037671 83.371 -164.2466
574.168399 83.368 -163.9000
578.329060 83.366 -163.5484
582.519870 83.363 -163.1923
586.741049 83.360 -162.8324
590.992817 83.357 -162.4664
595.275394 83.355 -162.0916
599.589005 83.353 -161.7081
603.933874 83.352 -161.3201
608.310228 83.353 -160.9321
612.718295 83.354 -160.5458
617.158304 83.354 -160.1593
621.630488 83.355 -159.7668
626.135079 83.355 -159.3619
630.672311 83.357 -158.9421
635.242423 83.361 -158.5116
639.845651 83.366 -158.0766
644.482237 83.374 -157.6398
649.152421 83.384 -157.2001
653.856447 83.397 -156.7589
658.594560 83.413 -156.3228
663.367008 83.431 -155.9027
668.174039 83.451 -155.5067
673.015903 83.470 -155.1348
677.892854 83.488 -154.7793
682.805145 83.503 -154.4309
687.753032 83.516 -154.0824
692.736774 83.527 -153.7281
697.756631 83.538 -153.3641
702.812863 83.548 -152.9890
707.905735 83.559 -152.6051
713.035511 83.571 -152.2171
718.202461 83.583 -151.8289
723.406852 83.596 -151.4420
728.648956 83.608 -151.0559
733.929047 83.620 -150.6695
739.247399 83.631 -150.2813
744.604290 83.642 -149.8890
750.000000 83.651 -149.4897
755.434809 83.660 -149.0798
760.909001 83.667 -148.6554
766.422861 83.673 -148.2129
771.976677 83.679 -147.7479
777.570739 83.685 -147.2561
783.205337 83.692 -146.7362
788.880766 83.701 -146.1855
794.597321 83.714 -145.5970
800.355301 83.733 -144.9700
806.155005 83.763 -144.3223
811.996736 83.804 -143.6867
817.880799 83.855 -143.0971
823.807501 83.913 -142.5759
829.777150 83.973 -142.1309
835.790057 84.033 -141.7546
841.846536 84.089 -141.4276
847.946903 84.142 -141.1266
854.091476 84.191 -140.8338
860.280575 84.239 -140.5382
866.514523 84.286 -140.2334
872.793644 84.332 -139.9150
879.118267 84.379 -139.5847
885.488720 84.428 -139.2506
891.905336 84.477 -138.9213
898.368450 84.527 -138.6023
904.878398 84.579 -138.2961
911.435520 84.632 -138.0066
918.040157 84.687 -137.7409
924.692655 84.744 -137.5083
931.393359 84.800 -137.3203
938.142619 84.854 -137.1882
944.940787 84.900 -137.1140
951.788218 84.934 -137.0801
958.685268 84.952 -137.0473
965.632296 84.953 -136.9634
972.629666 84.940 -136.7794
979.677741 84.918 -136.4655
986.776890 84.895 -136.0174
993.927482 84.873 -135.4520
1001.129891 84.859 -134.7979
1008.384491 84.853 -134.0899
1015.691660 84.858 -133.3651
1023.051781 84.875 -132.6553
1030.465236 84.904 -131.9826
1037.932411 84.946 -131.3603
1045.453698 84.999 -130.7946
1053.029486 85.060 -130.2826
1060.660172 85.124 -129.8146
1068.346153 85.190 -129.3791
1076.087829 85.257 -128.9655
1083.885605 85.323 -128.5673
1091.739887 85.390 -128.1822
1099.651084 85.457 -127.8105
1107.619609 85.524 -127.4519
1115.645878 85.592 -127.1054
1123.730308 85.659 -126.7698
1131.873321 85.726 -126.4439
1140.075341 85.794 -126.1268
1148.336797 85.861 -125.8176
1156.658119 85.928 -125.5151
1165.039741 85.996 -125.2172
1173.482099 86.065 -124.9206
1181.985634 86.136 -124.6245
1190.550789 86.210 -124.3332
1199.178011 86.287 -124.0570
1207.867749 86.366 -123.8071
1216.620457 86.446 -123.5885
1225.436590 86.525 -123.3971
1234.316609 86.601 -123.2237
1243.260976 86.674 -123.0586
1252.270157 86.746 -122.8935
1261.344623 86.815 -122.7244
1270.484846 86.884 -122.5506
1279.691303 86.952 -122.3715
1288.964474 87.021 -122.1863
1298.304842 87.090 -121.9955
1307.712894 87.160 -121.8022
1317.189120 87.233 -121.6106
1326.734016 87.307 -121.4241
1336.348077 87.382 -121.2434
1346.031806 87.460 -121.0672
1355.785708 87.540 -120.8941
1365.610290 87.623 -120.7246
1375.506065 87.709 -120.5592
1385.473549 87.798 -120.3983
1395.513261 87.891 -120.2450
1405.625726 87.986 -120.1067
1415.811469 88.085 -119.9945
1426.071023 88.184 -119.9195
1436.404921 88.282 -119.8851
1446.813703 88.377 -119.8851
1457.297912 88.466 -119.9071
1467.858093 88.550 -119.9388
1478.494798 88.629 -119.9708
1489.208581 88.702 -119.9961
1500.000000 88.770 -120.0095
1510.869618 88.833 -120.0070
1521.818002 88.891 -119.9859
1532.845723 88.944 -119.9443
1543.953355 88.993 -119.8811
1555.141477 89.041 -119.7970
1566.410674 89.089 -119.6973
1577.761531 89.138 -119.5934
1589.194642 89.191 -119.5001
1600.710601 89.245 -119.4276
1612.310010 89.299 -119.3775
1623.993473 89.352 -119.3457
1635.761599 89.403 -119.3252
1647.615002 89.454 -119.3105
1659.554299 89.503 -119.2973
1671.580114 89.551 -119.2826
1683.693072 89.599 -119.2662
1695.893807 89.647 -119.2501
1708.182952 89.694 -119.2368
1720.561150 89.741 -119.2260
1733.029045 89.785 -119.2145
1745.587288 89.827 -119.1967
1758.236533 89.868 -119.1659
1770.977440 89.908 -119.1164
1783.810673 89.950 -119.0491
1796.736900 89.996 -118.9735
1809.756796 90.045 -118.9045
1822.871040 90.097 -118.8535
1836.080315 90.151 -118.8244
1849.385310 90.205 -118.8161
1862.786718 90.259 -118.8248
1876.285239 90.314 -118.8455
1889.881575 90.369 -118.8724
1903.576436 90.425 -118.8991
1917.370535 90.484 -118.9200
1931.264593 90.548 -118.9314
1945.259332 90.617 -118.9345
1959.355483 90.693 -118.9378
1973.553781 90.774 -118.9547
1987.854965 90.859 -118.9956
2002.259781 90.945 -119.0636
2016.768981 91.030 -119.1562
2031.383320 91.115 -119.2676
2046.103561 91.198 -119.3919
2060.930471 91.280 -119.5246
2075.864823 91.360 -119.6643
2090.907395 91.439 -119.8112
2106.058972 91.517 -119.9647
2121.320344 91.593 -120.1217
2136.692305 91.667 -120.2772
2152.175658 91.739 -120.4265
2167.771210 91.812 -120.5707
2183.479774 91.886 -120.7196
2199.302169 91.961 -120.8865
2215.239219 92.036 -121.0804
2231.291755 92.109 -121.3036
2247.460615 92.179 -121.5522
2263.746641 92.245 -121.8177
2280.150683 92.306 -122.0882
2296.673595 92.363 -122.3511
2313.316238 92.416 -122.5953
2330.079481 92.469 -122.8160
2346.964198 92.523 -123.0182
2363.971268 92.579 -123.2129
2381.101578 92.636 -123.4094
2398.356022 92.693 -123.6097
2415.735498 92.749 -123.8084
2433.240913 92.806 -123.9974
2450.873180 92.864 -124.1734
2468.633217 92.926 -124.3401
2486.521951 92.991 -124.5062
2504.540314 93.061 -124.6813
2522.689246 93.135 -124.8736
2540.969692 93.214 -125.0915
2559.382606 93.297 -125.3466
2577.928947 93.382 -125.6535
2596.609683 93.468 -126.0235
2615.425787 93.552 -126.4584
2634.378241 93.629 -126.9503
2653.468031 93.698 -127.4833
2672.696154 93.759 -128.0358
2692.063613 93.811 -128.5859
2711.571415 93.857 -129.1170
2731.220579 93.900 -129.6239
2751.012130 93.941 -130.1116
2770.947098 93.983 -130.5897
2791.026522 94.025 -131.0672
2811.251451 94.068 -131.5513
2831.622938 94.110 -132.0472
2852.142045 94.152 -132.5596
2872.809842 94.191 -133.0910
2893.627406 94.229 -133.6400
2914.595823 94.262 -134.2008
2935.716186 94.293 -134.7676
2956.989596 94.321 -135.3408
2978.417161 94.346 -135.9249
3000.000000 94.368 -136.5244
3021.739237 94.386 -137.1387
3043.636005 94.397 -137.7603
3065.691446 94.401 -138.3750
3087.906710 94.397 -138.9655
3110.282955 94.389 -139.5187
3132.821347 94.378 -140.0298
3155.523062 94.366 -140.5003
3178.389283 94.353 -140.9339
3201.421202 94.342 -141.3345
3224.620020 94.332 -141.7063
3247.986946 94.324 -142.0537
3271.523198 94.318 -142.3800
3295.230004 94.315 -142.6851
3319.108599 94.315 -142.9684
3343.160228 94.321 -143.2350
3367.386145 94.333 -143.4970
3391.787613 94.352 -143.7696
3416.365904 94.376 -144.0654
3441.122300 94.404 -144.3901
3466.058091 94.434 -144.7413
3491.174576 94.467 -145.1138
3516.473066 94.501 -145.5062
3541.954880 94.538 -145.9219
3567.621345 94.576 -146.3665
3593.473800 94.616 -146.8455
3619.513592 94.655 -147.3633
3645.742080 94.693 -147.9222
3672.160630 94.728 -148.5193
3698.770620 94.758 -149.1456
3725.573436 94.785 -149.7925
3752.570477 94.807 -150.4561
3779.763150 94.825 -151.1372
3807.152872 94.840 -151.8369
3834.741071 94.848 -152.5519
3862.529185 94.852 -153.2740
3890.518664 94.851 -153.9960
3918.710966 94.847 -154.7175
3947.107561 94.841 -155.4450
3975.709929 94.835 -156.1894
4004.519563 94.828 -156.9628
4033.537962 94.819 -157.7755
4062.766641 94.805 -158.6307
4092.207123 94.785 -159.5231
4121.860942 94.758 -160.4446
4151.729646 94.722 -161.3896
4181.814790 94.679 -162.3549
4212.117944 94.625 -163.3349
4242.640687 94.561 -164.3184
4273.384610 94.486 -165.2909
4304.351317 94.401 -166.2411
4335.542421 94.308 -167.1643
4366.959549 94.207 -168.0616
4398.604338 94.100 -168.9388
4430.478438 93.987 -169.8025
4462.583511 93.866 -170.6539
4494.921231 93.738 -171.4883
4527.493283 93.602 -172.3002
4560.301365 93.457 -173.0862
4593.347189 93.305 -173.8431
4626.632476 93.143 -174.5627
4660.158962 92.972 -175.2314
4693.928395 92.792 -175.8363
4727.942535 92.607 -176.3693
4762.203156 92.417 -176.8299
4796.712043 92.226 -177.2241
4831.470996 92.032 -177.5599
4866.481826 91.837 -177.8406
4901.746360 91.640 -178.0649
4937.266434 91.441 -178.2305
4973.043902 91.239 -178.3348
5009.080628 91.035 -178.3703
5045.378492 90.827 -178.3216
5081.939384 90.618 -178.1709
5118.765212 90.412 -177.9061
5155.857894 90.214 -177.5289
5193.219366 90.028 -177.0622
5230.851574 89.859 -176.5507
5268.756481 89.705 -176.0490
5306.936062 89.562 -175.6000
5345.392309 89.422 -175.2151
5384.127225 89.278 -174.8731
5423.142830 89.125 -174.5340
5462.441159 88.963 -174.1563
5502.024259 88.794 -173.7087
5541.894195 88.621 -173.1750
5582.053045 88.449 -172.5545
5622.502902 88.282 -171.8562
5663.245876 88.120 -171.0920
5704.284090 87.966 -170.2739
5745.619684 87.820 -169.4158
5787.254813 87.682 -168.5294
5829.191647 87.550 -167.6195
5871.432373 87.424 -166.6825
5913.979192 87.303 -165.7110
5956.834323 87.188 -164.6999
6000.000000 87.081 -163.6496
6043.478473 86.983 -162.5638
6087.272010 86.894 -161.4485
6131.382892 86.815 -160.3119
6175.813420 86.746 -159.1636
6220.565910 86.686 -158.0088
6265.642695 86.633 -156.8460
6311.046124 86.589 -155.6691
6356.778566 86.552 -154.4730
6402.842404 86.526 -153.2567
6449.240040 86.509 -152.0225
6495.973891 86.504 -150.7759
6543.046396 86.511 -149.5259
6590.460007 86.530 -148.2815
6638.217197 86.562 -147.0473
6686.320456 86.604 -145.8224
6734.772290 86.659 -144.6040
6783.575226 86.726 -143.3914
6832.731809 86.807 -142.1876
6882.244600 86.902 -141.0000
6932.116181 87.012 -139.8417
6982.349153 87.137 -138.7278
7032.946133 87.277 -137.6713
7083.909760 87.433 -136.6802
7135.242690 87.604 -135.7615
7186.947600 87.792 -134.9245
7239.027185 87.999 -134.1826
7291.484160 88.225 -133.5562
7344.321260 88.470 -133.0729
7397.541239 88.732 -132.7621
7451.146872 89.009 -132.6497
7505.140954 89.298 -132.7564
7559.526299 89.594 -133.0999
7614.305743 89.894 -133.6960
7669.482141 90.194 -134.5592
7725.058371 90.486 -135.7030
7781.037328 90.765 -137.1347
7837.421932 91.021 -138.8487
7894.215122 91.247 -140.8227
7951.419859 91.435 -143.0206
8009.039125 91.581 -145.3958
8067.075924 91.681 -147.8957
8125.533282 91.733 -150.4673
8184.414245 91.738 -153.0602
8243.721885 91.696 -155.6245
8303.459292 91.610 -158.1106
8363.629581 91.483 -160.4713
8424.235888 91.321 -162.6648
8485.281374 91.131 -164.6611
8546.769221 90.921 -166.4475
8608.702634 90.700 -168.0285
8671.084842 90.474 -169.4192
8733.919097 90.248 -170.6405
8797.208675 90.025 -171.7148
8860.956876 89.807 -172.6644
8925.167022 89.596 -173.5129
8989.842461 89.391 -174.2851
9054.986566 89.191 -175.0010
9120.602731 88.994 -175.6700
9186.694378 88.797 -176.2881
9253.264952 88.597 -176.8393
9320.317925 88.395 -177.3031
9387.856790 88.192 -177.6629
9455.885071 87.991 -177.9072
9524.406312 87.795 -178.0282
9593.424086 87.607 -178.0181
9662.941992 87.430 -177.8680
9732.963653 87.271 -177.5734
9803.492719 87.134 -177.1405
9874.532869 87.026 -176.5869
9946.087805 86.952 -175.9378
10018.161257 86.914 -175.2199
10090.756983 86.918 -174.4604
10163.878768 86.968 -173.6939
10237.530423 87.070 -172.9684
10311.715789 87.226 -172.3452
10386.438732 87.439 -171.8944
10461.703149 87.710 -171.6892
10537.512962 88.037 -171.8083
10613.872125 88.416 -172.3412
10690.784618 88.839 -173.3854
10768.254450 89.292 -175.0367
10846.285661 89.756 -177.3738
10924.882318 90.208 179.5521
11004.048518 90.620 175.7236
11083.788390 90.966 171.1645
11164.106090 91.214 165.9481
11245.005805 91.338 160.2052
11326.491752 91.317 154.1209
11408.568180 91.140 147.9180
11491.239368 90.804 141.8298
11574.509626 90.319 136.0729
11658.383294 89.701 130.8287
11742.864745 88.970 126.2329
11827.958384 88.153 122.3716
11913.668646 87.276 119.2798
12000.000000 86.365 116.9476
12086.956947 85.444 115.3316
12174.544019 84.531 114.3688
12262.765784 83.644 113.9842
12351.626840 82.794 114.0944
12441.131819 81.990 114.6131
12531.285389 81.236 115.4599
12622.092249 80.534 116.5674
12713.557132 79.884 117.8788
12805.684808 79.286 119.3428
12898.480079 78.738 120.9134
12991.947783 78.237 122.5519
13086.092792 77.782 124.2249
13180.920015 77.371 125.8982
13276.434395 77.000 127.5359
13372.640911 76.666 129.1075
13469.544580 76.363 130.5947
13567.150452 76.087 131.9932
13665.463617 75.834 133.3096
13764.489200 75.604 134.5521
13864.232362 75.396 135.7114
13964.698305 75.214 136.7531
14065.892266 75.055 137.6334
14167.819519 74.917 138.3217
14270.485380 74.793 138.8057
14373.895200 74.681 139.0826
14478.054370 74.579 139.1456
14582.968320 74.482 138.9813
14688.642520 74.386 138.5748
14795.082478 74.286 137.9135
14902.293745 74.175 136.9927
15010.281908 74.044 135.8249
15119.052599 73.884 134.4470
15228.611486 73.689 132.9179
15338.964283 73.454 131.3121
15450.116741 73.177 129.7147
15562.074656 72.862 128.2154
15674.843864 72.513 126.8997
15788.430244 72.141 125.8394
15902.839718 71.758 125.0864
16018.078250 71.384 124.6659
16134.151848 71.040 124.5629
16251.066563 70.753 124.7053
16368.828491 70.549 124.9502
16487.443769 70.448 125.0801
16606.918584 70.456 124.8191
16727.259161 70.562 123.8807
16848.471777 70.732 122.0272
16970.562748 70.916 119.1144
17093.538442 71.060 115.1142
17217.405268 71.106 110.1159
17342.169684 71.008 104.3120
17467.838194 70.728 97.9753
17594.417350 70.242 91.4326
17721.913751 69.539 85.0300
17850.334044 68.625 79.0966
17979.684923 67.515 73.9193
18109.973131 66.232 69.7313
18241.205462 64.804 66.7072
18373.388756 63.262 64.9673
18506.529905 61.635 64.5818
18640.635849 59.955 65.5680
18775.713581 58.253 67.8757
18911.770141 56.563 71.3658
19048.812624 54.913 75.7895
19186.848172 53.327 80.8116
19325.883983 51.818 86.1043
19465.927305 50.399 91.4355
19606.985439 49.090 96.6586
19749.065738 47.943 101.5721
19892.175609 47.056 105.6912
20036.322514 46.563 108.1560
