* Measurement data measured by REW V5.31
* Source: EXCL: Microphone (USB Sound Device        ), MICROPHONE (Master Volume), L, volume: 0.560
* Format: 256k Log Swept Sine, 1 sweep at 0.0 dBFS with no timing reference
* Dated: Apr 28, 2024 12:36:58 PM
* REW Settings:
*  C-weighting compensation: Off
*  Target level: 75.0 dB
* Note: Delci
* Measurement: L Apr 28
* Smoothing: 1/12 octave
* Frequency Step: 96 ppo
* Start Frequency: 0.36621094 Hz
*
* Freq(Hz) SPL(dB) Phase(degrees)
0.366211 93.126 -61.1693
0.368865 93.131 -61.2331
0.371538 93.139 -61.3286
0.374230 93.148 -61.4483
0.376942 93.158 -61.5860
0.379673 93.169 -61.7368
0.382424 93.180 -61.8979
0.385196 93.192 -62.0672
0.387987 93.204 -62.2436
0.390798 93.216 -62.4267
0.393630 93.228 -62.6161
0.396483 93.240 -62.8116
0.399356 93.253 -63.0131
0.402250 93.265 -63.2208
0.405165 93.278 -63.4345
0.408101 93.291 -63.6542
0.411058 93.303 -63.8800
0.414037 93.316 -64.1120
0.417037 93.329 -64.3500
0.420059 93.342 -64.5942
0.423103 93.355 -64.8445
0.426169 93.368 -65.1010
0.429257 93.382 -65.3636
0.432368 93.395 -65.6323
0.435501 93.409 -65.9072
0.438656 93.422 -66.1882
0.441835 93.436 -66.4754
0.445037 93.450 -66.7686
0.448262 93.464 -67.0680
0.451510 93.478 -67.3734
0.454782 93.492 -67.6848
0.458077 93.506 -68.0023
0.461397 93.520 -68.3257
0.464740 93.535 -68.6550
0.468108 93.549 -68.9902
0.471500 93.564 -69.3312
0.474917 93.579 -69.6780
0.478358 93.593 -70.0305
0.481825 93.608 -70.3886
0.485316 93.623 -70.7524
0.488833 93.639 -71.1216
0.492375 93.654 -71.4962
0.495943 93.669 -71.8762
0.499537 93.685 -72.2613
0.503157 93.700 -72.6517
0.506803 93.716 -73.0471
0.510475 93.732 -73.4474
0.514175 93.748 -73.8525
0.517900 93.764 -74.2623
0.521653 93.780 -74.6768
0.525434 93.796 -75.0957
0.529241 93.813 -75.5189
0.533076 93.829 -75.9463
0.536939 93.846 -76.3778
0.540830 93.863 -76.8131
0.544749 93.880 -77.2523
0.548696 93.897 -77.6951
0.552673 93.914 -78.1413
0.556677 93.931 -78.5908
0.560711 93.949 -79.0434
0.564774 93.966 -79.4991
0.568867 93.984 -79.9575
0.572989 94.002 -80.4185
0.577141 94.019 -80.8821
0.581324 94.037 -81.3479
0.585536 94.056 -81.8158
0.589779 94.074 -82.2856
0.594053 94.092 -82.7572
0.598358 94.111 -83.2303
0.602694 94.130 -83.7048
0.607061 94.148 -84.1806
0.611460 94.167 -84.6573
0.615891 94.186 -85.1349
0.620354 94.206 -85.6131
0.624849 94.225 -86.0918
0.629377 94.245 -86.5708
0.633938 94.264 -87.0499
0.638532 94.284 -87.5290
0.643159 94.304 -88.0078
0.647819 94.324 -88.4862
0.652514 94.344 -88.9640
0.657242 94.365 -89.4411
0.662005 94.385 -89.9173
0.666802 94.406 -90.3924
0.671634 94.427 -90.8662
0.676501 94.448 -91.3387
0.681403 94.469 -91.8097
0.686341 94.490 -92.2790
0.691314 94.512 -92.7466
0.696324 94.533 -93.2123
0.701370 94.555 -93.6760
0.706452 94.576 -94.1379
0.711571 94.598 -94.5980
0.716728 94.618 -95.0567
0.721921 94.639 -95.5146
0.727153 94.658 -95.9725
0.732422 94.676 -96.4319
0.737729 94.692 -96.8942
0.743075 94.707 -97.3610
0.748460 94.721 -97.8337
0.753883 94.734 -98.3130
0.759346 94.746 -98.7995
0.764849 94.758 -99.2935
0.770391 94.770 -99.7951
0.775974 94.781 -100.3044
0.781597 94.792 -100.8211
0.787261 94.803 -101.3452
0.792966 94.814 -101.8765
0.798712 94.825 -102.4148
0.804500 94.835 -102.9599
0.810329 94.845 -103.5116
0.816201 94.855 -104.0696
0.822116 94.865 -104.6338
0.828073 94.874 -105.2039
0.834074 94.884 -105.7795
0.840118 94.892 -106.3605
0.846206 94.901 -106.9466
0.852338 94.909 -107.5374
0.858514 94.917 -108.1327
0.864735 94.925 -108.7321
0.871001 94.932 -109.3354
0.877313 94.938 -109.9421
0.883670 94.944 -110.5520
0.890074 94.950 -111.1647
0.896524 94.955 -111.7798
0.903020 94.960 -112.3970
0.909564 94.964 -113.0159
0.916155 94.968 -113.6361
0.922794 94.971 -114.2573
0.929481 94.973 -114.8791
0.936216 94.975 -115.5010
0.943000 94.976 -116.1226
0.949834 94.977 -116.7437
0.956717 94.976 -117.3636
0.963649 94.975 -117.9822
0.970632 94.973 -118.5988
0.977666 94.970 -119.2132
0.984750 94.966 -119.8248
0.991886 94.962 -120.4333
0.999074 94.956 -121.0383
1.006314 94.950 -121.6392
1.013606 94.942 -122.2358
1.020951 94.934 -122.8276
1.028349 94.924 -123.4141
1.035801 94.913 -123.9949
1.043307 94.901 -124.5697
1.050867 94.887 -125.1382
1.058482 94.873 -125.7001
1.066152 94.857 -126.2553
1.073878 94.840 -126.8040
1.081660 94.822 -127.3468
1.089498 94.802 -127.8848
1.097393 94.782 -128.4197
1.105345 94.760 -128.9540
1.113355 94.738 -129.4899
1.121423 94.716 -130.0298
1.129549 94.692 -130.5754
1.137734 94.669 -131.1281
1.145979 94.645 -131.6885
1.154283 94.620 -132.2575
1.162647 94.595 -132.8353
1.171072 94.569 -133.4222
1.179558 94.542 -134.0185
1.188106 94.514 -134.6243
1.196715 94.485 -135.2397
1.205387 94.455 -135.8647
1.214122 94.424 -136.4994
1.222920 94.391 -137.1436
1.231782 94.356 -137.7974
1.240708 94.320 -138.4605
1.249699 94.282 -139.1327
1.258754 94.242 -139.8139
1.267876 94.200 -140.5036
1.277063 94.155 -141.2014
1.286318 94.107 -141.9068
1.295639 94.057 -142.6192
1.305027 94.004 -143.3380
1.314484 93.948 -144.0623
1.324009 93.888 -144.7912
1.333604 93.825 -145.5235
1.343268 93.758 -146.2582
1.353002 93.688 -146.9939
1.362806 93.613 -147.7291
1.372681 93.533 -148.4621
1.382628 93.449 -149.1912
1.392647 93.360 -149.9143
1.402739 93.266 -150.6294
1.412904 93.166 -151.3345
1.423142 93.060 -152.0276
1.433455 92.948 -152.7072
1.443843 92.829 -153.3723
1.454305 92.702 -154.0231
1.464844 92.568 -154.6610
1.475459 92.424 -155.2887
1.486150 92.272 -155.9094
1.496920 92.109 -156.5263
1.507767 91.936 -157.1420
1.518693 91.752 -157.7581
1.529698 91.559 -158.3762
1.540783 91.357 -158.9968
1.551948 91.145 -159.6206
1.563194 90.924 -160.2477
1.574521 90.696 -160.8783
1.585931 90.459 -161.5124
1.597423 90.217 -162.1496
1.608999 89.967 -162.7897
1.620658 89.713 -163.4322
1.632402 89.454 -164.0764
1.644232 89.191 -164.7213
1.656146 88.925 -165.3658
1.668147 88.657 -166.0086
1.680235 88.388 -166.6478
1.692411 88.119 -167.2814
1.704675 87.851 -167.9066
1.717028 87.585 -168.5202
1.729470 87.321 -169.1186
1.742003 87.062 -169.6971
1.754626 86.809 -170.2504
1.767341 86.562 -170.7720
1.780147 86.322 -171.2547
1.793047 86.090 -171.6901
1.806040 85.866 -172.0690
1.819128 85.650 -172.3814
1.832310 85.440 -172.6165
1.845587 85.234 -172.7627
1.858961 85.030 -172.8060
1.872432 84.826 -172.7287
1.886001 84.622 -172.5071
1.899667 84.417 -172.1089
1.913433 84.211 -171.4889
1.927299 84.006 -170.5831
1.941265 83.803 -169.2991
1.955332 83.603 -167.5000
1.969501 83.408 -164.9775
1.983773 83.219 -161.4054
1.998148 83.039 -156.2630
2.012627 82.869 -148.7278
2.027212 82.713 -137.6330
2.041902 82.571 -121.9676
2.056698 82.447 -102.7109
2.071602 82.342 -83.9715
2.086614 82.261 -69.3455
2.101734 82.206 -59.1952
2.116964 82.179 -52.3749
2.132304 82.185 -47.7791
2.147756 82.227 -44.6566
2.163320 82.310 -42.5340
2.178996 82.436 -41.1117
2.194786 82.611 -40.1945
2.210690 82.838 -39.6502
2.226710 83.117 -39.3861
2.242845 83.450 -39.3353
2.259098 83.834 -39.4486
2.275468 84.264 -39.6892
2.291957 84.737 -40.0290
2.308566 85.246 -40.4465
2.325295 85.785 -40.9251
2.342145 86.349 -41.4520
2.359117 86.932 -42.0172
2.376212 87.525 -42.6131
2.393431 88.125 -43.2337
2.410775 88.723 -43.8746
2.428244 89.314 -44.5326
2.445840 89.892 -45.2056
2.463564 90.451 -45.8923
2.481416 90.986 -46.5925
2.499397 91.493 -47.3069
2.517509 91.968 -48.0374
2.535752 92.409 -48.7869
2.554127 92.816 -49.5591
2.572635 93.190 -50.3581
2.591277 93.535 -51.1870
2.610055 93.853 -52.0468
2.628968 94.148 -52.9361
2.648019 94.421 -53.8515
2.667208 94.675 -54.7885
2.686535 94.912 -55.7418
2.706003 95.134 -56.7061
2.725612 95.341 -57.6766
2.745363 95.536 -58.6484
2.765257 95.721 -59.6174
2.785295 95.897 -60.5800
2.805478 96.065 -61.5334
2.825808 96.229 -62.4752
2.846285 96.389 -63.4044
2.866910 96.546 -64.3208
2.887685 96.701 -65.2262
2.908611 96.855 -66.1240
2.929688 97.007 -67.0194
2.950917 97.156 -67.9183
2.972301 97.301 -68.8263
2.993839 97.440 -69.7467
3.015534 97.573 -70.6805
3.037386 97.700 -71.6264
3.059396 97.819 -72.5820
3.081565 97.933 -73.5436
3.103896 98.041 -74.5070
3.126388 98.142 -75.4681
3.149043 98.239 -76.4223
3.171862 98.331 -77.3658
3.194847 98.419 -78.2949
3.217998 98.503 -79.2069
3.241317 98.583 -80.1004
3.264805 98.659 -80.9759
3.288463 98.732 -81.8358
3.312293 98.800 -82.6845
3.336295 98.864 -83.5269
3.360471 98.923 -84.3670
3.384822 98.977 -85.2071
3.409350 99.026 -86.0473
3.434056 99.070 -86.8861
3.458940 99.109 -87.7209
3.484005 99.144 -88.5481
3.509252 99.175 -89.3635
3.534681 99.202 -90.1628
3.560295 99.226 -90.9415
3.586094 99.247 -91.6957
3.612081 99.266 -92.4222
3.638255 99.281 -93.1193
3.664620 99.294 -93.7869
3.691175 99.303 -94.4268
3.717923 99.308 -95.0414
3.744864 99.310 -95.6329
3.772001 99.308 -96.2031
3.799335 99.303 -96.7527
3.826866 99.295 -97.2817
3.854597 99.285 -97.7895
3.882529 99.274 -98.2746
3.910664 99.262 -98.7354
3.939002 99.249 -99.1696
3.967546 99.237 -99.5749
3.996296 99.225 -99.9488
4.025255 99.214 -100.2889
4.054423 99.204 -100.5935
4.083804 99.194 -100.8619
4.113396 99.183 -101.0948
4.143204 99.174 -101.2940
4.173227 99.165 -101.4622
4.203468 99.157 -101.6028
4.233928 99.151 -101.7196
4.264609 99.148 -101.8161
4.295512 99.148 -101.8956
4.326639 99.152 -101.9606
4.357992 99.161 -102.0123
4.389572 99.175 -102.0504
4.421380 99.194 -102.0738
4.453419 99.219 -102.0815
4.485691 99.248 -102.0741
4.518196 99.282 -102.0541
4.550936 99.320 -102.0260
4.583914 99.363 -101.9958
4.617131 99.410 -101.9699
4.650589 99.460 -101.9548
4.684289 99.515 -101.9561
4.718233 99.573 -101.9781
4.752424 99.635 -102.0233
4.786862 99.700 -102.0919
4.821549 99.770 -102.1831
4.856488 99.844 -102.2964
4.891680 99.921 -102.4315
4.927127 100.000 -102.5893
4.962831 100.082 -102.7714
4.998794 100.164 -102.9799
5.035017 100.247 -103.2171
5.071503 100.329 -103.4852
5.108253 100.410 -103.7858
5.145270 100.490 -104.1199
5.182555 100.569 -104.4872
5.220110 100.647 -104.8863
5.257937 100.723 -105.3146
5.296038 100.797 -105.7690
5.334415 100.870 -106.2462
5.373071 100.939 -106.7434
5.412006 101.006 -107.2582
5.451224 101.068 -107.7896
5.490725 101.126 -108.3374
5.530514 101.181 -108.9021
5.570590 101.230 -109.4837
5.610957 101.276 -110.0806
5.651616 101.317 -110.6898
5.692570 101.355 -111.3069
5.733821 101.388 -111.9272
5.775370 101.417 -112.5462
5.817221 101.441 -113.1605
5.859375 101.462 -113.7684
5.901834 101.478 -114.3693
5.944602 101.489 -114.9634
5.987679 101.497 -115.5499
6.031068 101.500 -116.1269
6.074771 101.501 -116.6916
6.118792 101.498 -117.2404
6.163131 101.493 -117.7697
6.207792 101.486 -118.2768
6.252776 101.477 -118.7599
6.298086 101.467 -119.2186
6.343725 101.454 -119.6533
6.389694 101.441 -120.0648
6.435996 101.428 -120.4537
6.482634 101.414 -120.8206
6.529610 101.402 -121.1654
6.576926 101.392 -121.4880
6.624585 101.383 -121.7882
6.672590 101.376 -122.0665
6.720942 101.372 -122.3248
6.769645 101.371 -122.5661
6.818700 101.372 -122.7944
6.868111 101.377 -123.0138
6.917881 101.385 -123.2278
6.968010 101.396 -123.4392
7.018504 101.412 -123.6506
7.069362 101.431 -123.8651
7.120590 101.454 -124.0861
7.172189 101.480 -124.3172
7.224161 101.509 -124.5621
7.276511 101.540 -124.8236
7.329239 101.573 -125.1038
7.382350 101.607 -125.4035
7.435845 101.644 -125.7223
7.489729 101.681 -126.0593
7.544002 101.718 -126.4133
7.598669 101.755 -126.7839
7.653732 101.792 -127.1715
7.709194 101.827 -127.5774
7.765058 101.860 -128.0021
7.821327 101.892 -128.4447
7.878004 101.921 -128.9027
7.935091 101.948 -129.3729
7.992592 101.973 -129.8519
8.050510 101.994 -130.3370
8.108847 102.012 -130.8260
8.167607 102.028 -131.3171
8.226793 102.040 -131.8077
8.286408 102.049 -132.2946
8.346454 102.056 -132.7747
8.406936 102.061 -133.2449
8.467856 102.063 -133.7033
8.529218 102.064 -134.1485
8.591024 102.062 -134.5797
8.653278 102.060 -134.9960
8.715983 102.057 -135.3967
8.779143 102.055 -135.7810
8.842760 102.052 -136.1488
8.906839 102.050 -136.5005
8.971381 102.048 -136.8377
9.036392 102.048 -137.1622
9.101873 102.049 -137.4760
9.167829 102.052 -137.7809
9.234263 102.057 -138.0788
9.301178 102.064 -138.3716
9.368578 102.073 -138.6618
9.436467 102.083 -138.9519
9.504847 102.095 -139.2445
9.573723 102.108 -139.5413
9.643099 102.122 -139.8438
9.712976 102.136 -140.1527
9.783361 102.148 -140.4690
9.854255 102.160 -140.7933
9.925663 102.168 -141.1257
9.997588 102.174 -141.4660
10.070035 102.178 -141.8135
10.143007 102.178 -142.1667
10.216507 102.175 -142.5243
10.290540 102.170 -142.8850
10.365109 102.162 -143.2474
10.440219 102.152 -143.6099
10.515873 102.139 -143.9708
10.592076 102.125 -144.3286
10.668830 102.110 -144.6819
10.746141 102.093 -145.0297
10.824012 102.076 -145.3714
10.902447 102.057 -145.7065
10.981451 102.038 -146.0349
11.061027 102.019 -146.3566
11.141180 102.000 -146.6719
11.221913 101.981 -146.9817
11.303232 101.962 -147.2869
11.385140 101.943 -147.5886
11.467641 101.925 -147.8876
11.550741 101.907 -148.1849
11.634442 101.890 -148.4816
11.718750 101.873 -148.7785
11.803669 101.856 -149.0763
11.889203 101.840 -149.3753
11.975357 101.824 -149.6755
12.062136 101.808 -149.9770
12.149543 101.792 -150.2795
12.237583 101.775 -150.5826
12.326262 101.759 -150.8858
12.415583 101.742 -151.1884
12.505552 101.724 -151.4899
12.596172 101.706 -151.7898
12.687449 101.687 -152.0880
12.779387 101.669 -152.3844
12.871992 101.650 -152.6790
12.965268 101.631 -152.9721
13.059220 101.613 -153.2645
13.153852 101.595 -153.5569
13.249170 101.578 -153.8502
13.345179 101.561 -154.1452
13.441884 101.545 -154.4429
13.539289 101.529 -154.7439
13.637401 101.514 -155.0489
13.736223 101.498 -155.3580
13.835761 101.482 -155.6713
13.936021 101.466 -155.9883
14.037007 101.450 -156.3084
14.138725 101.432 -156.6307
14.241180 101.414 -156.9540
14.344377 101.395 -157.2771
14.448323 101.375 -157.5988
14.553021 101.355 -157.9181
14.658478 101.334 -158.2342
14.764700 101.314 -158.5466
14.871691 101.294 -158.8552
14.979457 101.274 -159.1603
15.088005 101.255 -159.4627
15.197339 101.237 -159.7633
15.307465 101.220 -160.0635
15.418389 101.204 -160.3647
15.530117 101.189 -160.6683
15.642655 101.174 -160.9753
15.756008 101.160 -161.2868
15.870182 101.147 -161.6030
15.985184 101.133 -161.9241
16.101019 101.119 -162.2495
16.217694 101.105 -162.5782
16.335214 101.091 -162.9089
16.453586 101.076 -163.2401
16.572815 101.060 -163.5702
16.692909 101.044 -163.8977
16.813872 101.028 -164.2213
16.935713 101.013 -164.5401
17.058436 100.997 -164.8537
17.182048 100.983 -165.1620
17.306556 100.968 -165.4657
17.431967 100.955 -165.7654
17.558286 100.942 -166.0623
17.685521 100.930 -166.3575
17.813677 100.919 -166.6520
17.942762 100.908 -166.9467
18.072783 100.897 -167.2420
18.203746 100.886 -167.5380
18.335658 100.876 -167.8345
18.468526 100.864 -168.1310
18.602356 100.853 -168.4266
18.737156 100.841 -168.7204
18.872934 100.829 -169.0117
19.009695 100.817 -169.2999
19.147447 100.805 -169.5844
19.286197 100.793 -169.8652
19.425953 100.781 -170.1425
19.566721 100.769 -170.4167
19.708510 100.757 -170.6881
19.851326 100.744 -170.9572
19.995177 100.731 -171.2246
20.140070 100.719 -171.4903
20.286013 100.705 -171.7544
20.433014 100.692 -172.0167
20.581080 100.678 -172.2771
20.730219 100.663 -172.5352
20.880439 100.649 -172.7909
21.031747 100.634 -173.0440
21.184152 100.619 -173.2947
21.337661 100.605 -173.5432
21.492282 100.590 -173.7899
21.648024 100.576 -174.0353
21.804895 100.562 -174.2797
21.962902 100.548 -174.5236
22.122054 100.535 -174.7670
22.282360 100.521 -175.0103
22.443827 100.508 -175.2533
22.606464 100.494 -175.4964
22.770280 100.481 -175.7399
22.935283 100.469 -175.9842
23.101481 100.457 -176.2302
23.268884 100.445 -176.4789
23.437500 100.434 -176.7312
23.607338 100.423 -176.9883
23.778406 100.412 -177.2508
23.950714 100.401 -177.5188
24.124271 100.390 -177.7920
24.299086 100.378 -178.0697
24.475167 100.365 -178.3504
24.652524 100.352 -178.6329
24.831166 100.339 -178.9156
25.011103 100.325 -179.1972
25.192344 100.311 -179.4770
25.374898 100.296 -179.7545
25.558775 100.282 179.9702
25.743984 100.268 179.6968
25.930536 100.254 179.4251
26.118439 100.240 179.1547
26.307704 100.226 178.8857
26.498341 100.211 178.6182
26.690359 100.197 178.3528
26.883768 100.183 178.0899
27.078579 100.168 177.8298
27.274801 100.153 177.5730
27.472446 100.138 177.3192
27.671522 100.123 177.0682
27.872042 100.108 176.8197
28.074014 100.092 176.5732
28.277450 100.077 176.3286
28.482360 100.061 176.0855
28.688755 100.045 175.8440
28.896645 100.028 175.6041
29.106042 100.011 175.3657
29.316957 99.994 175.1286
29.529400 99.977 174.8925
29.743382 99.960 174.6570
29.958915 99.943 174.4216
30.176009 99.925 174.1861
30.394677 99.907 173.9503
30.614929 99.889 173.7144
30.836778 99.871 173.4784
31.060234 99.853 173.2425
31.285309 99.834 173.0068
31.512015 99.815 172.7712
31.740364 99.796 172.5354
31.970368 99.778 172.2992
32.202039 99.759 172.0624
32.435388 99.740 171.8250
32.670428 99.721 171.5869
32.907171 99.702 171.3482
33.145630 99.683 171.1093
33.385817 99.664 170.8701
33.627745 99.646 170.6307
33.871425 99.627 170.3911
34.116871 99.608 170.1513
34.364096 99.589 169.9116
34.613113 99.571 169.6724
34.863934 99.551 169.4340
35.116572 99.532 169.1971
35.371041 99.513 168.9622
35.627354 99.493 168.7296
35.885525 99.473 168.4998
36.145566 99.452 168.2731
36.407492 99.432 168.0497
36.671316 99.411 167.8296
36.937051 99.390 167.6125
37.204712 99.369 167.3979
37.474313 99.348 167.1851
37.745867 99.327 166.9736
38.019389 99.306 166.7627
38.294893 99.285 166.5524
38.572394 99.263 166.3428
38.851905 99.241 166.1343
39.133442 99.218 165.9274
39.417019 99.195 165.7223
39.702651 99.172 165.5189
39.990353 99.149 165.3169
40.280140 99.126 165.1160
40.572026 99.103 164.9160
40.866028 99.079 164.7166
41.162160 99.056 164.5177
41.460438 99.032 164.3193
41.760877 99.009 164.1214
42.063494 98.985 163.9240
42.368303 98.961 163.7274
42.675322 98.937 163.5317
42.984565 98.912 163.3376
43.296048 98.888 163.1454
43.609789 98.863 162.9550
43.925804 98.838 162.7662
44.244108 98.814 162.5785
44.564719 98.789 162.3914
44.887654 98.764 162.2046
45.212928 98.739 162.0182
45.540560 98.713 161.8325
45.870565 98.687 161.6481
46.202962 98.661 161.4655
46.537768 98.635 161.2853
46.875000 98.608 161.1074
47.214676 98.581 160.9316
47.556813 98.555 160.7576
47.901429 98.528 160.5848
48.248542 98.501 160.4133
48.598171 98.474 160.2432
48.950334 98.447 160.0752
49.305048 98.420 159.9098
49.662333 98.393 159.7471
50.022206 98.367 159.5864
50.384688 98.340 159.4267
50.749796 98.313 159.2668
51.117550 98.287 159.1061
51.487969 98.260 158.9449
51.861072 98.232 158.7845
52.236879 98.204 158.6265
52.615409 98.176 158.4724
52.996681 98.148 158.3232
53.380717 98.119 158.1788
53.767536 98.091 158.0383
54.157158 98.064 157.9003
54.549603 98.037 157.7636
54.944892 98.010 157.6271
55.343045 97.984 157.4902
55.744084 97.957 157.3523
56.148028 97.931 157.2132
56.554900 97.905 157.0727
56.964720 97.879 156.9307
57.377510 97.852 156.7872
57.793291 97.826 156.6422
58.212085 97.799 156.4960
58.633914 97.771 156.3492
59.058799 97.743 156.2020
59.486764 97.715 156.0551
59.917829 97.686 155.9088
60.352019 97.656 155.7634
60.789354 97.626 155.6190
61.229859 97.596 155.4756
61.673556 97.564 155.3335
62.120468 97.533 155.1932
62.570618 97.500 155.0553
63.024031 97.467 154.9206
63.480729 97.434 154.7893
63.940736 97.401 154.6611
64.404077 97.367 154.5352
64.870776 97.334 154.4108
65.340856 97.300 154.2877
65.814343 97.266 154.1663
66.291261 97.231 154.0473
66.771635 97.196 153.9315
67.255489 97.161 153.8195
67.742850 97.125 153.7114
68.233743 97.089 153.6072
68.728193 97.054 153.5070
69.226226 97.017 153.4120
69.727867 96.981 153.3237
70.233144 96.946 153.2430
70.742083 96.911 153.1681
71.254709 96.878 153.0944
71.771050 96.845 153.0167
72.291132 96.813 152.9329
72.814984 96.779 152.8449
73.342631 96.745 152.7572
73.874102 96.710 152.6733
74.409424 96.675 152.5947
74.948626 96.639 152.5211
75.491734 96.604 152.4517
76.038779 96.568 152.3853
76.589787 96.534 152.3207
77.144788 96.499 152.2565
77.703811 96.464 152.1920
78.266885 96.430 152.1268
78.834039 96.395 152.0610
79.405303 96.361 151.9948
79.980706 96.325 151.9283
80.560280 96.290 151.8621
81.144053 96.253 151.7965
81.732056 96.215 151.7320
82.324320 96.176 151.6693
82.920876 96.135 151.6104
83.521755 96.093 151.5579
84.126988 96.049 151.5156
84.736607 96.004 151.4863
85.350643 95.959 151.4716
85.969129 95.915 151.4716
86.592097 95.872 151.4856
87.219579 95.830 151.5115
87.851608 95.792 151.5438
88.488217 95.755 151.5760
89.129439 95.719 151.6067
89.775308 95.684 151.6426
90.425856 95.647 151.6939
91.081119 95.611 151.7667
91.741131 95.577 151.8605
92.405925 95.544 151.9703
93.075536 95.514 152.0896
93.750000 95.486 152.2120
94.429351 95.461 152.3327
95.113625 95.436 152.4490
95.802858 95.414 152.5593
96.497085 95.393 152.6618
97.196342 95.375 152.7543
97.900667 95.358 152.8355
98.610096 95.343 152.9045
99.324665 95.330 152.9612
100.044413 95.318 153.0060
100.769376 95.307 153.0394
101.499592 95.297 153.0616
102.235100 95.286 153.0726
102.975938 95.276 153.0720
103.722144 95.266 153.0593
104.473757 95.255 153.0336
105.230817 95.243 152.9943
105.993363 95.230 152.9406
106.761435 95.216 152.8717
107.535072 95.201 152.7867
108.314315 95.184 152.6853
109.099206 95.166 152.5680
109.889783 95.146 152.4373
110.686090 95.123 152.2983
111.488167 95.097 152.1581
112.296056 95.068 152.0242
113.109800 95.037 151.9026
113.929440 95.002 151.7977
114.755020 94.966 151.7126
115.586582 94.927 151.6499
116.424170 94.887 151.6109
117.267827 94.846 151.5951
118.117598 94.806 151.5977
118.973527 94.767 151.6103
119.835658 94.729 151.6230
120.704037 94.692 151.6296
121.578708 94.656 151.6299
122.459718 94.619 151.6268
123.347111 94.584 151.6231
124.240935 94.549 151.6205
125.141236 94.515 151.6204
126.048061 94.481 151.6236
126.961458 94.448 151.6306
127.881473 94.415 151.6411
128.808154 94.382 151.6547
129.741551 94.349 151.6707
130.681712 94.316 151.6884
131.628686 94.283 151.7070
132.582521 94.249 151.7250
133.543269 94.216 151.7413
134.510979 94.182 151.7563
135.485701 94.148 151.7717
136.467486 94.114 151.7896
137.456386 94.080 151.8114
138.452451 94.045 151.8381
139.455735 94.010 151.8696
140.466288 93.975 151.9057
141.484165 93.940 151.9467
142.509418 93.904 151.9931
143.542100 93.867 152.0453
144.582265 93.831 152.1021
145.629968 93.795 152.1617
146.685262 93.759 152.2222
147.748204 93.723 152.2830
148.818849 93.686 152.3448
149.897251 93.649 152.4097
150.983469 93.612 152.4808
152.077557 93.574 152.5609
153.179574 93.536 152.6516
154.289576 93.499 152.7531
155.407622 93.463 152.8628
156.533770 93.428 152.9759
157.668078 93.396 153.0866
158.810606 93.365 153.1898
159.961413 93.335 153.2827
161.120559 93.305 153.3643
162.288105 93.275 153.4355
163.464112 93.244 153.4993
164.648640 93.211 153.5596
165.841752 93.177 153.6207
167.043510 93.141 153.6865
168.253976 93.104 153.7601
169.473213 93.066 153.8430
170.701286 93.028 153.9346
171.938258 92.990 154.0331
173.184194 92.952 154.1368
174.439158 92.915 154.2454
175.703216 92.881 154.3586
176.976434 92.848 154.4745
178.258878 92.817 154.5916
179.550615 92.788 154.7088
180.851713 92.759 154.8253
182.162239 92.730 154.9400
183.482262 92.700 155.0514
184.811850 92.669 155.1585
186.151073 92.638 155.2615
187.500000 92.606 155.3619
188.858702 92.574 155.4619
190.227250 92.542 155.5639
191.605715 92.510 155.6696
192.994169 92.477 155.7799
194.392685 92.445 155.8948
195.801334 92.412 156.0150
197.220191 92.378 156.1411
198.649330 92.345 156.2745
200.088825 92.313 156.4162
201.538751 92.280 156.5657
202.999184 92.249 156.7209
204.470200 92.220 156.8780
205.951875 92.191 157.0328
207.444287 92.163 157.1823
208.947514 92.134 157.3258
210.461634 92.105 157.4654
211.986726 92.074 157.6049
213.522869 92.041 157.7491
215.070144 92.007 157.9030
216.628631 91.971 158.0702
218.198411 91.936 158.2521
219.779567 91.901 158.4466
221.372180 91.868 158.6484
222.976334 91.836 158.8517
224.592112 91.806 159.0529
226.219600 91.776 159.2505
227.858880 91.747 159.4453
229.510039 91.718 159.6386
231.173164 91.690 159.8315
232.848340 91.661 160.0251
234.535655 91.633 160.2193
236.235197 91.604 160.4135
237.947054 91.576 160.6069
239.671317 91.548 160.7996
241.408074 91.520 160.9923
243.157416 91.491 161.1873
244.919435 91.462 161.3871
246.694223 91.433 161.5942
248.481871 91.404 161.8115
250.282473 91.375 162.0410
252.096123 91.348 162.2836
253.922915 91.322 162.5374
255.762945 91.299 162.7965
257.616309 91.280 163.0510
259.483103 91.262 163.2909
261.363424 91.245 163.5110
263.257372 91.227 163.7135
265.165043 91.208 163.9055
267.086538 91.187 164.0954
269.021957 91.165 164.2907
270.971401 91.142 164.4960
272.934972 91.119 164.7130
274.912771 91.096 164.9407
276.904902 91.075 165.1773
278.911469 91.056 165.4208
280.932577 91.038 165.6686
282.968330 91.022 165.9167
285.018835 91.009 166.1593
287.084199 90.997 166.3890
289.164530 90.986 166.5998
291.259935 90.974 166.7900
293.370525 90.960 166.9647
295.496408 90.943 167.1334
297.637697 90.923 167.3061
299.794503 90.901 167.4894
301.966937 90.878 167.6860
304.155114 90.855 167.8951
306.359147 90.832 168.1135
308.579152 90.809 168.3372
310.815244 90.787 168.5630
313.067539 90.764 168.7894
315.336156 90.741 169.0176
317.621211 90.718 169.2513
319.922826 90.694 169.4946
322.241118 90.670 169.7498
324.576210 90.647 170.0157
326.928223 90.626 170.2895
329.297280 90.605 170.5676
331.683504 90.586 170.8467
334.087019 90.568 171.1243
336.507952 90.551 171.3986
338.946427 90.533 171.6689
341.402572 90.516 171.9367
343.876516 90.498 172.2043
346.368387 90.480 172.4741
348.878315 90.461 172.7477
351.406431 90.443 173.0258
353.952867 90.425 173.3083
356.517756 90.407 173.5950
359.101230 90.390 173.8855
361.703426 90.374 174.1793
364.324478 90.358 174.4755
366.964523 90.342 174.7738
369.623699 90.326 175.0742
372.302145 90.312 175.3773
375.000000 90.297 175.6831
377.717405 90.283 175.9913
380.454501 90.270 176.3012
383.211431 90.258 176.6126
385.988339 90.246 176.9255
388.785369 90.235 177.2404
391.602668 90.225 177.5571
394.440383 90.215 177.8755
397.298660 90.206 178.1950
400.177650 90.198 178.5146
403.077502 90.191 178.8330
405.998368 90.184 179.1487
408.940400 90.178 179.4618
411.903750 90.172 179.7738
414.888575 90.165 -179.9122
417.895028 90.159 -179.5928
420.923268 90.153 -179.2659
423.973452 90.148 -178.9308
427.045738 90.144 -178.5893
430.140287 90.143 -178.2458
433.257261 90.144 -177.9056
436.396822 90.146 -177.5719
439.559133 90.150 -177.2457
442.744360 90.155 -176.9267
445.952668 90.162 -176.6167
449.184225 90.170 -176.3202
452.439199 90.179 -176.0427
455.717760 90.187 -175.7873
459.020079 90.193 -175.5506
462.346327 90.196 -175.3222
465.696680 90.197 -175.0907
469.071310 90.195 -174.8487
472.470394 90.193 -174.5951
475.894109 90.191 -174.3331
479.342634 90.190 -174.0684
482.816148 90.189 -173.8068
486.314833 90.188 -173.5499
489.838871 90.185 -173.2930
493.388445 90.183 -173.0277
496.963741 90.180 -172.7498
500.564945 90.178 -172.4624
504.192245 90.178 -172.1732
507.845830 90.179 -171.8889
511.525890 90.180 -171.6130
515.232618 90.181 -171.3444
518.966206 90.181 -171.0792
522.726849 90.180 -170.8123
526.514743 90.178 -170.5387
530.330086 90.176 -170.2565
534.173076 90.175 -169.9683
538.043915 90.174 -169.6787
541.942803 90.175 -169.3903
545.869944 90.175 -169.1023
549.825542 90.176 -168.8137
553.809805 90.178 -168.5260
557.822939 90.180 -168.2417
561.865154 90.181 -167.9624
565.936660 90.183 -167.6872
570.037671 90.184 -167.4127
574.168399 90.183 -167.1351
578.329060 90.182 -166.8528
582.519870 90.181 -166.5661
586.741049 90.180 -166.2752
590.992817 90.177 -165.9777
595.275394 90.175 -165.6709
599.589005 90.174 -165.3554
603.933874 90.173 -165.0355
608.310228 90.173 -164.7149
612.718295 90.172 -164.3952
617.158304 90.172 -164.0740
621.630488 90.171 -163.7455
626.135079 90.169 -163.4032
630.672311 90.169 -163.0452
635.242423 90.170 -162.6752
639.845651 90.173 -162.2997
644.482237 90.178 -161.9208
649.152421 90.185 -161.5377
653.856447 90.195 -161.1517
658.594560 90.207 -160.7698
663.367008 90.221 -160.4026
668.174039 90.237 -160.0581
673.015903 90.252 -159.7357
677.892854 90.264 -159.4278
682.805145 90.275 -159.1250
687.753032 90.283 -158.8203
692.736774 90.290 -158.5084
697.756631 90.295 -158.1850
702.812863 90.300 -157.8484
707.905735 90.306 -157.5007
713.035511 90.313 -157.1464
718.202461 90.320 -156.7888
723.406852 90.328 -156.4286
728.648956 90.336 -156.0647
733.929047 90.345 -155.6962
739.247399 90.353 -155.3223
744.604290 90.363 -154.9430
750.000000 90.372 -154.5585
755.434809 90.382 -154.1688
760.909001 90.393 -153.7740
766.422861 90.405 -153.3745
771.976677 90.418 -152.9706
777.570739 90.431 -152.5630
783.205337 90.445 -152.1523
788.880766 90.460 -151.7373
794.597321 90.476 -151.3148
800.355301 90.493 -150.8824
806.155005 90.513 -150.4412
811.996736 90.535 -149.9971
817.880799 90.561 -149.5585
823.807501 90.590 -149.1348
829.777150 90.621 -148.7342
835.790057 90.651 -148.3582
841.846536 90.680 -148.0000
847.946903 90.707 -147.6487
854.091476 90.732 -147.2960
860.280575 90.755 -146.9378
866.514523 90.778 -146.5712
872.793644 90.800 -146.1928
879.118267 90.823 -145.8026
885.488720 90.847 -145.4045
891.905336 90.872 -145.0026
898.368450 90.899 -144.5974
904.878398 90.926 -144.1870
911.435520 90.955 -143.7708
918.040157 90.986 -143.3505
924.692655 91.019 -142.9293
931.393359 91.054 -142.5111
938.142619 91.091 -142.1002
944.940787 91.129 -141.6989
951.788218 91.169 -141.3061
958.685268 91.209 -140.9197
965.632296 91.251 -140.5372
972.629666 91.293 -140.1562
979.677741 91.336 -139.7762
986.776890 91.380 -139.3978
993.927482 91.424 -139.0198
1001.129891 91.470 -138.6383
1008.384491 91.517 -138.2495
1015.691660 91.566 -137.8551
1023.051781 91.619 -137.4602
1030.465236 91.676 -137.0728
1037.932411 91.737 -136.7043
1045.453698 91.801 -136.3663
1053.029486 91.866 -136.0642
1060.660172 91.930 -135.7941
1068.346153 91.992 -135.5476
1076.087829 92.052 -135.3154
1083.885605 92.111 -135.0911
1091.739887 92.168 -134.8725
1099.651084 92.225 -134.6596
1107.619609 92.280 -134.4519
1115.645878 92.335 -134.2482
1123.730308 92.389 -134.0472
1131.873321 92.442 -133.8476
1140.075341 92.495 -133.6482
1148.336797 92.548 -133.4485
1156.658119 92.600 -133.2476
1165.039741 92.653 -133.0445
1173.482099 92.707 -132.8377
1181.985634 92.763 -132.6277
1190.550789 92.821 -132.4204
1199.178011 92.882 -132.2268
1207.867749 92.945 -132.0585
1216.620457 93.009 -131.9214
1225.436590 93.071 -131.8122
1234.316609 93.130 -131.7226
1243.260976 93.185 -131.6437
1252.270157 93.238 -131.5673
1261.344623 93.289 -131.4891
1270.484846 93.338 -131.4074
1279.691303 93.385 -131.3207
1288.964474 93.432 -131.2274
1298.304842 93.477 -131.1276
1307.712894 93.523 -131.0237
1317.189120 93.569 -130.9191
1326.734016 93.615 -130.8161
1336.348077 93.660 -130.7142
1346.031806 93.706 -130.6106
1355.785708 93.752 -130.5017
1365.610290 93.799 -130.3838
1375.506065 93.846 -130.2522
1385.473549 93.895 -130.1018
1395.513261 93.947 -129.9311
1405.625726 94.002 -129.7455
1415.811469 94.062 -129.5566
1426.071023 94.125 -129.3789
1436.404921 94.189 -129.2215
1446.813703 94.254 -129.0849
1457.297912 94.317 -128.9639
1467.858093 94.378 -128.8522
1478.494798 94.436 -128.7448
1489.208581 94.492 -128.6380
1500.000000 94.544 -128.5280
1510.869618 94.593 -128.4105
1521.818002 94.637 -128.2818
1532.845723 94.676 -128.1386
1543.953355 94.713 -127.9783
1555.141477 94.747 -127.7997
1566.410674 94.782 -127.6059
1577.761531 94.819 -127.4068
1589.194642 94.859 -127.2156
1600.710601 94.900 -127.0414
1612.310010 94.943 -126.8858
1623.993473 94.986 -126.7454
1635.761599 95.029 -126.6156
1647.615002 95.073 -126.4942
1659.554299 95.118 -126.3810
1671.580114 95.164 -126.2779
1683.693072 95.212 -126.1890
1695.893807 95.260 -126.1200
1708.182952 95.308 -126.0747
1720.561150 95.355 -126.0528
1733.029045 95.397 -126.0491
1745.587288 95.436 -126.0545
1758.236533 95.471 -126.0582
1770.977440 95.503 -126.0502
1783.810673 95.534 -126.0270
1796.736900 95.566 -125.9941
1809.756796 95.600 -125.9630
1822.871040 95.635 -125.9433
1836.080315 95.670 -125.9379
1849.385310 95.704 -125.9453
1862.786718 95.738 -125.9619
1876.285239 95.771 -125.9831
1889.881575 95.804 -126.0034
1903.576436 95.839 -126.0171
1917.370535 95.877 -126.0195
1931.264593 95.919 -126.0076
1945.259332 95.967 -125.9837
1959.355483 96.022 -125.9577
1973.553781 96.083 -125.9450
1987.854965 96.147 -125.9580
2002.259781 96.213 -126.0019
2016.768981 96.279 -126.0759
2031.383320 96.343 -126.1758
2046.103561 96.404 -126.2960
2060.930471 96.462 -126.4311
2075.864823 96.518 -126.5780
2090.907395 96.570 -126.7345
2106.058972 96.618 -126.8973
2121.320344 96.661 -127.0598
2136.692305 96.700 -127.2127
2152.175658 96.735 -127.3466
2167.771210 96.768 -127.4573
2183.479774 96.800 -127.5501
2199.302169 96.832 -127.6352
2215.239219 96.864 -127.7211
2231.291755 96.894 -127.8111
2247.460615 96.922 -127.9039
2263.746641 96.948 -127.9944
2280.150683 96.970 -128.0741
2296.673595 96.989 -128.1332
2313.316238 97.007 -128.1620
2330.079481 97.024 -128.1558
2346.964198 97.044 -128.1176
2363.971268 97.065 -128.0551
2381.101578 97.089 -127.9741
2398.356022 97.115 -127.8754
2415.735498 97.144 -127.7563
2433.240913 97.176 -127.6138
2450.873180 97.212 -127.4478
2468.633217 97.255 -127.2644
2486.521951 97.306 -127.0741
2504.540314 97.364 -126.8903
2522.689246 97.432 -126.7265
2540.969692 97.508 -126.5980
2559.382606 97.591 -126.5246
2577.928947 97.681 -126.5285
2596.609683 97.774 -126.6265
2615.425787 97.865 -126.8238
2634.378241 97.950 -127.1130
2653.468031 98.027 -127.4757
2672.696154 98.093 -127.8868
2692.063613 98.150 -128.3195
2711.571415 98.198 -128.7521
2731.220579 98.239 -129.1743
2751.012130 98.277 -129.5863
2770.947098 98.310 -129.9926
2791.026522 98.341 -130.3978
2811.251451 98.368 -130.8043
2831.622938 98.391 -131.2126
2852.142045 98.410 -131.6219
2872.809842 98.424 -132.0291
2893.627406 98.432 -132.4266
2914.595823 98.435 -132.8022
2935.716186 98.434 -133.1449
2956.989596 98.431 -133.4505
2978.417161 98.427 -133.7220
3000.000000 98.424 -133.9653
3021.739237 98.420 -134.1856
3043.636005 98.417 -134.3852
3065.691446 98.415 -134.5624
3087.906710 98.413 -134.7139
3110.282955 98.414 -134.8413
3132.821347 98.419 -134.9533
3155.523062 98.428 -135.0632
3178.389283 98.439 -135.1829
3201.421202 98.453 -135.3203
3224.620020 98.467 -135.4785
3247.986946 98.479 -135.6566
3271.523198 98.489 -135.8483
3295.230004 98.495 -136.0413
3319.108599 98.498 -136.2209
3343.160228 98.499 -136.3774
3367.386145 98.500 -136.5092
3391.787613 98.503 -136.6201
3416.365904 98.507 -136.7147
3441.122300 98.513 -136.7945
3466.058091 98.521 -136.8564
3491.174576 98.532 -136.8972
3516.473066 98.546 -136.9195
3541.954880 98.565 -136.9322
3567.621345 98.589 -136.9469
3593.473800 98.618 -136.9744
3619.513592 98.649 -137.0237
3645.742080 98.682 -137.1001
3672.160630 98.714 -137.2016
3698.770620 98.745 -137.3199
3725.573436 98.776 -137.4458
3752.570477 98.805 -137.5750
3779.763150 98.834 -137.7079
3807.152872 98.861 -137.8462
3834.741071 98.887 -137.9877
3862.529185 98.912 -138.1258
3890.518664 98.936 -138.2545
3918.710966 98.960 -138.3741
3947.107561 98.988 -138.4918
3975.709929 99.019 -138.6187
4004.519563 99.053 -138.7675
4033.537962 99.089 -138.9497
4062.766641 99.125 -139.1701
4092.207123 99.161 -139.4256
4121.860942 99.196 -139.7110
4151.729646 99.230 -140.0241
4181.814790 99.261 -140.3655
4212.117944 99.290 -140.7341
4242.640687 99.315 -141.1231
4273.384610 99.336 -141.5227
4304.351317 99.354 -141.9265
4335.542421 99.370 -142.3343
4366.959549 99.385 -142.7518
4398.604338 99.399 -143.1884
4430.478438 99.411 -143.6529
4462.583511 99.420 -144.1476
4494.921231 99.424 -144.6680
4527.493283 99.425 -145.2086
4560.301365 99.420 -145.7659
4593.347189 99.410 -146.3367
4626.632476 99.394 -146.9135
4660.158962 99.372 -147.4844
4693.928395 99.345 -148.0389
4727.942535 99.314 -148.5714
4762.203156 99.282 -149.0837
4796.712043 99.248 -149.5836
4831.470996 99.213 -150.0802
4866.481826 99.177 -150.5775
4901.746360 99.138 -151.0756
4937.266434 99.096 -151.5738
4973.043902 99.050 -152.0718
5009.080628 98.999 -152.5651
5045.378492 98.942 -153.0428
5081.939384 98.880 -153.4910
5118.765212 98.813 -153.8985
5155.857894 98.743 -154.2610
5193.219366 98.672 -154.5826
5230.851574 98.601 -154.8712
5268.756481 98.530 -155.1335
5306.936062 98.459 -155.3743
5345.392309 98.387 -155.5993
5384.127225 98.313 -155.8130
5423.142830 98.235 -156.0132
5462.441159 98.153 -156.1908
5502.024259 98.067 -156.3339
5541.894195 97.977 -156.4331
5582.053045 97.886 -156.4854
5622.502902 97.794 -156.4933
5663.245876 97.704 -156.4600
5704.284090 97.614 -156.3893
5745.619684 97.527 -156.2864
5787.254813 97.441 -156.1557
5829.191647 97.356 -155.9960
5871.432373 97.272 -155.7997
5913.979192 97.188 -155.5568
5956.834323 97.107 -155.2603
6000.000000 97.030 -154.9098
6043.478473 96.959 -154.5087
6087.272010 96.896 -154.0628
6131.382892 96.840 -153.5816
6175.813420 96.793 -153.0757
6220.565910 96.755 -152.5529
6265.642695 96.724 -152.0147
6311.046124 96.700 -151.4588
6356.778566 96.685 -150.8837
6402.842404 96.679 -150.2911
6449.240040 96.683 -149.6855
6495.973891 96.699 -149.0739
6543.046396 96.726 -148.4670
6590.460007 96.765 -147.8751
6638.217197 96.816 -147.3043
6686.320456 96.877 -146.7558
6734.772290 96.950 -146.2290
6783.575226 97.034 -145.7256
6832.731809 97.132 -145.2506
6882.244600 97.242 -144.8136
6932.116181 97.365 -144.4292
6982.349153 97.502 -144.1140
7032.946133 97.652 -143.8827
7083.909760 97.816 -143.7461
7135.242690 97.993 -143.7142
7186.947600 98.185 -143.7999
7239.027185 98.392 -144.0205
7291.484160 98.615 -144.4004
7344.321260 98.854 -144.9718
7397.541239 99.108 -145.7709
7451.146872 99.372 -146.8330
7505.140954 99.645 -148.1925
7559.526299 99.923 -149.8843
7614.305743 100.198 -151.9439
7669.482141 100.466 -154.4069
7725.058371 100.716 -157.3061
7781.037328 100.936 -160.6626
7837.421932 101.113 -164.4748
7894.215122 101.232 -168.7077
7951.419859 101.279 -173.2904
8009.039125 101.242 -178.1161
8067.075924 101.116 176.9503
8125.533282 100.897 172.0576
8184.414245 100.588 167.3529
8243.721885 100.194 162.9696
8303.459292 99.724 159.0170
8363.629581 99.191 155.5739
8424.235888 98.608 152.6864
8485.281374 97.992 150.3682
8546.769221 97.358 148.6006
8608.702634 96.719 147.3398
8671.084842 96.088 146.5282
8733.919097 95.472 146.1056
8797.208675 94.877 146.0164
8860.956876 94.308 146.2123
8925.167022 93.767 146.6484
8989.842461 93.256 147.2796
9054.986566 92.775 148.0629
9120.602731 92.324 148.9622
9186.694378 91.901 149.9515
9253.264952 91.503 151.0156
9320.317925 91.131 152.1439
9387.856790 90.782 153.3240
9455.885071 90.457 154.5403
9524.406312 90.154 155.7772
9593.424086 89.872 157.0250
9662.941992 89.610 158.2822
9732.963653 89.366 159.5497
9803.492719 89.140 160.8245
9874.532869 88.933 162.0988
9946.087805 88.743 163.3626
10018.161257 88.568 164.6116
10090.756983 88.406 165.8486
10163.878768 88.256 167.0785
10237.530423 88.119 168.3016
10311.715789 87.993 169.5139
10386.438732 87.877 170.7125
10461.703149 87.771 171.9022
10537.512962 87.673 173.0939
10613.872125 87.582 174.2992
10690.784618 87.501 175.5272
10768.254450 87.428 176.7883
10846.285661 87.364 178.1020
10924.882318 87.313 179.4984
11004.048518 87.278 -178.9889
11083.788390 87.269 -177.3342
11164.106090 87.298 -175.5287
11245.005805 87.380 -173.5893
11326.491752 87.532 -171.5734
11408.568180 87.768 -169.5992
11491.239368 88.095 -167.8518
11574.509626 88.507 -166.5576
11658.383294 88.981 -165.9279
11742.864745 89.486 -166.1053
11827.958384 89.984 -167.1373
11913.668646 90.444 -168.9808
12000.000000 90.837 -171.5250
12086.956947 91.146 -174.6198
12174.544019 91.363 -178.1034
12262.765784 91.486 178.1745
12351.626840 91.517 174.3408
12441.131819 91.461 170.4986
12531.285389 91.324 166.7349
12622.092249 91.112 163.1253
12713.557132 90.833 159.7335
12805.684808 90.496 156.6088
12898.480079 90.109 153.7875
12991.947783 89.681 151.2967
13086.092792 89.221 149.1536
13180.920015 88.739 147.3620
13276.434395 88.243 145.9127
13372.640911 87.742 144.7899
13469.544580 87.240 143.9756
13567.150452 86.743 143.4492
13665.463617 86.256 143.1881
13764.489200 85.782 143.1716
13864.232362 85.323 143.3862
13964.698305 84.883 143.8225
14065.892266 84.466 144.4703
14167.819519 84.077 145.3169
14270.485380 83.722 146.3491
14373.895200 83.408 147.5476
14478.054370 83.143 148.8798
14582.968320 82.936 150.2983
14688.642520 82.795 151.7425
14795.082478 82.730 153.1335
14902.293745 82.746 154.3701
15010.281908 82.850 155.3317
15119.052599 83.039 155.8867
15228.611486 83.308 155.8981
15338.964283 83.643 155.2337
15450.116741 84.021 153.7819
15562.074656 84.413 151.4667
15674.843864 84.783 148.2589
15788.430244 85.093 144.1859
15902.839718 85.306 139.3391
16018.078250 85.392 133.8747
16134.151848 85.326 128.0035
16251.066563 85.095 121.9711
16368.828491 84.696 116.0324
16487.443769 84.138 110.4247
16606.918584 83.436 105.3463
16727.259161 82.614 100.9494
16848.471777 81.695 97.3419
16970.562748 80.708 94.5860
17093.538442 79.681 92.6962
17217.405268 78.644 91.6404
17342.169684 77.625 91.3414
17467.838194 76.647 91.6847
17594.417350 75.727 92.5373
17721.913751 74.875 93.7665
17850.334044 74.094 95.2520
17979.684923 73.381 96.8930
18109.973131 72.728 98.6126
18241.205462 72.130 100.3539
18373.388756 71.576 102.0737
18506.529905 71.060 103.7401
18640.635849 70.571 105.3283
18775.713581 70.102 106.8178
18911.770141 69.644 108.1949
19048.812624 69.190 109.4558
19186.848172 68.732 110.6073
19325.883983 68.273 111.6653
19465.927305 67.820 112.6475
19606.985439 67.398 113.5591
19749.065738 67.037 114.3739
19892.175609 66.775 115.0203
20036.322514 66.637 115.3893
