* Measurement data measured by REW V5.31.3
* Source: EXCL: Microphone (USB Sound Device        ), MICROPHONE (Master Volume), R, volume: 0.390
* Format: 256k Log Swept Sine, 1 sweep at -15.0 dBFS with no timing reference
* Dated: Jun 23, 2025 12:09:36 AM
* REW Settings:
*  C-weighting compensation: Off
*  Target level: 75.0 dB
* Note: Kefine Quatio Black L
* Measurement: Kefine Quatio Black L
* Smoothing: 1/12 octave
* Frequency Step: 96 ppo
* Start Frequency: 0.36621094 Hz
*
* Freq(Hz) SPL(dB) Phase(degrees)
0.366211 93.682 159.4808
0.368865 93.676 159.4593
0.371538 93.667 159.4271
0.374230 93.657 159.3866
0.376942 93.645 159.3400
0.379673 93.632 159.2887
0.382424 93.619 159.2339
0.385196 93.605 159.1760
0.387987 93.591 159.1155
0.390798 93.577 159.0526
0.393630 93.563 158.9873
0.396483 93.549 158.9197
0.399356 93.534 158.8498
0.402250 93.520 158.7775
0.405165 93.505 158.7029
0.408101 93.490 158.6260
0.411058 93.475 158.5467
0.414037 93.460 158.4649
0.417037 93.445 158.3808
0.420059 93.430 158.2942
0.423103 93.415 158.2051
0.426169 93.399 158.1136
0.429257 93.384 158.0195
0.432368 93.368 157.9229
0.435501 93.352 157.8238
0.438656 93.336 157.7220
0.441835 93.320 157.6177
0.445037 93.304 157.5108
0.448262 93.288 157.4012
0.451510 93.272 157.2890
0.454782 93.255 157.1741
0.458077 93.239 157.0565
0.461397 93.222 156.9362
0.464740 93.205 156.8132
0.468108 93.188 156.6874
0.471500 93.171 156.5589
0.474917 93.154 156.4276
0.478358 93.137 156.2935
0.481825 93.119 156.1567
0.485316 93.102 156.0170
0.488833 93.084 155.8745
0.492375 93.066 155.7292
0.495943 93.048 155.5811
0.499537 93.030 155.4301
0.503157 93.012 155.2763
0.506803 92.993 155.1196
0.510475 92.975 154.9601
0.514175 92.956 154.7977
0.517900 92.937 154.6325
0.521653 92.919 154.4644
0.525434 92.900 154.2935
0.529241 92.880 154.1197
0.533076 92.861 153.9431
0.536939 92.842 153.7637
0.540830 92.822 153.5816
0.544749 92.802 153.3966
0.548696 92.782 153.2088
0.552673 92.762 153.0183
0.556677 92.742 152.8251
0.560711 92.722 152.6291
0.564774 92.702 152.4305
0.568867 92.681 152.2293
0.572989 92.660 152.0254
0.577141 92.639 151.8190
0.581324 92.618 151.6101
0.585536 92.597 151.3987
0.589779 92.576 151.1849
0.594053 92.554 150.9687
0.598358 92.532 150.7502
0.602694 92.511 150.5294
0.607061 92.489 150.3065
0.611460 92.466 150.0815
0.615891 92.444 149.8544
0.620354 92.422 149.6254
0.624849 92.399 149.3945
0.629377 92.376 149.1619
0.633938 92.353 148.9277
0.638532 92.330 148.6919
0.643159 92.307 148.4546
0.647819 92.283 148.2160
0.652514 92.260 147.9763
0.657242 92.236 147.7355
0.662005 92.212 147.4938
0.666802 92.188 147.2513
0.671634 92.164 147.0083
0.676501 92.139 146.7648
0.681403 92.114 146.5210
0.686341 92.089 146.2772
0.691314 92.064 146.0335
0.696324 92.039 145.7900
0.701370 92.013 145.5471
0.706452 91.987 145.3047
0.711571 91.961 145.0629
0.716728 91.934 144.8218
0.721921 91.905 144.5811
0.727153 91.875 144.3404
0.732422 91.844 144.0990
0.737729 91.810 143.8560
0.743075 91.774 143.6104
0.748460 91.737 143.3615
0.753883 91.698 143.1084
0.759346 91.658 142.8509
0.764849 91.618 142.5886
0.770391 91.577 142.3213
0.775974 91.535 142.0488
0.781597 91.493 141.7710
0.787261 91.450 141.4879
0.792966 91.407 141.1994
0.798712 91.363 140.9054
0.804500 91.319 140.6059
0.810329 91.274 140.3008
0.816201 91.228 139.9901
0.822116 91.182 139.6738
0.828073 91.135 139.3519
0.834074 91.087 139.0242
0.840118 91.039 138.6908
0.846206 90.990 138.3517
0.852338 90.940 138.0069
0.858514 90.889 137.6563
0.864735 90.837 137.3000
0.871001 90.785 136.9379
0.877313 90.731 136.5702
0.883670 90.677 136.1968
0.890074 90.621 135.8178
0.896524 90.565 135.4333
0.903020 90.507 135.0432
0.909564 90.448 134.6477
0.916155 90.389 134.2470
0.922794 90.327 133.8410
0.929481 90.265 133.4299
0.936216 90.201 133.0140
0.943000 90.136 132.5932
0.949834 90.070 132.1680
0.956717 90.002 131.7383
0.963649 89.933 131.3046
0.970632 89.862 130.8670
0.977666 89.789 130.4258
0.984750 89.715 129.9813
0.991886 89.639 129.5340
0.999074 89.562 129.0842
1.006314 89.482 128.6322
1.013606 89.400 128.1786
1.020951 89.317 127.7238
1.028349 89.231 127.2685
1.035801 89.144 126.8131
1.043307 89.054 126.3582
1.050867 88.962 125.9046
1.058482 88.868 125.4528
1.066152 88.771 125.0035
1.073878 88.672 124.5574
1.081660 88.571 124.1148
1.089498 88.468 123.6760
1.097393 88.362 123.2410
1.105345 88.256 122.8095
1.113355 88.148 122.3809
1.121423 88.038 121.9546
1.129549 87.928 121.5300
1.137734 87.818 121.1066
1.145979 87.706 120.6839
1.154283 87.593 120.2616
1.162647 87.480 119.8391
1.171072 87.365 119.4163
1.179558 87.248 118.9927
1.188106 87.130 118.5679
1.196715 87.011 118.1416
1.205387 86.889 117.7133
1.214122 86.765 117.2826
1.222920 86.638 116.8491
1.231782 86.509 116.4123
1.240708 86.377 115.9717
1.249699 86.242 115.5268
1.258754 86.103 115.0770
1.267876 85.960 114.6217
1.277063 85.813 114.1603
1.286318 85.662 113.6922
1.295639 85.506 113.2165
1.305027 85.345 112.7327
1.314484 85.179 112.2399
1.324009 85.007 111.7372
1.333604 84.830 111.2239
1.343268 84.645 110.6989
1.353002 84.454 110.1614
1.362806 84.256 109.6102
1.372681 84.051 109.0445
1.382628 83.837 108.4629
1.392647 83.615 107.8646
1.402739 83.383 107.2483
1.412904 83.143 106.6130
1.423142 82.891 105.9577
1.433455 82.629 105.2817
1.443843 82.354 104.5844
1.454305 82.064 103.8655
1.464844 81.757 103.1250
1.475459 81.430 102.3631
1.486150 81.081 101.5796
1.496920 80.707 100.7735
1.507767 80.308 99.9434
1.518693 79.882 99.0869
1.529698 79.432 98.2009
1.540783 78.957 97.2813
1.551948 78.459 96.3236
1.563194 77.940 95.3220
1.574521 77.402 94.2701
1.585931 76.848 93.1600
1.597423 76.279 91.9825
1.608999 75.698 90.7263
1.620658 75.108 89.3782
1.632402 74.512 87.9220
1.644232 73.914 86.3381
1.656146 73.316 84.6024
1.668147 72.722 82.6852
1.680235 72.136 80.5495
1.692411 71.562 78.1493
1.704675 71.004 75.4271
1.717028 70.468 72.3109
1.729470 69.958 68.7113
1.742003 69.480 64.5192
1.754626 69.040 59.6066
1.767341 68.643 53.8328
1.780147 68.297 47.0657
1.793047 68.009 39.2227
1.806040 67.783 30.3349
1.819128 67.627 20.6108
1.832310 67.546 10.4493
1.845587 67.541 0.3566
1.858961 67.614 -9.2000
1.872432 67.763 -17.9076
1.886001 67.986 -25.6347
1.899667 68.277 -32.3888
1.913433 68.630 -38.2550
1.927299 69.041 -43.3482
1.941265 69.503 -47.7845
1.955332 70.009 -51.6686
1.969501 70.553 -55.0896
1.983773 71.127 -58.1211
1.998148 71.725 -60.8230
2.012627 72.341 -63.2437
2.027212 72.967 -65.4223
2.041902 73.597 -67.3904
2.056698 74.224 -69.1737
2.071602 74.841 -70.7930
2.086614 75.443 -72.2656
2.101734 76.023 -73.6060
2.116964 76.575 -74.8264
2.132304 77.094 -75.9381
2.147756 77.577 -76.9517
2.163320 78.021 -77.8783
2.178996 78.424 -78.7300
2.194786 78.789 -79.5204
2.210690 79.118 -80.2639
2.226710 79.416 -80.9737
2.242845 79.687 -81.6603
2.259098 79.934 -82.3305
2.275468 80.159 -82.9881
2.291957 80.366 -83.6345
2.308566 80.554 -84.2696
2.325295 80.726 -84.8922
2.342145 80.884 -85.5005
2.359117 81.028 -86.0924
2.376212 81.161 -86.6653
2.393431 81.283 -87.2166
2.410775 81.396 -87.7434
2.428244 81.501 -88.2427
2.445840 81.602 -88.7115
2.463564 81.698 -89.1469
2.481416 81.792 -89.5461
2.499397 81.884 -89.9067
2.517509 81.976 -90.2273
2.535752 82.068 -90.5074
2.554127 82.159 -90.7482
2.572635 82.248 -90.9522
2.591277 82.334 -91.1233
2.610055 82.415 -91.2650
2.628968 82.490 -91.3803
2.648019 82.558 -91.4714
2.667208 82.619 -91.5393
2.686535 82.675 -91.5847
2.706003 82.725 -91.6076
2.725612 82.770 -91.6077
2.745363 82.811 -91.5848
2.765257 82.850 -91.5381
2.785295 82.887 -91.4670
2.805478 82.923 -91.3708
2.825808 82.960 -91.2486
2.846285 82.997 -91.0996
2.866910 83.037 -90.9227
2.887685 83.080 -90.7168
2.908611 83.126 -90.4805
2.929688 83.174 -90.2123
2.950917 83.225 -89.9110
2.972301 83.277 -89.5758
2.993839 83.330 -89.2071
3.015534 83.385 -88.8062
3.037386 83.440 -88.3756
3.059396 83.495 -87.9185
3.081565 83.552 -87.4385
3.103896 83.611 -86.9398
3.126388 83.672 -86.4267
3.149043 83.735 -85.9039
3.171862 83.801 -85.3757
3.194847 83.871 -84.8465
3.217998 83.946 -84.3199
3.241317 84.024 -83.7986
3.264805 84.109 -83.2839
3.288463 84.198 -82.7755
3.312293 84.294 -82.2719
3.336295 84.395 -81.7710
3.360471 84.502 -81.2721
3.384822 84.615 -80.7760
3.409350 84.732 -80.2853
3.434056 84.854 -79.8039
3.458940 84.979 -79.3362
3.484005 85.108 -78.8872
3.509252 85.238 -78.4618
3.534681 85.371 -78.0649
3.560295 85.504 -77.7005
3.586094 85.637 -77.3723
3.612081 85.771 -77.0828
3.638255 85.905 -76.8332
3.664620 86.038 -76.6231
3.691175 86.172 -76.4509
3.717923 86.307 -76.3143
3.744864 86.442 -76.2110
3.772001 86.578 -76.1387
3.799335 86.714 -76.0957
3.826866 86.849 -76.0805
3.854597 86.984 -76.0921
3.882529 87.117 -76.1294
3.910664 87.249 -76.1919
3.939002 87.377 -76.2790
3.967546 87.502 -76.3908
3.996296 87.624 -76.5275
4.025255 87.742 -76.6896
4.054423 87.856 -76.8775
4.083804 87.966 -77.0912
4.113396 88.072 -77.3295
4.143204 88.175 -77.5908
4.173227 88.275 -77.8722
4.203468 88.371 -78.1708
4.233928 88.463 -78.4834
4.264609 88.551 -78.8070
4.295512 88.636 -79.1390
4.326639 88.716 -79.4777
4.357992 88.792 -79.8221
4.389572 88.865 -80.1727
4.421380 88.932 -80.5304
4.453419 88.995 -80.8964
4.485691 89.053 -81.2709
4.518196 89.107 -81.6529
4.550936 89.157 -82.0403
4.583914 89.203 -82.4300
4.617131 89.245 -82.8187
4.650589 89.283 -83.2029
4.684289 89.319 -83.5795
4.718233 89.351 -83.9464
4.752424 89.380 -84.3024
4.786862 89.406 -84.6473
4.821549 89.428 -84.9821
4.856488 89.448 -85.3074
4.891680 89.464 -85.6236
4.927127 89.477 -85.9302
4.962831 89.489 -86.2265
4.998794 89.498 -86.5112
5.035017 89.507 -86.7829
5.071503 89.514 -87.0399
5.108253 89.522 -87.2810
5.145270 89.529 -87.5052
5.182555 89.535 -87.7126
5.220110 89.542 -87.9036
5.257937 89.548 -88.0797
5.296038 89.554 -88.2430
5.334415 89.561 -88.3956
5.373071 89.569 -88.5396
5.412006 89.578 -88.6770
5.451224 89.590 -88.8090
5.490725 89.604 -88.9360
5.530514 89.621 -89.0584
5.570590 89.639 -89.1765
5.610957 89.661 -89.2917
5.651616 89.685 -89.4065
5.692570 89.711 -89.5242
5.733821 89.739 -89.6487
5.775370 89.770 -89.7833
5.817221 89.803 -89.9311
5.859375 89.838 -90.0938
5.901834 89.876 -90.2724
5.944602 89.916 -90.4673
5.987679 89.959 -90.6788
6.031068 90.003 -90.9083
6.074771 90.049 -91.1570
6.118792 90.095 -91.4269
6.163131 90.142 -91.7197
6.207792 90.190 -92.0368
6.252776 90.237 -92.3790
6.298086 90.285 -92.7462
6.343725 90.332 -93.1377
6.389694 90.379 -93.5519
6.435996 90.426 -93.9874
6.482634 90.471 -94.4425
6.529610 90.515 -94.9161
6.576926 90.557 -95.4075
6.624585 90.597 -95.9164
6.672590 90.636 -96.4420
6.720942 90.672 -96.9830
6.769645 90.707 -97.5371
6.818700 90.740 -98.1015
6.868111 90.771 -98.6732
6.917881 90.800 -99.2499
6.968010 90.827 -99.8298
7.018504 90.852 -100.4121
7.069362 90.875 -100.9959
7.120590 90.897 -101.5797
7.172189 90.918 -102.1615
7.224161 90.937 -102.7392
7.276511 90.956 -103.3106
7.329239 90.974 -103.8739
7.382350 90.993 -104.4284
7.435845 91.011 -104.9736
7.489729 91.029 -105.5097
7.544002 91.048 -106.0366
7.598669 91.068 -106.5542
7.653732 91.089 -107.0624
7.709194 91.112 -107.5609
7.765058 91.137 -108.0500
7.821327 91.164 -108.5305
7.878004 91.193 -109.0036
7.935091 91.225 -109.4711
7.992592 91.259 -109.9345
8.050510 91.295 -110.3952
8.108847 91.335 -110.8541
8.167607 91.376 -111.3121
8.226793 91.421 -111.7702
8.286408 91.467 -112.2300
8.346454 91.516 -112.6929
8.406936 91.567 -113.1602
8.467856 91.620 -113.6325
8.529218 91.674 -114.1102
8.591024 91.729 -114.5933
8.653278 91.786 -115.0815
8.715983 91.843 -115.5747
8.779143 91.901 -116.0727
8.842760 91.959 -116.5750
8.906839 92.016 -117.0809
8.971381 92.074 -117.5892
9.036392 92.131 -118.0984
9.101873 92.188 -118.6070
9.167829 92.244 -119.1136
9.234263 92.299 -119.6171
9.301178 92.353 -120.1164
9.368578 92.406 -120.6098
9.436467 92.458 -121.0961
9.504847 92.510 -121.5737
9.573723 92.560 -122.0416
9.643099 92.610 -122.4992
9.712976 92.659 -122.9459
9.783361 92.708 -123.3812
9.854255 92.757 -123.8048
9.925663 92.805 -124.2165
9.997588 92.853 -124.6163
10.070035 92.901 -125.0048
10.143007 92.948 -125.3825
10.216507 92.996 -125.7501
10.290540 93.044 -126.1082
10.365109 93.092 -126.4576
10.440219 93.140 -126.7991
10.515873 93.187 -127.1336
10.592076 93.235 -127.4620
10.668830 93.282 -127.7851
10.746141 93.329 -128.1036
10.824012 93.375 -128.4178
10.902447 93.421 -128.7284
10.981451 93.466 -129.0357
11.061027 93.511 -129.3400
11.141180 93.554 -129.6415
11.221913 93.596 -129.9403
11.303232 93.637 -130.2363
11.385140 93.677 -130.5296
11.467641 93.715 -130.8203
11.550741 93.753 -131.1083
11.634442 93.789 -131.3937
11.718750 93.823 -131.6766
11.803669 93.857 -131.9572
11.889203 93.889 -132.2357
11.975357 93.920 -132.5126
12.062136 93.950 -132.7882
12.149543 93.978 -133.0629
12.237583 94.005 -133.3371
12.326262 94.031 -133.6115
12.415583 94.056 -133.8864
12.505552 94.079 -134.1624
12.596172 94.101 -134.4397
12.687449 94.122 -134.7187
12.779387 94.141 -134.9997
12.871992 94.160 -135.2827
12.965268 94.176 -135.5680
13.059220 94.192 -135.8556
13.153852 94.206 -136.1455
13.249170 94.219 -136.4377
13.345179 94.231 -136.7323
13.441884 94.242 -137.0295
13.539289 94.252 -137.3294
13.637401 94.261 -137.6322
13.736223 94.269 -137.9385
13.835761 94.277 -138.2488
13.936021 94.285 -138.5636
14.037007 94.292 -138.8836
14.138725 94.299 -139.2095
14.241180 94.306 -139.5421
14.344377 94.313 -139.8820
14.448323 94.320 -140.2297
14.553021 94.326 -140.5855
14.658478 94.333 -140.9498
14.764700 94.339 -141.3223
14.871691 94.345 -141.7029
14.979457 94.351 -142.0910
15.088005 94.356 -142.4860
15.197339 94.362 -142.8870
15.307465 94.367 -143.2930
15.418389 94.372 -143.7030
15.530117 94.377 -144.1161
15.642655 94.383 -144.5314
15.756008 94.388 -144.9480
15.870182 94.395 -145.3654
15.985184 94.402 -145.7831
16.101019 94.410 -146.2009
16.217694 94.418 -146.6186
16.335214 94.428 -147.0363
16.453586 94.439 -147.4540
16.572815 94.451 -147.8718
16.692909 94.464 -148.2896
16.813872 94.478 -148.7073
16.935713 94.493 -149.1245
17.058436 94.508 -149.5408
17.182048 94.524 -149.9555
17.306556 94.540 -150.3677
17.431967 94.557 -150.7764
17.558286 94.574 -151.1808
17.685521 94.592 -151.5798
17.813677 94.609 -151.9725
17.942762 94.627 -152.3583
18.072783 94.644 -152.7365
18.203746 94.662 -153.1069
18.335658 94.680 -153.4692
18.468526 94.698 -153.8235
18.602356 94.715 -154.1700
18.737156 94.733 -154.5090
18.872934 94.750 -154.8407
19.009695 94.767 -155.1654
19.147447 94.784 -155.4835
19.286197 94.800 -155.7952
19.425953 94.815 -156.1006
19.566721 94.829 -156.4000
19.708510 94.842 -156.6936
19.851326 94.855 -156.9817
19.995177 94.866 -157.2646
20.140070 94.876 -157.5429
20.286013 94.885 -157.8170
20.433014 94.893 -158.0878
20.581080 94.900 -158.3560
20.730219 94.906 -158.6223
20.880439 94.911 -158.8875
21.031747 94.914 -159.1525
21.184152 94.916 -159.4180
21.337661 94.917 -159.6847
21.492282 94.917 -159.9532
21.648024 94.916 -160.2241
21.804895 94.914 -160.4980
21.962902 94.911 -160.7755
22.122054 94.907 -161.0571
22.282360 94.902 -161.3432
22.443827 94.897 -161.6345
22.606464 94.890 -161.9311
22.770280 94.883 -162.2332
22.935283 94.876 -162.5410
23.101481 94.868 -162.8543
23.268884 94.860 -163.1728
23.437500 94.852 -163.4962
23.607338 94.844 -163.8241
23.778406 94.836 -164.1561
23.950714 94.828 -164.4919
24.124271 94.821 -164.8311
24.299086 94.815 -165.1735
24.475167 94.809 -165.5189
24.652524 94.803 -165.8671
24.831166 94.799 -166.2175
25.011103 94.795 -166.5695
25.192344 94.792 -166.9224
25.374898 94.789 -167.2752
25.558775 94.787 -167.6268
25.743984 94.786 -167.9760
25.930536 94.785 -168.3216
26.118439 94.785 -168.6629
26.307704 94.785 -168.9989
26.498341 94.785 -169.3293
26.690359 94.786 -169.6536
26.883768 94.787 -169.9719
27.078579 94.788 -170.2840
27.274801 94.789 -170.5900
27.472446 94.790 -170.8899
27.671522 94.791 -171.1840
27.872042 94.792 -171.4722
28.074014 94.791 -171.7548
28.277450 94.790 -172.0319
28.482360 94.789 -172.3040
28.688755 94.786 -172.5714
28.896645 94.782 -172.8346
29.106042 94.778 -173.0941
29.316957 94.772 -173.3506
29.529400 94.766 -173.6046
29.743382 94.758 -173.8570
29.958915 94.749 -174.1085
30.176009 94.740 -174.3600
30.394677 94.730 -174.6126
30.614929 94.719 -174.8672
30.836778 94.708 -175.1246
31.060234 94.696 -175.3857
31.285309 94.684 -175.6508
31.512015 94.671 -175.9203
31.740364 94.658 -176.1940
31.970368 94.644 -176.4719
32.202039 94.630 -176.7535
32.435388 94.617 -177.0387
32.670428 94.603 -177.3270
32.907171 94.590 -177.6183
33.145630 94.577 -177.9124
33.385817 94.565 -178.2088
33.627745 94.552 -178.5071
33.871425 94.540 -178.8065
34.116871 94.529 -179.1059
34.364096 94.517 -179.4042
34.613113 94.505 -179.7001
34.863934 94.494 -179.9923
35.116572 94.482 179.7200
35.371041 94.471 179.4374
35.627354 94.460 179.1598
35.885525 94.448 178.8868
36.145566 94.437 178.6177
36.407492 94.426 178.3518
36.671316 94.414 178.0887
36.937051 94.402 177.8282
37.204712 94.388 177.5706
37.474313 94.374 177.3163
37.745867 94.359 177.0657
38.019389 94.343 176.8191
38.294893 94.326 176.5759
38.572394 94.309 176.3355
38.851905 94.291 176.0967
39.133442 94.273 175.8583
39.417019 94.254 175.6195
39.702651 94.236 175.3796
39.990353 94.216 175.1383
40.280140 94.197 174.8957
40.572026 94.177 174.6520
40.866028 94.157 174.4074
41.162160 94.136 174.1626
41.460438 94.116 173.9179
41.760877 94.096 173.6739
42.063494 94.076 173.4308
42.368303 94.057 173.1887
42.675322 94.038 172.9471
42.984565 94.020 172.7056
43.296048 94.001 172.4636
43.609789 93.983 172.2211
43.925804 93.965 171.9786
44.244108 93.947 171.7372
44.564719 93.928 171.4982
44.887654 93.909 171.2623
45.212928 93.890 171.0294
45.540560 93.871 170.7985
45.870565 93.852 170.5681
46.202962 93.832 170.3375
46.537768 93.812 170.1074
46.875000 93.791 169.8798
47.214676 93.769 169.6577
47.556813 93.747 169.4435
47.901429 93.725 169.2379
48.248542 93.704 169.0388
48.598171 93.683 168.8429
48.950334 93.664 168.6465
49.305048 93.645 168.4471
49.662333 93.626 168.2443
50.022206 93.607 168.0396
50.384688 93.587 167.8352
50.749796 93.566 167.6333
51.117550 93.544 167.4353
51.487969 93.522 167.2416
51.861072 93.500 167.0520
52.236879 93.477 166.8651
52.615409 93.454 166.6794
52.996681 93.431 166.4930
53.380717 93.407 166.3055
53.767536 93.383 166.1176
54.157158 93.357 165.9315
54.549603 93.331 165.7498
54.944892 93.305 165.5732
55.343045 93.280 165.4003
55.744084 93.256 165.2274
56.148028 93.233 165.0504
56.554900 93.212 164.8665
56.964720 93.191 164.6748
57.377510 93.170 164.4760
57.793291 93.150 164.2715
58.212085 93.129 164.0629
58.633914 93.107 163.8521
59.058799 93.085 163.6412
59.486764 93.061 163.4328
59.917829 93.037 163.2287
60.352019 93.012 163.0297
60.789354 92.987 162.8356
61.229859 92.960 162.6456
61.673556 92.933 162.4594
62.120468 92.905 162.2769
62.570618 92.877 162.0979
63.024031 92.848 161.9222
63.480729 92.819 161.7491
63.940736 92.790 161.5775
64.404077 92.760 161.4068
64.870776 92.731 161.2365
65.340856 92.701 161.0667
65.814343 92.672 160.8976
66.291261 92.643 160.7296
66.771635 92.613 160.5631
67.255489 92.584 160.3985
67.742850 92.555 160.2363
68.233743 92.525 160.0768
68.728193 92.496 159.9205
69.226226 92.466 159.7674
69.727867 92.436 159.6177
70.233144 92.407 159.4708
70.742083 92.377 159.3262
71.254709 92.347 159.1828
71.771050 92.317 159.0397
72.291132 92.287 158.8967
72.814984 92.257 158.7540
73.342631 92.227 158.6122
73.874102 92.197 158.4717
74.409424 92.167 158.3328
74.948626 92.137 158.1956
75.491734 92.107 158.0604
76.038779 92.078 157.9272
76.589787 92.048 157.7953
77.144788 92.019 157.6638
77.703811 91.990 157.5314
78.266885 91.962 157.3973
78.834039 91.933 157.2608
79.405303 91.904 157.1209
79.980706 91.876 156.9764
80.560280 91.847 156.8265
81.144053 91.817 156.6704
81.732056 91.787 156.5084
82.324320 91.755 156.3414
82.920876 91.722 156.1715
83.521755 91.688 156.0016
84.126988 91.651 155.8354
84.736607 91.613 155.6761
85.350643 91.574 155.5266
85.969129 91.534 155.3882
86.592097 91.493 155.2616
87.219579 91.452 155.1461
87.851608 91.411 155.0402
88.488217 91.371 154.9418
89.129439 91.331 154.8495
89.775308 91.292 154.7620
90.425856 91.254 154.6785
91.081119 91.215 154.5981
91.741131 91.178 154.5200
92.405925 91.140 154.4426
93.075536 91.103 154.3638
93.750000 91.067 154.2822
94.429351 91.030 154.1979
95.113625 90.992 154.1128
95.802858 90.955 154.0292
96.497085 90.917 153.9493
97.196342 90.878 153.8738
97.900667 90.840 153.8024
98.610096 90.802 153.7348
99.324665 90.764 153.6710
100.044413 90.726 153.6116
100.769376 90.687 153.5570
101.499592 90.649 153.5071
102.235100 90.611 153.4610
102.975938 90.573 153.4174
103.722144 90.536 153.3748
104.473757 90.500 153.3314
105.230817 90.464 153.2859
105.993363 90.429 153.2378
106.761435 90.394 153.1867
107.535072 90.359 153.1329
108.314315 90.324 153.0760
109.099206 90.289 153.0157
109.889783 90.254 152.9511
110.686090 90.217 152.8824
111.488167 90.180 152.8102
112.296056 90.142 152.7366
113.109800 90.102 152.6640
113.929440 90.060 152.5963
114.755020 90.016 152.5388
115.586582 89.970 152.4974
116.424170 89.923 152.4769
117.267827 89.876 152.4790
118.117598 89.829 152.5003
118.973527 89.785 152.5325
119.835658 89.743 152.5644
120.704037 89.702 152.5878
121.578708 89.663 152.6006
122.459718 89.625 152.6054
123.347111 89.587 152.6053
124.240935 89.549 152.6031
125.141236 89.512 152.6009
126.048061 89.475 152.5998
126.961458 89.439 152.6003
127.881473 89.403 152.6024
128.808154 89.367 152.6053
129.741551 89.330 152.6085
130.681712 89.294 152.6115
131.628686 89.257 152.6143
132.582521 89.219 152.6169
133.543269 89.182 152.6195
134.510979 89.144 152.6221
135.485701 89.105 152.6256
136.467486 89.066 152.6310
137.456386 89.026 152.6395
138.452451 88.987 152.6523
139.455735 88.947 152.6698
140.466288 88.907 152.6917
141.484165 88.868 152.7174
142.509418 88.828 152.7460
143.542100 88.789 152.7763
144.582265 88.749 152.8073
145.629968 88.709 152.8382
146.685262 88.668 152.8685
147.748204 88.626 152.8986
148.818849 88.584 152.9298
149.897251 88.541 152.9649
150.983469 88.497 153.0075
152.077557 88.454 153.0609
153.179574 88.411 153.1270
154.289576 88.369 153.2059
155.407622 88.328 153.2946
156.533770 88.289 153.3879
157.668078 88.251 153.4797
158.810606 88.215 153.5650
159.961413 88.179 153.6409
161.120559 88.144 153.7075
162.288105 88.109 153.7663
163.464112 88.073 153.8204
164.648640 88.035 153.8733
165.841752 87.997 153.9286
167.043510 87.957 153.9899
168.253976 87.917 154.0601
169.473213 87.875 154.1407
170.701286 87.834 154.2318
171.938258 87.793 154.3313
173.184194 87.754 154.4361
174.439158 87.715 154.5426
175.703216 87.677 154.6483
176.976434 87.639 154.7520
178.258878 87.603 154.8531
179.550615 87.566 154.9522
180.851713 87.529 155.0499
182.162239 87.492 155.1467
183.482262 87.456 155.2427
184.811850 87.419 155.3382
186.151073 87.382 155.4333
187.500000 87.345 155.5285
188.858702 87.308 155.6249
190.227250 87.269 155.7245
191.605715 87.230 155.8299
192.994169 87.191 155.9426
194.392685 87.151 156.0629
195.801334 87.111 156.1901
197.220191 87.070 156.3238
198.649330 87.030 156.4643
200.088825 86.990 156.6122
201.538751 86.950 156.7673
202.999184 86.911 156.9280
204.470200 86.873 157.0908
205.951875 86.837 157.2513
207.444287 86.802 157.4060
208.947514 86.767 157.5538
210.461634 86.731 157.6972
211.986726 86.694 157.8406
213.522869 86.655 157.9894
215.070144 86.615 158.1486
216.628631 86.575 158.3206
218.198411 86.534 158.5051
219.779567 86.495 158.6992
221.372180 86.457 158.8984
222.976334 86.422 159.0994
224.592112 86.388 159.3013
226.219600 86.356 159.5056
227.858880 86.325 159.7140
229.510039 86.294 159.9270
231.173164 86.264 160.1427
232.848340 86.233 160.3581
234.535655 86.203 160.5706
236.235197 86.173 160.7778
237.947054 86.143 160.9758
239.671317 86.113 161.1635
241.408074 86.084 161.3463
243.157416 86.054 161.5344
244.919435 86.024 161.7364
246.694223 85.995 161.9561
248.481871 85.966 162.1917
250.282473 85.937 162.4384
252.096123 85.909 162.6914
253.922915 85.884 162.9476
255.762945 85.861 163.2051
257.616309 85.841 163.4612
259.483103 85.824 163.7095
261.363424 85.808 163.9444
263.257372 85.792 164.1632
265.165043 85.775 164.3669
267.086538 85.755 164.5605
269.021957 85.734 164.7512
270.971401 85.712 164.9453
272.934972 85.689 165.1458
274.912771 85.667 165.3523
276.904902 85.645 165.5627
278.911469 85.624 165.7752
280.932577 85.605 165.9885
282.968330 85.587 166.2010
285.018835 85.571 166.4086
287.084199 85.556 166.6048
289.164530 85.541 166.7833
291.259935 85.525 166.9427
293.370525 85.507 167.0887
295.496408 85.486 167.2310
297.637697 85.463 167.3783
299.794503 85.438 167.5358
301.966937 85.411 167.7058
304.155114 85.383 167.8875
306.359147 85.355 168.0773
308.579152 85.327 168.2704
310.815244 85.299 168.4638
313.067539 85.272 168.6580
315.336156 85.244 168.8565
317.621211 85.217 169.0643
319.922826 85.189 169.2840
322.241118 85.162 169.5157
324.576210 85.136 169.7575
326.928223 85.111 170.0069
329.297280 85.087 170.2612
331.683504 85.064 170.5178
334.087019 85.043 170.7741
336.507952 85.022 171.0281
338.946427 85.001 171.2784
341.402572 84.980 171.5251
343.876516 84.959 171.7703
346.368387 84.937 172.0167
348.878315 84.916 172.2663
351.406431 84.894 172.5200
353.952867 84.873 172.7769
356.517756 84.852 173.0358
359.101230 84.832 173.2963
361.703426 84.812 173.5590
364.324478 84.792 173.8247
366.964523 84.772 174.0941
369.623699 84.753 174.3672
372.302145 84.735 174.6438
375.000000 84.717 174.9236
377.717405 84.699 175.2063
380.454501 84.682 175.4911
383.211431 84.666 175.7774
385.988339 84.650 176.0649
388.785369 84.634 176.3542
391.602668 84.619 176.6456
394.440383 84.604 176.9387
397.298660 84.590 177.2325
400.177650 84.577 177.5258
403.077502 84.564 177.8176
405.998368 84.552 178.1068
408.940400 84.540 178.3930
411.903750 84.527 178.6780
414.888575 84.514 178.9652
417.895028 84.501 179.2589
420.923268 84.488 179.5624
423.973452 84.477 179.8767
427.045738 84.467 -179.7994
430.140287 84.459 -179.4702
433.257261 84.453 -179.1406
436.396822 84.448 -178.8145
439.559133 84.445 -178.4931
442.744360 84.443 -178.1772
445.952668 84.443 -177.8693
449.184225 84.444 -177.5743
452.439199 84.446 -177.2976
455.717760 84.448 -177.0421
459.020079 84.449 -176.8039
462.346327 84.447 -176.5730
465.696680 84.442 -176.3380
469.071310 84.436 -176.0922
472.470394 84.429 -175.8345
475.894109 84.423 -175.5682
479.342634 84.416 -175.2990
482.816148 84.409 -175.0319
486.314833 84.402 -174.7679
489.838871 84.394 -174.5019
493.388445 84.385 -174.2260
496.963741 84.376 -173.9361
500.564945 84.369 -173.6357
504.192245 84.363 -173.3319
507.845830 84.360 -173.0311
511.525890 84.357 -172.7361
515.232618 84.354 -172.4463
518.966206 84.351 -172.1584
522.726849 84.347 -171.8680
526.514743 84.343 -171.5708
530.330086 84.339 -171.2650
534.173076 84.336 -170.9528
538.043915 84.334 -170.6387
541.942803 84.333 -170.3251
545.869944 84.333 -170.0118
549.825542 84.333 -169.6985
553.809805 84.335 -169.3875
557.822939 84.338 -169.0822
561.865154 84.342 -168.7842
565.936660 84.345 -168.4922
570.037671 84.348 -168.2028
574.168399 84.350 -167.9122
578.329060 84.352 -167.6189
582.519870 84.354 -167.3234
586.741049 84.355 -167.0264
590.992817 84.357 -166.7258
595.275394 84.358 -166.4193
599.589005 84.361 -166.1078
603.933874 84.365 -165.7958
608.310228 84.369 -165.4872
612.718295 84.374 -165.1825
617.158304 84.379 -164.8789
621.630488 84.383 -164.5703
626.135079 84.387 -164.2505
630.672311 84.391 -163.9180
635.242423 84.398 -163.5776
639.845651 84.406 -163.2359
644.482237 84.417 -162.8959
649.152421 84.429 -162.5567
653.856447 84.443 -162.2196
658.594560 84.460 -161.8910
663.367008 84.480 -161.5811
668.174039 84.500 -161.2978
673.015903 84.520 -161.0406
677.892854 84.537 -160.8014
682.805145 84.552 -160.5706
687.753032 84.564 -160.3408
692.736774 84.574 -160.1068
697.756631 84.583 -159.8647
702.812863 84.591 -159.6128
707.905735 84.599 -159.3530
713.035511 84.608 -159.0895
718.202461 84.617 -158.8256
723.406852 84.626 -158.5624
728.648956 84.635 -158.2990
733.929047 84.643 -158.0342
739.247399 84.652 -157.7669
744.604290 84.660 -157.4964
750.000000 84.668 -157.2227
755.434809 84.676 -156.9454
760.909001 84.684 -156.6643
766.422861 84.692 -156.3793
771.976677 84.701 -156.0908
777.570739 84.710 -155.7997
783.205337 84.720 -155.5067
788.880766 84.729 -155.2103
794.597321 84.739 -154.9075
800.355301 84.749 -154.5955
806.155005 84.761 -154.2750
811.996736 84.776 -153.9517
817.880799 84.794 -153.6342
823.807501 84.813 -153.3319
829.777150 84.834 -153.0525
835.790057 84.854 -152.7979
841.846536 84.872 -152.5613
847.946903 84.887 -152.3323
854.091476 84.900 -152.1024
860.280575 84.910 -151.8672
866.514523 84.918 -151.6227
872.793644 84.925 -151.3649
879.118267 84.931 -151.0939
885.488720 84.938 -150.8137
891.905336 84.945 -150.5281
898.368450 84.951 -150.2372
904.878398 84.958 -149.9382
911.435520 84.964 -149.6296
918.040157 84.972 -149.3124
924.692655 84.980 -148.9891
931.393359 84.989 -148.6628
938.142619 84.999 -148.3365
944.940787 85.009 -148.0115
951.788218 85.019 -147.6861
958.685268 85.028 -147.3572
965.632296 85.036 -147.0220
972.629666 85.044 -146.6778
979.677741 85.052 -146.3235
986.776890 85.060 -145.9591
993.927482 85.068 -145.5830
1001.129891 85.076 -145.1902
1008.384491 85.086 -144.7760
1015.691660 85.097 -144.3411
1023.051781 85.112 -143.8902
1030.465236 85.131 -143.4310
1037.932411 85.154 -142.9747
1045.453698 85.180 -142.5331
1053.029486 85.208 -142.1113
1060.660172 85.235 -141.7049
1068.346153 85.262 -141.3046
1076.087829 85.287 -140.9007
1083.885605 85.311 -140.4870
1091.739887 85.335 -140.0615
1099.651084 85.360 -139.6237
1107.619609 85.385 -139.1734
1115.645878 85.411 -138.7093
1123.730308 85.439 -138.2302
1131.873321 85.468 -137.7345
1140.075341 85.500 -137.2212
1148.336797 85.534 -136.6894
1156.658119 85.571 -136.1384
1165.039741 85.612 -135.5667
1173.482099 85.658 -134.9729
1181.985634 85.712 -134.3599
1190.550789 85.774 -133.7389
1199.178011 85.846 -133.1296
1207.867749 85.927 -132.5553
1216.620457 86.015 -132.0331
1225.436590 86.108 -131.5687
1234.316609 86.201 -131.1588
1243.260976 86.295 -130.7955
1252.270157 86.388 -130.4696
1261.344623 86.480 -130.1739
1270.484846 86.571 -129.9035
1279.691303 86.661 -129.6536
1288.964474 86.750 -129.4198
1298.304842 86.839 -129.2008
1307.712894 86.928 -128.9985
1317.189120 87.017 -128.8169
1326.734016 87.107 -128.6589
1336.348077 87.195 -128.5245
1346.031806 87.281 -128.4111
1355.785708 87.366 -128.3150
1365.610290 87.449 -128.2322
1375.506065 87.531 -128.1575
1385.473549 87.611 -128.0858
1395.513261 87.691 -128.0152
1405.625726 87.773 -127.9501
1415.811469 87.857 -127.9008
1426.071023 87.942 -127.8802
1436.404921 88.028 -127.8964
1446.813703 88.111 -127.9488
1457.297912 88.191 -128.0306
1467.858093 88.267 -128.1344
1478.494798 88.339 -128.2537
1489.208581 88.407 -128.3834
1500.000000 88.472 -128.5187
1510.869618 88.533 -128.6554
1521.818002 88.590 -128.7894
1532.845723 88.645 -128.9171
1543.953355 88.698 -129.0354
1555.141477 88.750 -129.1428
1566.410674 88.803 -129.2423
1577.761531 88.856 -129.3434
1589.194642 88.911 -129.4591
1600.710601 88.965 -129.5977
1612.310010 89.017 -129.7591
1623.993473 89.066 -129.9375
1635.761599 89.110 -130.1246
1647.615002 89.150 -130.3137
1659.554299 89.186 -130.4990
1671.580114 89.219 -130.6766
1683.693072 89.249 -130.8449
1695.893807 89.277 -131.0050
1708.182952 89.303 -131.1582
1720.561150 89.326 -131.3040
1733.029045 89.346 -131.4391
1745.587288 89.364 -131.5578
1758.236533 89.379 -131.6527
1770.977440 89.393 -131.7176
1783.810673 89.408 -131.7523
1796.736900 89.426 -131.7656
1809.756796 89.447 -131.7714
1822.871040 89.469 -131.7810
1836.080315 89.492 -131.7982
1849.385310 89.515 -131.8214
1862.786718 89.537 -131.8467
1876.285239 89.557 -131.8692
1889.881575 89.576 -131.8833
1903.576436 89.593 -131.8830
1917.370535 89.610 -131.8628
1931.264593 89.627 -131.8192
1945.259332 89.647 -131.7532
1959.355483 89.670 -131.6735
1973.553781 89.697 -131.5939
1987.854965 89.727 -131.5255
2002.259781 89.758 -131.4724
2016.768981 89.789 -131.4326
2031.383320 89.820 -131.4013
2046.103561 89.850 -131.3727
2060.930471 89.878 -131.3423
2075.864823 89.907 -131.3083
2090.907395 89.935 -131.2699
2106.058972 89.961 -131.2250
2121.320344 89.987 -131.1680
2136.692305 90.013 -131.0904
2152.175658 90.039 -130.9839
2167.771210 90.069 -130.8468
2183.479774 90.105 -130.6886
2199.302169 90.147 -130.5269
2215.239219 90.195 -130.3793
2231.291755 90.247 -130.2577
2247.460615 90.302 -130.1657
2263.746641 90.357 -130.0991
2280.150683 90.411 -130.0483
2296.673595 90.464 -130.0017
2313.316238 90.518 -129.9500
2330.079481 90.573 -129.8908
2346.964198 90.633 -129.8314
2363.971268 90.696 -129.7851
2381.101578 90.764 -129.7637
2398.356022 90.834 -129.7737
2415.735498 90.906 -129.8167
2433.240913 90.979 -129.8919
2450.873180 91.052 -129.9980
2468.633217 91.125 -130.1350
2486.521951 91.196 -130.3019
2504.540314 91.266 -130.4944
2522.689246 91.333 -130.7042
2540.969692 91.398 -130.9229
2559.382606 91.464 -131.1481
2577.928947 91.529 -131.3855
2596.609683 91.596 -131.6437
2615.425787 91.663 -131.9292
2634.378241 91.729 -132.2441
2653.468031 91.792 -132.5856
2672.696154 91.853 -132.9471
2692.063613 91.912 -133.3202
2711.571415 91.969 -133.7001
2731.220579 92.027 -134.0901
2751.012130 92.085 -134.4998
2770.947098 92.145 -134.9393
2791.026522 92.204 -135.4155
2811.251451 92.261 -135.9310
2831.622938 92.316 -136.4863
2852.142045 92.367 -137.0810
2872.809842 92.414 -137.7130
2893.627406 92.455 -138.3770
2914.595823 92.490 -139.0638
2935.716186 92.520 -139.7654
2956.989596 92.545 -140.4812
2978.417161 92.567 -141.2174
3000.000000 92.585 -141.9820
3021.739237 92.598 -142.7813
3043.636005 92.604 -143.6164
3065.691446 92.603 -144.4828
3087.906710 92.592 -145.3735
3110.282955 92.572 -146.2838
3132.821347 92.542 -147.2143
3155.523062 92.501 -148.1671
3178.389283 92.447 -149.1405
3201.421202 92.376 -150.1252
3224.620020 92.287 -151.1034
3247.986946 92.176 -152.0486
3271.523198 92.042 -152.9240
3295.230004 91.885 -153.6826
3319.108599 91.707 -154.2734
3343.160228 91.515 -154.6528
3367.386145 91.317 -154.7936
3391.787613 91.122 -154.6887
3416.365904 90.939 -154.3514
3441.122300 90.777 -153.8116
3466.058091 90.641 -153.1121
3491.174576 90.536 -152.3062
3516.473066 90.466 -151.4562
3541.954880 90.427 -150.6257
3567.621345 90.418 -149.8689
3593.473800 90.431 -149.2241
3619.513592 90.459 -148.7117
3645.742080 90.497 -148.3356
3672.160630 90.537 -148.0839
3698.770620 90.575 -147.9330
3725.573436 90.610 -147.8579
3752.570477 90.641 -147.8397
3779.763150 90.668 -147.8667
3807.152872 90.691 -147.9299
3834.741071 90.709 -148.0184
3862.529185 90.722 -148.1179
3890.518664 90.732 -148.2166
3918.710966 90.740 -148.3106
3947.107561 90.749 -148.4036
3975.709929 90.759 -148.5039
4004.519563 90.770 -148.6215
4033.537962 90.781 -148.7648
4062.766641 90.791 -148.9356
4092.207123 90.798 -149.1279
4121.860942 90.802 -149.3342
4151.729646 90.803 -149.5507
4181.814790 90.801 -149.7764
4212.117944 90.795 -150.0087
4242.640687 90.785 -150.2387
4273.384610 90.772 -150.4549
4304.351317 90.756 -150.6503
4335.542421 90.741 -150.8251
4366.959549 90.726 -150.9861
4398.604338 90.714 -151.1445
4430.478438 90.704 -151.3116
4462.583511 90.693 -151.4927
4494.921231 90.683 -151.6870
4527.493283 90.671 -151.8930
4560.301365 90.657 -152.1113
4593.347189 90.641 -152.3420
4626.632476 90.621 -152.5797
4660.158962 90.598 -152.8138
4693.928395 90.571 -153.0340
4727.942535 90.542 -153.2354
4762.203156 90.514 -153.4202
4796.712043 90.486 -153.5964
4831.470996 90.458 -153.7733
4866.481826 90.430 -153.9546
4901.746360 90.400 -154.1396
4937.266434 90.369 -154.3270
4973.043902 90.334 -154.5154
5009.080628 90.296 -154.6992
5045.378492 90.254 -154.8658
5081.939384 90.207 -155.0009
5118.765212 90.159 -155.0944
5155.857894 90.112 -155.1447
5193.219366 90.068 -155.1596
5230.851574 90.029 -155.1515
5268.756481 89.993 -155.1315
5306.936062 89.962 -155.1089
5345.392309 89.935 -155.0937
5384.127225 89.910 -155.0939
5423.142830 89.885 -155.1101
5462.441159 89.860 -155.1354
5502.024259 89.834 -155.1593
5541.894195 89.807 -155.1741
5582.053045 89.781 -155.1779
5622.502902 89.756 -155.1738
5663.245876 89.732 -155.1644
5704.284090 89.710 -155.1526
5745.619684 89.690 -155.1426
5787.254813 89.670 -155.1375
5829.191647 89.650 -155.1344
5871.432373 89.629 -155.1243
5913.979192 89.607 -155.0965
5956.834323 89.586 -155.0444
6000.000000 89.568 -154.9677
6043.478473 89.553 -154.8702
6087.272010 89.544 -154.7578
6131.382892 89.541 -154.6391
6175.813420 89.543 -154.5234
6220.565910 89.551 -154.4166
6265.642695 89.564 -154.3188
6311.046124 89.582 -154.2271
6356.778566 89.606 -154.1404
6402.842404 89.637 -154.0633
6449.240040 89.676 -154.0047
6495.973891 89.725 -153.9778
6543.046396 89.783 -153.9986
6590.460007 89.848 -154.0816
6638.217197 89.920 -154.2358
6686.320456 89.997 -154.4643
6734.772290 90.078 -154.7685
6783.575226 90.162 -155.1524
6832.731809 90.251 -155.6231
6882.244600 90.342 -156.1909
6932.116181 90.435 -156.8693
6982.349153 90.527 -157.6717
7032.946133 90.616 -158.6062
7083.909760 90.697 -159.6738
7135.242690 90.768 -160.8703
7186.947600 90.825 -162.1882
7239.027185 90.865 -163.6172
7291.484160 90.888 -165.1455
7344.321260 90.889 -166.7606
7397.541239 90.866 -168.4464
7451.146872 90.817 -170.1796
7505.140954 90.739 -171.9287
7559.526299 90.633 -173.6582
7614.305743 90.498 -175.3331
7669.482141 90.339 -176.9230
7725.058371 90.158 -178.4084
7781.037328 89.959 -179.7794
7837.421932 89.744 178.9698
7894.215122 89.514 177.8491
7951.419859 89.271 176.8776
8009.039125 89.016 176.0897
8067.075924 88.754 175.5349
8125.533282 88.494 175.2642
8184.414245 88.254 175.2973
8243.721885 88.057 175.5707
8303.459292 87.915 175.9104
8363.629581 87.824 176.1086
8424.235888 87.765 176.0634
8485.281374 87.723 175.7803
8546.769221 87.687 175.2564
8608.702634 87.647 174.4533
8671.084842 87.580 173.3889
8733.919097 87.468 172.1791
8797.208675 87.309 170.9802
8860.956876 87.109 169.9219
8925.167022 86.883 169.0764
8989.842461 86.648 168.4595
9054.986566 86.417 168.0471
9120.602731 86.199 167.7941
9186.694378 86.001 167.6497
9253.264952 85.824 167.5649
9320.317925 85.670 167.4937
9387.856790 85.539 167.3895
9455.885071 85.427 167.2088
9524.406312 85.329 166.9165
9593.424086 85.240 166.4915
9662.941992 85.153 165.9292
9732.963653 85.062 165.2366
9803.492719 84.963 164.4252
9874.532869 84.851 163.5095
9946.087805 84.722 162.5086
10018.161257 84.573 161.4515
10090.756983 84.400 160.3771
10163.878768 84.205 159.3272
10237.530423 83.987 158.3387
10311.715789 83.753 157.4392
10386.438732 83.506 156.6443
10461.703149 83.251 155.9592
10537.512962 82.994 155.3751
10613.872125 82.739 154.8687
10690.784618 82.488 154.4077
10768.254450 82.238 153.9626
10846.285661 81.987 153.5195
10924.882318 81.730 153.0832
11004.048518 81.465 152.6707
11083.788390 81.190 152.3018
11164.106090 80.905 151.9943
11245.005805 80.611 151.7654
11326.491752 80.308 151.6334
11408.568180 79.999 151.6140
11491.239368 79.686 151.7161
11574.509626 79.373 151.9414
11658.383294 79.061 152.2890
11742.864745 78.752 152.7601
11827.958384 78.449 153.3558
11913.668646 78.155 154.0729
12000.000000 77.871 154.9028
12086.956947 77.600 155.8367
12174.544019 77.343 156.8692
12262.765784 77.104 157.9948
12351.626840 76.884 159.2023
12441.131819 76.684 160.4760
12531.285389 76.507 161.8011
12622.092249 76.353 163.1670
12713.557132 76.225 164.5616
12805.684808 76.124 165.9663
12898.480079 76.052 167.3588
12991.947783 76.010 168.7181
13086.092792 76.000 170.0240
13180.920015 76.024 171.2498
13276.434395 76.082 172.3625
13372.640911 76.174 173.3269
13469.544580 76.301 174.1077
13567.150452 76.461 174.6655
13665.463617 76.653 174.9557
13764.489200 76.873 174.9337
13864.232362 77.116 174.5581
13964.698305 77.377 173.7898
14065.892266 77.648 172.5901
14167.819519 77.920 170.9263
14270.485380 78.180 168.7773
14373.895200 78.415 166.1368
14478.054370 78.611 163.0150
14582.968320 78.754 159.4452
14688.642520 78.827 155.4895
14795.082478 78.819 151.2363
14902.293745 78.721 146.7919
15010.281908 78.530 142.2745
15119.052599 78.245 137.8056
15228.611486 77.872 133.4968
15338.964283 77.424 129.4359
15450.116741 76.913 125.6794
15562.074656 76.356 122.2490
15674.843864 75.768 119.1323
15788.430244 75.162 116.2891
15902.839718 74.545 113.6674
16018.078250 73.921 111.2206
16134.151848 73.288 108.9175
16251.066563 72.645 106.7443
16368.828491 71.988 104.7013
16487.443769 71.318 102.7945
16606.918584 70.633 101.0253
16727.259161 69.936 99.3845
16848.471777 69.229 97.8523
16970.562748 68.510 96.3965
17093.538442 67.779 94.9763
17217.405268 67.029 93.5583
17342.169684 66.249 92.1367
17467.838194 65.423 90.7522
17594.417350 64.536 89.5021
17721.913751 63.577 88.5282
17850.334044 62.541 87.9873
17979.684923 61.430 88.0454
18109.973131 60.250 88.9267
18241.205462 59.015 91.0191
18373.388756 57.758 95.0199
18506.529905 56.554 102.0087
18640.635849 55.538 112.9286
18775.713581 54.876 126.6685
18911.770141 54.646 139.1091
19048.812624 54.741 147.0587
19186.848172 54.955 150.6697
19325.883983 55.116 151.4640
19465.927305 55.149 150.7992
19606.985439 55.051 149.5852
19749.065738 54.871 148.3712
19892.175609 54.684 147.4584
20036.322514 54.567 146.9835
