* Measurement data measured by REW V5.31.3
* Source: EXCL: Microphone (USB Sound Device        ), MICROPHONE (Master Volume), R, volume: 0.390
* Format: 256k Log Swept Sine, 1 sweep at -15.0 dBFS with no timing reference
* Dated: Jun 23, 2025 12:06:28 AM
* REW Settings:
*  C-weighting compensation: Off
*  Target level: 75.0 dB
* Note: Kefine Quatio Silver L
* Measurement: Kefine Quatio Silver L
* Smoothing: 1/12 octave
* Frequency Step: 96 ppo
* Start Frequency: 0.36621094 Hz
*
* Freq(Hz) SPL(dB) Phase(degrees)
0.366211 93.624 159.3847
0.368865 93.618 159.3631
0.371538 93.610 159.3307
0.374230 93.599 159.2901
0.376942 93.587 159.2433
0.379673 93.574 159.1918
0.382424 93.561 159.1367
0.385196 93.547 159.0786
0.387987 93.533 159.0179
0.390798 93.519 158.9547
0.393630 93.505 158.8891
0.396483 93.490 158.8212
0.399356 93.476 158.7509
0.402250 93.461 158.6784
0.405165 93.447 158.6035
0.408101 93.432 158.5262
0.411058 93.417 158.4465
0.414037 93.402 158.3644
0.417037 93.387 158.2799
0.420059 93.371 158.1929
0.423103 93.356 158.1034
0.426169 93.340 158.0115
0.429257 93.325 157.9170
0.432368 93.309 157.8199
0.435501 93.293 157.7203
0.438656 93.277 157.6181
0.441835 93.261 157.5133
0.445037 93.245 157.4059
0.448262 93.229 157.2958
0.451510 93.212 157.1831
0.454782 93.196 157.0676
0.458077 93.179 156.9495
0.461397 93.163 156.8286
0.464740 93.146 156.7050
0.468108 93.129 156.5787
0.471500 93.111 156.4496
0.474917 93.094 156.3176
0.478358 93.077 156.1829
0.481825 93.059 156.0454
0.485316 93.042 155.9051
0.488833 93.024 155.7619
0.492375 93.006 155.6159
0.495943 92.988 155.4671
0.499537 92.970 155.3154
0.503157 92.952 155.1608
0.506803 92.933 155.0033
0.510475 92.915 154.8430
0.514175 92.896 154.6799
0.517900 92.877 154.5138
0.521653 92.858 154.3449
0.525434 92.839 154.1732
0.529241 92.820 153.9986
0.533076 92.800 153.8211
0.536939 92.781 153.6409
0.540830 92.761 153.4577
0.544749 92.741 153.2718
0.548696 92.721 153.0831
0.552673 92.701 152.8917
0.556677 92.681 152.6975
0.560711 92.661 152.5006
0.564774 92.640 152.3010
0.568867 92.620 152.0987
0.572989 92.599 151.8938
0.577141 92.578 151.6864
0.581324 92.557 151.4764
0.585536 92.535 151.2639
0.589779 92.514 151.0490
0.594053 92.492 150.8317
0.598358 92.471 150.6121
0.602694 92.449 150.3902
0.607061 92.427 150.1662
0.611460 92.404 149.9400
0.615891 92.382 149.7118
0.620354 92.359 149.4816
0.624849 92.337 149.2496
0.629377 92.314 149.0158
0.633938 92.291 148.7803
0.638532 92.268 148.5433
0.643159 92.244 148.3048
0.647819 92.221 148.0650
0.652514 92.197 147.8241
0.657242 92.173 147.5820
0.662005 92.149 147.3391
0.666802 92.125 147.0954
0.671634 92.100 146.8511
0.676501 92.076 146.6063
0.681403 92.051 146.3613
0.686341 92.026 146.1163
0.691314 92.001 145.8713
0.696324 91.975 145.6266
0.701370 91.950 145.3824
0.706452 91.924 145.1388
0.711571 91.897 144.8958
0.716728 91.870 144.6535
0.721921 91.841 144.4115
0.727153 91.811 144.1696
0.732422 91.780 143.9270
0.737729 91.746 143.6828
0.743075 91.710 143.4359
0.748460 91.672 143.1857
0.753883 91.633 142.9314
0.759346 91.594 142.6726
0.764849 91.553 142.4090
0.770391 91.512 142.1402
0.775974 91.470 141.8663
0.781597 91.428 141.5871
0.787261 91.385 141.3026
0.792966 91.341 141.0125
0.798712 91.297 140.7170
0.804500 91.253 140.4159
0.810329 91.208 140.1092
0.816201 91.162 139.7969
0.822116 91.115 139.4789
0.828073 91.068 139.1552
0.834074 91.020 138.8258
0.840118 90.972 138.4906
0.846206 90.922 138.1496
0.852338 90.872 137.8029
0.858514 90.821 137.4503
0.864735 90.769 137.0920
0.871001 90.717 136.7280
0.877313 90.663 136.3582
0.883670 90.608 135.9826
0.890074 90.553 135.6015
0.896524 90.496 135.2147
0.903020 90.438 134.8224
0.909564 90.379 134.4246
0.916155 90.319 134.0214
0.922794 90.258 133.6131
0.929481 90.195 133.1996
0.936216 90.131 132.7811
0.943000 90.066 132.3578
0.949834 89.999 131.9299
0.956717 89.931 131.4977
0.963649 89.862 131.0612
0.970632 89.790 130.6209
0.977666 89.718 130.1769
0.984750 89.643 129.7297
0.991886 89.567 129.2795
0.999074 89.489 128.8268
1.006314 89.409 128.3719
1.013606 89.327 127.9154
1.020951 89.243 127.4577
1.028349 89.157 126.9994
1.035801 89.069 126.5409
1.043307 88.979 126.0831
1.050867 88.887 125.6264
1.058482 88.792 125.1717
1.066152 88.695 124.7194
1.073878 88.595 124.2702
1.081660 88.494 123.8246
1.089498 88.390 123.3828
1.097393 88.284 122.9449
1.105345 88.177 122.5104
1.113355 88.068 122.0788
1.121423 87.958 121.6495
1.129549 87.847 121.2220
1.137734 87.735 120.7955
1.145979 87.622 120.3698
1.154283 87.509 119.9444
1.162647 87.394 119.5188
1.171072 87.277 119.0929
1.179558 87.160 118.6660
1.188106 87.040 118.2380
1.196715 86.919 117.8083
1.205387 86.795 117.3766
1.214122 86.670 116.9424
1.222920 86.541 116.5053
1.231782 86.410 116.0647
1.240708 86.276 115.6203
1.249699 86.139 115.1714
1.258754 85.999 114.7175
1.267876 85.854 114.2579
1.277063 85.706 113.7921
1.286318 85.553 113.3193
1.295639 85.396 112.8389
1.305027 85.233 112.3500
1.314484 85.066 111.8519
1.324009 84.893 111.3438
1.333604 84.714 110.8246
1.343268 84.528 110.2936
1.353002 84.336 109.7496
1.362806 84.138 109.1917
1.372681 83.931 108.6188
1.382628 83.717 108.0298
1.392647 83.495 107.4235
1.402739 83.264 106.7988
1.412904 83.024 106.1547
1.423142 82.773 105.4901
1.433455 82.512 104.8042
1.443843 82.238 104.0965
1.454305 81.950 103.3666
1.464844 81.645 102.6146
1.475459 81.321 101.8405
1.486150 80.975 101.0440
1.496920 80.604 100.2244
1.507767 80.209 99.3798
1.518693 79.788 98.5079
1.529698 79.343 97.6053
1.540783 78.873 96.6679
1.551948 78.381 95.6908
1.563194 77.869 94.6683
1.574521 77.338 93.5934
1.585931 76.791 92.4579
1.597423 76.229 91.2522
1.608999 75.656 89.9647
1.620658 75.075 88.5812
1.632402 74.488 87.0851
1.644232 73.898 85.4556
1.656146 73.308 83.6676
1.668147 72.723 81.6899
1.680235 72.146 79.4839
1.692411 71.581 77.0014
1.704675 71.033 74.1824
1.717028 70.505 70.9521
1.729470 70.004 67.2184
1.742003 69.534 62.8701
1.754626 69.101 57.7788
1.767341 68.712 51.8091
1.780147 68.372 44.8422
1.793047 68.089 36.8227
1.806040 67.869 27.8217
1.819128 67.717 18.0898
1.832310 67.638 8.0483
1.845587 67.635 -1.8122
1.858961 67.708 -11.0707
1.872432 67.857 -19.4672
1.886001 68.077 -26.9083
1.899667 68.366 -33.4195
1.913433 68.716 -39.0896
1.927299 69.123 -44.0292
1.941265 69.580 -48.3473
1.955332 70.081 -52.1414
1.969501 70.619 -55.4945
1.983773 71.187 -58.4749
1.998148 71.779 -61.1387
2.012627 72.388 -63.5310
2.027212 73.008 -65.6888
2.041902 73.631 -67.6416
2.056698 74.252 -69.4139
2.071602 74.863 -71.0255
2.086614 75.459 -72.4929
2.101734 76.032 -73.8297
2.116964 76.579 -75.0479
2.132304 77.093 -76.1582
2.147756 77.571 -77.1709
2.163320 78.010 -78.0970
2.178996 78.409 -78.9483
2.194786 78.770 -79.7383
2.210690 79.096 -80.4813
2.226710 79.390 -81.1907
2.242845 79.658 -81.8766
2.259098 79.901 -82.5462
2.275468 80.124 -83.2030
2.291957 80.327 -83.8486
2.308566 80.512 -84.4828
2.325295 80.682 -85.1045
2.342145 80.837 -85.7118
2.359117 80.978 -86.3026
2.376212 81.108 -86.8743
2.393431 81.227 -87.4241
2.410775 81.338 -87.9493
2.428244 81.441 -88.4467
2.445840 81.539 -88.9134
2.463564 81.633 -89.3463
2.481416 81.724 -89.7425
2.499397 81.814 -90.0998
2.517509 81.904 -90.4165
2.535752 81.993 -90.6920
2.554127 82.082 -90.9276
2.572635 82.169 -91.1258
2.591277 82.253 -91.2902
2.610055 82.332 -91.4246
2.628968 82.404 -91.5317
2.648019 82.470 -91.6138
2.667208 82.530 -91.6720
2.686535 82.583 -91.7069
2.706003 82.631 -91.7186
2.725612 82.675 -91.7069
2.745363 82.715 -91.6714
2.765257 82.752 -91.6116
2.785295 82.787 -91.5269
2.805478 82.822 -91.4165
2.825808 82.857 -91.2796
2.846285 82.894 -91.1155
2.866910 82.933 -90.9232
2.887685 82.975 -90.7014
2.908611 83.020 -90.4490
2.929688 83.068 -90.1642
2.950917 83.119 -89.8458
2.972301 83.171 -89.4930
2.993839 83.225 -89.1062
3.015534 83.279 -88.6867
3.037386 83.335 -88.2372
3.059396 83.392 -87.7608
3.081565 83.450 -87.2614
3.103896 83.510 -86.7435
3.126388 83.572 -86.2116
3.149043 83.637 -85.6703
3.171862 83.705 -85.1246
3.194847 83.777 -84.5787
3.217998 83.853 -84.0365
3.241317 83.934 -83.5008
3.264805 84.021 -82.9731
3.288463 84.113 -82.4531
3.312293 84.211 -81.9392
3.336295 84.315 -81.4294
3.360471 84.424 -80.9227
3.384822 84.540 -80.4202
3.409350 84.660 -79.9243
3.434056 84.785 -79.4388
3.458940 84.914 -78.9683
3.484005 85.045 -78.5178
3.509252 85.179 -78.0921
3.534681 85.315 -77.6959
3.560295 85.451 -77.3336
3.586094 85.588 -77.0085
3.612081 85.724 -76.7232
3.638255 85.861 -76.4787
3.664620 85.997 -76.2749
3.691175 86.134 -76.1099
3.717923 86.270 -75.9814
3.744864 86.408 -75.8870
3.772001 86.546 -75.8243
3.799335 86.683 -75.7915
3.826866 86.821 -75.7870
3.854597 86.957 -75.8095
3.882529 87.092 -75.8579
3.910664 87.225 -75.9315
3.939002 87.355 -76.0298
3.967546 87.481 -76.1527
3.996296 87.604 -76.3004
4.025255 87.723 -76.4733
4.054423 87.838 -76.6720
4.083804 87.949 -76.8965
4.113396 88.056 -77.1457
4.143204 88.160 -77.4177
4.173227 88.259 -77.7098
4.203468 88.355 -78.0190
4.233928 88.448 -78.3419
4.264609 88.536 -78.6756
4.295512 88.621 -79.0172
4.326639 88.702 -79.3650
4.357992 88.778 -79.7181
4.389572 88.850 -80.0768
4.421380 88.917 -80.4422
4.453419 88.980 -80.8154
4.485691 89.038 -81.1967
4.518196 89.092 -81.5851
4.550936 89.141 -81.9785
4.583914 89.186 -82.3739
4.617131 89.228 -82.7677
4.650589 89.266 -83.1566
4.684289 89.301 -83.5374
4.718233 89.333 -83.9077
4.752424 89.361 -84.2665
4.786862 89.387 -84.6137
4.821549 89.409 -84.9501
4.856488 89.427 -85.2763
4.891680 89.443 -85.5928
4.927127 89.456 -85.8991
4.962831 89.467 -86.1947
4.998794 89.476 -86.4781
5.035017 89.484 -86.7478
5.071503 89.491 -87.0025
5.108253 89.498 -87.2407
5.145270 89.505 -87.4616
5.182555 89.511 -87.6650
5.220110 89.517 -87.8515
5.257937 89.524 -88.0226
5.296038 89.530 -88.1804
5.334415 89.537 -88.3272
5.373071 89.545 -88.4653
5.412006 89.555 -88.5965
5.451224 89.567 -88.7221
5.490725 89.581 -88.8429
5.530514 89.598 -88.9589
5.570590 89.618 -89.0706
5.610957 89.640 -89.1794
5.651616 89.665 -89.2879
5.692570 89.692 -89.3995
5.733821 89.721 -89.5179
5.775370 89.753 -89.6469
5.817221 89.787 -89.7893
5.859375 89.823 -89.9470
5.901834 89.862 -90.1211
5.944602 89.904 -90.3117
5.987679 89.948 -90.5195
6.031068 89.993 -90.7454
6.074771 90.040 -90.9910
6.118792 90.088 -91.2580
6.163131 90.136 -91.5481
6.207792 90.184 -91.8629
6.252776 90.233 -92.2030
6.298086 90.281 -92.5683
6.343725 90.330 -92.9580
6.389694 90.378 -93.3707
6.435996 90.425 -93.8046
6.482634 90.471 -94.2581
6.529610 90.515 -94.7300
6.576926 90.558 -95.2197
6.624585 90.599 -95.7265
6.672590 90.638 -96.2499
6.720942 90.675 -96.7885
6.769645 90.710 -97.3399
6.818700 90.744 -97.9013
6.868111 90.775 -98.4698
6.917881 90.804 -99.0427
6.968010 90.831 -99.6186
7.018504 90.857 -100.1963
7.069362 90.880 -100.7750
7.120590 90.902 -101.3534
7.172189 90.923 -101.9295
7.224161 90.942 -102.5011
7.276511 90.962 -103.0660
7.329239 90.980 -103.6225
7.382350 90.999 -104.1698
7.435845 91.017 -104.7077
7.489729 91.036 -105.2362
7.544002 91.055 -105.7553
7.598669 91.076 -106.2652
7.653732 91.097 -106.7655
7.709194 91.121 -107.2564
7.765058 91.147 -107.7380
7.821327 91.174 -108.2112
7.878004 91.204 -108.6774
7.935091 91.236 -109.1382
7.992592 91.271 -109.5955
8.050510 91.308 -110.0504
8.108847 91.348 -110.5042
8.167607 91.391 -110.9576
8.226793 91.436 -111.4118
8.286408 91.483 -111.8681
8.346454 91.532 -112.3282
8.406936 91.584 -112.7931
8.467856 91.637 -113.2637
8.529218 91.692 -113.7401
8.591024 91.747 -114.2223
8.653278 91.804 -114.7101
8.715983 91.862 -115.2031
8.779143 91.919 -115.7011
8.842760 91.977 -116.2037
8.906839 92.035 -116.7098
8.971381 92.092 -117.2184
9.036392 92.149 -117.7277
9.101873 92.205 -118.2362
9.167829 92.260 -118.7426
9.234263 92.315 -119.2455
9.301178 92.368 -119.7438
9.368578 92.421 -120.2360
9.436467 92.473 -120.7205
9.504847 92.523 -121.1960
9.573723 92.573 -121.6613
9.643099 92.623 -122.1159
9.712976 92.671 -122.5591
9.783361 92.720 -122.9906
9.854255 92.767 -123.4100
9.925663 92.815 -123.8171
9.997588 92.863 -124.2123
10.070035 92.910 -124.5958
10.143007 92.958 -124.9685
10.216507 93.005 -125.3310
10.290540 93.053 -125.6841
10.365109 93.101 -126.0287
10.440219 93.149 -126.3654
10.515873 93.197 -126.6954
10.592076 93.245 -127.0195
10.668830 93.292 -127.3386
10.746141 93.340 -127.6533
10.824012 93.387 -127.9642
10.902447 93.433 -128.2717
10.981451 93.478 -128.5761
11.061027 93.523 -128.8779
11.141180 93.567 -129.1771
11.221913 93.610 -129.4737
11.303232 93.651 -129.7678
11.385140 93.692 -130.0593
11.467641 93.731 -130.3482
11.550741 93.769 -130.6344
11.634442 93.806 -130.9182
11.718750 93.841 -131.1995
11.803669 93.875 -131.4784
11.889203 93.908 -131.7554
11.975357 93.940 -132.0306
12.062136 93.970 -132.3047
12.149543 94.000 -132.5779
12.237583 94.028 -132.8509
12.326262 94.055 -133.1240
12.415583 94.080 -133.3980
12.505552 94.105 -133.6731
12.596172 94.128 -133.9499
12.687449 94.150 -134.2287
12.779387 94.170 -134.5096
12.871992 94.189 -134.7930
12.965268 94.207 -135.0789
13.059220 94.224 -135.3673
13.153852 94.239 -135.6583
13.249170 94.253 -135.9518
13.345179 94.266 -136.2477
13.441884 94.278 -136.5463
13.539289 94.288 -136.8475
13.637401 94.298 -137.1517
13.736223 94.307 -137.4591
13.835761 94.316 -137.7701
13.936021 94.324 -138.0854
14.037007 94.332 -138.4056
14.138725 94.340 -138.7312
14.241180 94.347 -139.0630
14.344377 94.354 -139.4016
14.448323 94.361 -139.7475
14.553021 94.368 -140.1011
14.658478 94.375 -140.4624
14.764700 94.381 -140.8316
14.871691 94.388 -141.2084
14.979457 94.394 -141.5923
15.088005 94.400 -141.9827
15.197339 94.405 -142.3787
15.307465 94.411 -142.7794
15.418389 94.417 -143.1839
15.530117 94.422 -143.5913
15.642655 94.428 -144.0007
15.756008 94.434 -144.4114
15.870182 94.441 -144.8228
15.985184 94.449 -145.2347
16.101019 94.457 -145.6469
16.217694 94.467 -146.0592
16.335214 94.477 -146.4719
16.453586 94.489 -146.8851
16.572815 94.501 -147.2989
16.692909 94.515 -147.7134
16.813872 94.530 -148.1284
16.935713 94.545 -148.5438
17.058436 94.562 -148.9590
17.182048 94.578 -149.3732
17.306556 94.595 -149.7857
17.431967 94.612 -150.1954
17.558286 94.630 -150.6012
17.685521 94.647 -151.0019
17.813677 94.665 -151.3964
17.942762 94.682 -151.7839
18.072783 94.700 -152.1635
18.203746 94.717 -152.5347
18.335658 94.735 -152.8972
18.468526 94.752 -153.2509
18.602356 94.770 -153.5958
18.737156 94.787 -153.9323
18.872934 94.804 -154.2608
19.009695 94.821 -154.5816
19.147447 94.838 -154.8954
19.286197 94.854 -155.2026
19.425953 94.870 -155.5039
19.566721 94.885 -155.7996
19.708510 94.899 -156.0905
19.851326 94.913 -156.3770
19.995177 94.925 -156.6596
20.140070 94.937 -156.9389
20.286013 94.947 -157.2155
20.433014 94.956 -157.4897
20.581080 94.964 -157.7622
20.730219 94.970 -158.0332
20.880439 94.976 -158.3032
21.031747 94.979 -158.5724
21.184152 94.982 -158.8412
21.337661 94.983 -159.1100
21.492282 94.983 -159.3791
21.648024 94.982 -159.6491
21.804895 94.980 -159.9207
21.962902 94.977 -160.1947
22.122054 94.973 -160.4719
22.282360 94.969 -160.7532
22.443827 94.964 -161.0395
22.606464 94.958 -161.3314
22.770280 94.952 -161.6294
22.935283 94.946 -161.9335
23.101481 94.939 -162.2437
23.268884 94.932 -162.5594
23.437500 94.924 -162.8801
23.607338 94.917 -163.2050
23.778406 94.909 -163.5336
23.950714 94.901 -163.8651
24.124271 94.894 -164.1993
24.299086 94.888 -164.5359
24.475167 94.882 -164.8750
24.652524 94.878 -165.2164
24.831166 94.873 -165.5602
25.011103 94.870 -165.9059
25.192344 94.868 -166.2533
25.374898 94.866 -166.6012
25.558775 94.865 -166.9488
25.743984 94.864 -167.2947
25.930536 94.863 -167.6377
26.118439 94.863 -167.9766
26.307704 94.863 -168.3106
26.498341 94.864 -168.6390
26.690359 94.865 -168.9615
26.883768 94.866 -169.2782
27.078579 94.868 -169.5892
27.274801 94.869 -169.8946
27.472446 94.870 -170.1946
27.671522 94.871 -170.4890
27.872042 94.872 -170.7777
28.074014 94.871 -171.0604
28.277450 94.870 -171.3367
28.482360 94.868 -171.6066
28.688755 94.865 -171.8701
28.896645 94.861 -172.1278
29.106042 94.857 -172.3805
29.316957 94.851 -172.6295
29.529400 94.846 -172.8763
29.743382 94.839 -173.1224
29.958915 94.832 -173.3694
30.176009 94.825 -173.6188
30.394677 94.816 -173.8713
30.614929 94.807 -174.1277
30.836778 94.797 -174.3881
31.060234 94.786 -174.6525
31.285309 94.774 -174.9206
31.512015 94.762 -175.1924
31.740364 94.750 -175.4678
31.970368 94.737 -175.7469
32.202039 94.724 -176.0300
32.435388 94.711 -176.3171
32.670428 94.698 -176.6082
32.907171 94.685 -176.9029
33.145630 94.672 -177.2002
33.385817 94.659 -177.4992
33.627745 94.647 -177.7983
33.871425 94.634 -178.0963
34.116871 94.622 -178.3923
34.364096 94.610 -178.6854
34.613113 94.598 -178.9755
34.863934 94.587 -179.2625
35.116572 94.577 -179.5463
35.371041 94.566 -179.8270
35.627354 94.556 179.8958
35.885525 94.545 179.6224
36.145566 94.534 179.3531
36.407492 94.523 179.0885
36.671316 94.511 178.8285
36.937051 94.499 178.5729
37.204712 94.487 178.3214
37.474313 94.474 178.0733
37.745867 94.460 177.8282
38.019389 94.445 177.5859
38.294893 94.430 177.3459
38.572394 94.415 177.1080
38.851905 94.399 176.8717
39.133442 94.382 176.6362
39.417019 94.365 176.4007
39.702651 94.348 176.1642
39.990353 94.330 175.9261
40.280140 94.313 175.6862
40.572026 94.294 175.4447
40.866028 94.276 175.2026
41.162160 94.257 174.9605
41.460438 94.238 174.7191
41.760877 94.220 174.4782
42.063494 94.202 174.2376
42.368303 94.183 173.9966
42.675322 94.165 173.7553
42.984565 94.147 173.5140
43.296048 94.129 173.2740
43.609789 94.110 173.0365
43.925804 94.091 172.8023
44.244108 94.072 172.5715
44.564719 94.053 172.3434
44.887654 94.034 172.1172
45.212928 94.014 171.8921
45.540560 93.995 171.6685
45.870565 93.974 171.4473
46.202962 93.954 171.2295
46.537768 93.933 171.0156
46.875000 93.911 170.8050
47.214676 93.891 170.5966
47.556813 93.870 170.3889
47.901429 93.849 170.1807
48.248542 93.829 169.9719
48.598171 93.808 169.7624
48.950334 93.788 169.5526
49.305048 93.767 169.3430
49.662333 93.746 169.1335
50.022206 93.725 168.9244
50.384688 93.704 168.7161
50.749796 93.682 168.5092
51.117550 93.660 168.3047
51.487969 93.638 168.1034
51.861072 93.615 167.9056
52.236879 93.591 167.7117
52.615409 93.568 167.5211
52.996681 93.544 167.3334
53.380717 93.521 167.1479
53.767536 93.497 166.9635
54.157158 93.474 166.7795
54.549603 93.450 166.5951
54.944892 93.427 166.4099
55.343045 93.404 166.2236
55.744084 93.381 166.0360
56.148028 93.358 165.8470
56.554900 93.335 165.6562
56.964720 93.313 165.4636
57.377510 93.291 165.2689
57.793291 93.269 165.0725
58.212085 93.246 164.8752
58.633914 93.224 164.6780
59.058799 93.200 164.4819
59.486764 93.176 164.2878
59.917829 93.152 164.0964
60.352019 93.126 163.9081
60.789354 93.100 163.7232
61.229859 93.073 163.5417
61.673556 93.046 163.3633
62.120468 93.017 163.1876
62.570618 92.989 163.0142
63.024031 92.960 162.8428
63.480729 92.930 162.6732
63.940736 92.901 162.5052
64.404077 92.872 162.3383
64.870776 92.843 162.1721
65.340856 92.813 162.0068
65.814343 92.785 161.8428
66.291261 92.756 161.6807
66.771635 92.727 161.5213
67.255489 92.698 161.3650
67.742850 92.670 161.2120
68.233743 92.641 161.0624
68.728193 92.612 160.9159
69.226226 92.583 160.7722
69.727867 92.554 160.6308
70.233144 92.525 160.4914
70.742083 92.496 160.3536
71.254709 92.466 160.2166
71.771050 92.437 160.0795
72.291132 92.407 159.9415
72.814984 92.378 159.8022
73.342631 92.348 159.6625
73.874102 92.319 159.5238
74.409424 92.289 159.3871
74.948626 92.259 159.2531
75.491734 92.230 159.1217
76.038779 92.201 158.9925
76.589787 92.173 158.8649
77.144788 92.144 158.7382
77.703811 92.116 158.6111
78.266885 92.089 158.4821
78.834039 92.061 158.3500
79.405303 92.033 158.2143
79.980706 92.004 158.0745
80.560280 91.976 157.9303
81.144053 91.946 157.7809
81.732056 91.916 157.6263
82.324320 91.884 157.4673
82.920876 91.851 157.3062
83.521755 91.816 157.1458
84.126988 91.780 156.9891
84.736607 91.742 156.8391
85.350643 91.702 156.6978
85.969129 91.662 156.5666
86.592097 91.621 156.4453
87.219579 91.580 156.3334
87.851608 91.539 156.2301
88.488217 91.499 156.1354
89.129439 91.458 156.0487
89.775308 91.419 155.9688
90.425856 91.381 155.8933
91.081119 91.343 155.8199
91.741131 91.306 155.7466
92.405925 91.269 155.6727
93.075536 91.232 155.5987
93.750000 91.196 155.5253
94.429351 91.159 155.4526
95.113625 91.122 155.3805
95.802858 91.085 155.3085
96.497085 91.049 155.2367
97.196342 91.012 155.1655
97.900667 90.974 155.0960
98.610096 90.936 155.0296
99.324665 90.898 154.9679
100.044413 90.860 154.9124
100.769376 90.821 154.8638
101.499592 90.783 154.8219
102.235100 90.745 154.7849
102.975938 90.708 154.7504
103.722144 90.671 154.7160
104.473757 90.635 154.6799
105.230817 90.600 154.6408
105.993363 90.565 154.5983
106.761435 90.530 154.5530
107.535072 90.495 154.5057
108.314315 90.460 154.4575
109.099206 90.425 154.4077
109.889783 90.390 154.3551
110.686090 90.354 154.2982
111.488167 90.318 154.2358
112.296056 90.279 154.1669
113.109800 90.239 154.0920
113.929440 90.198 154.0133
114.755020 90.154 153.9348
115.586582 90.108 153.8618
116.424170 90.062 153.7990
117.267827 90.015 153.7509
118.117598 89.968 153.7214
118.973527 89.922 153.7153
119.835658 89.878 153.7365
120.704037 89.835 153.7835
121.578708 89.796 153.8468
122.459718 89.760 153.9135
123.347111 89.725 153.9743
124.240935 89.691 154.0245
125.141236 89.657 154.0632
126.048061 89.621 154.0921
126.961458 89.585 154.1135
127.881473 89.549 154.1297
128.808154 89.513 154.1429
129.741551 89.476 154.1546
130.681712 89.440 154.1653
131.628686 89.404 154.1754
132.582521 89.367 154.1857
133.543269 89.330 154.1971
134.510979 89.293 154.2095
135.485701 89.254 154.2225
136.467486 89.216 154.2365
137.456386 89.176 154.2526
138.452451 89.136 154.2720
139.455735 89.096 154.2950
140.466288 89.055 154.3219
141.484165 89.015 154.3522
142.509418 88.974 154.3853
143.542100 88.933 154.4203
144.582265 88.893 154.4570
145.629968 88.852 154.4955
146.685262 88.811 154.5369
147.748204 88.769 154.5825
148.818849 88.727 154.6341
149.897251 88.685 154.6937
150.983469 88.642 154.7631
152.077557 88.598 154.8440
153.179574 88.556 154.9373
154.289576 88.514 155.0419
155.407622 88.473 155.1544
156.533770 88.435 155.2695
157.668078 88.399 155.3816
158.810606 88.364 155.4866
159.961413 88.330 155.5826
161.120559 88.296 155.6701
162.288105 88.262 155.7505
163.464112 88.228 155.8263
164.648640 88.192 155.9000
165.841752 88.154 155.9750
167.043510 88.115 156.0550
168.253976 88.075 156.1436
169.473213 88.033 156.2437
170.701286 87.992 156.3545
171.938258 87.952 156.4728
173.184194 87.913 156.5941
174.439158 87.876 156.7154
175.703216 87.840 156.8357
176.976434 87.806 156.9552
178.258878 87.772 157.0742
179.550615 87.738 157.1928
180.851713 87.705 157.3113
182.162239 87.672 157.4298
183.482262 87.638 157.5480
184.811850 87.605 157.6653
186.151073 87.571 157.7817
187.500000 87.537 157.8974
188.858702 87.502 158.0128
190.227250 87.467 158.1282
191.605715 87.431 158.2441
192.994169 87.395 158.3617
194.392685 87.358 158.4827
195.801334 87.320 158.6087
197.220191 87.282 158.7417
198.649330 87.244 158.8839
200.088825 87.206 159.0364
201.538751 87.169 159.1991
202.999184 87.134 159.3689
204.470200 87.099 159.5414
205.951875 87.065 159.7117
207.444287 87.033 159.8768
208.947514 87.000 160.0363
210.461634 86.966 160.1923
211.986726 86.932 160.3485
213.522869 86.896 160.5092
215.070144 86.860 160.6791
216.628631 86.824 160.8619
218.198411 86.788 161.0589
219.779567 86.754 161.2676
221.372180 86.723 161.4827
222.976334 86.693 161.6982
224.592112 86.664 161.9101
226.219600 86.636 162.1163
227.858880 86.609 162.3162
229.510039 86.582 162.5097
231.173164 86.554 162.6974
232.848340 86.527 162.8796
234.535655 86.501 163.0568
236.235197 86.474 163.2292
237.947054 86.447 163.3973
239.671317 86.419 163.5621
241.408074 86.390 163.7262
243.157416 86.359 163.8929
244.919435 86.327 164.0655
246.694223 86.293 164.2474
248.481871 86.258 164.4420
250.282473 86.223 164.6529
252.096123 86.189 164.8828
253.922915 86.158 165.1312
255.762945 86.131 165.3929
257.616309 86.106 165.6573
259.483103 86.084 165.9127
261.363424 86.063 166.1520
263.257372 86.042 166.3766
265.165043 86.019 166.5937
267.086538 85.995 166.8123
269.021957 85.970 167.0391
270.971401 85.945 167.2769
272.934972 85.920 167.5244
274.912771 85.895 167.7796
276.904902 85.872 168.0408
278.911469 85.851 168.3070
280.932577 85.832 168.5764
282.968330 85.815 168.8451
285.018835 85.801 169.1063
287.084199 85.788 169.3519
289.164530 85.778 169.5753
291.259935 85.766 169.7751
293.370525 85.753 169.9561
295.496408 85.737 170.1277
297.637697 85.719 170.2989
299.794503 85.697 170.4755
301.966937 85.675 170.6600
304.155114 85.652 170.8521
306.359147 85.629 171.0506
308.579152 85.606 171.2537
310.815244 85.583 171.4589
313.067539 85.559 171.6648
315.336156 85.535 171.8723
317.621211 85.510 172.0853
319.922826 85.485 172.3089
322.241118 85.460 172.5461
324.576210 85.436 172.7964
326.928223 85.413 173.0569
329.297280 85.390 173.3235
331.683504 85.369 173.5925
334.087019 85.349 173.8606
336.507952 85.329 174.1257
338.946427 85.309 174.3873
341.402572 85.289 174.6464
343.876516 85.270 174.9053
346.368387 85.250 175.1667
348.878315 85.230 175.4324
351.406431 85.210 175.7028
353.952867 85.191 175.9777
356.517756 85.171 176.2563
359.101230 85.152 176.5375
361.703426 85.134 176.8209
364.324478 85.117 177.1065
366.964523 85.100 177.3947
369.623699 85.084 177.6858
372.302145 85.068 177.9797
375.000000 85.052 178.2765
377.717405 85.037 178.5759
380.454501 85.023 178.8776
383.211431 85.009 179.1810
385.988339 84.995 179.4855
388.785369 84.982 179.7905
391.602668 84.969 -179.9037
394.440383 84.957 -179.5969
397.298660 84.945 -179.2890
400.177650 84.934 -178.9807
403.077502 84.924 -178.6731
405.998368 84.914 -178.3672
408.940400 84.904 -178.0630
411.903750 84.894 -177.7588
414.888575 84.883 -177.4516
417.895028 84.873 -177.1383
420.923268 84.863 -176.8167
423.973452 84.854 -176.4861
427.045738 84.847 -176.1481
430.140287 84.841 -175.8064
433.257261 84.838 -175.4655
436.396822 84.836 -175.1286
439.559133 84.835 -174.7960
442.744360 84.836 -174.4680
445.952668 84.838 -174.1467
449.184225 84.842 -173.8370
452.439199 84.846 -173.5451
455.717760 84.850 -173.2744
459.020079 84.851 -173.0210
462.346327 84.850 -172.7738
465.696680 84.846 -172.5209
469.071310 84.841 -172.2546
472.470394 84.835 -171.9736
475.894109 84.829 -171.6815
479.342634 84.824 -171.3842
482.816148 84.820 -171.0873
486.314833 84.815 -170.7923
489.838871 84.810 -170.4942
493.388445 84.804 -170.1853
496.963741 84.799 -169.8618
500.564945 84.796 -169.5276
504.192245 84.795 -169.1909
507.845830 84.795 -168.8587
511.525890 84.796 -168.5343
515.232618 84.797 -168.2167
518.966206 84.798 -167.9019
522.726849 84.798 -167.5844
526.514743 84.798 -167.2596
530.330086 84.798 -166.9257
534.173076 84.800 -166.5854
538.043915 84.803 -166.2437
541.942803 84.808 -165.9035
545.869944 84.813 -165.5647
549.825542 84.819 -165.2270
553.809805 84.826 -164.8922
557.822939 84.833 -164.5634
561.865154 84.842 -164.2418
565.936660 84.850 -163.9262
570.037671 84.858 -163.6127
574.168399 84.866 -163.2976
578.329060 84.873 -162.9798
582.519870 84.881 -162.6606
586.741049 84.888 -162.3405
590.992817 84.896 -162.0173
595.275394 84.904 -161.6882
599.589005 84.913 -161.3539
603.933874 84.923 -161.0187
608.310228 84.934 -160.6867
612.718295 84.946 -160.3590
617.158304 84.956 -160.0334
621.630488 84.967 -159.7043
626.135079 84.977 -159.3654
630.672311 84.988 -159.0150
635.242423 85.002 -158.6575
639.845651 85.017 -158.2995
644.482237 85.034 -157.9435
649.152421 85.053 -157.5888
653.856447 85.075 -157.2365
658.594560 85.100 -156.8930
663.367008 85.128 -156.5681
668.174039 85.156 -156.2697
673.015903 85.183 -155.9975
677.892854 85.209 -155.7443
682.805145 85.232 -155.5018
687.753032 85.253 -155.2630
692.736774 85.271 -155.0223
697.756631 85.289 -154.7744
702.812863 85.306 -154.5172
707.905735 85.323 -154.2525
713.035511 85.340 -153.9848
718.202461 85.358 -153.7174
723.406852 85.376 -153.4517
728.648956 85.393 -153.1874
733.929047 85.411 -152.9236
739.247399 85.427 -152.6595
744.604290 85.444 -152.3937
750.000000 85.461 -152.1254
755.434809 85.478 -151.8546
760.909001 85.495 -151.5822
766.422861 85.512 -151.3088
771.976677 85.529 -151.0347
777.570739 85.547 -150.7600
783.205337 85.565 -150.4840
788.880766 85.583 -150.2047
794.597321 85.602 -149.9191
800.355301 85.621 -149.6247
806.155005 85.641 -149.3230
811.996736 85.664 -149.0198
817.880799 85.689 -148.7236
823.807501 85.717 -148.4443
829.777150 85.745 -148.1903
835.790057 85.773 -147.9638
841.846536 85.798 -147.7576
847.946903 85.820 -147.5600
854.091476 85.840 -147.3617
860.280575 85.857 -147.1580
866.514523 85.872 -146.9455
872.793644 85.887 -146.7207
879.118267 85.900 -146.4832
885.488720 85.914 -146.2371
891.905336 85.927 -145.9865
898.368450 85.940 -145.7319
904.878398 85.953 -145.4714
911.435520 85.965 -145.2029
918.040157 85.978 -144.9270
924.692655 85.992 -144.6455
931.393359 86.006 -144.3614
938.142619 86.021 -144.0782
944.940787 86.036 -143.7975
951.788218 86.050 -143.5178
958.685268 86.064 -143.2356
965.632296 86.076 -142.9476
972.629666 86.088 -142.6509
979.677741 86.099 -142.3442
986.776890 86.110 -142.0277
993.927482 86.120 -141.7004
1001.129891 86.130 -141.3582
1008.384491 86.141 -140.9967
1015.691660 86.154 -140.6154
1023.051781 86.169 -140.2174
1030.465236 86.188 -139.8088
1037.932411 86.210 -139.4003
1045.453698 86.235 -139.0038
1053.029486 86.262 -138.6248
1060.660172 86.288 -138.2602
1068.346153 86.313 -137.9009
1076.087829 86.335 -137.5369
1083.885605 86.357 -137.1611
1091.739887 86.378 -136.7712
1099.651084 86.399 -136.3672
1107.619609 86.420 -135.9491
1115.645878 86.442 -135.5159
1123.730308 86.466 -135.0663
1131.873321 86.490 -134.5984
1140.075341 86.516 -134.1104
1148.336797 86.545 -133.6003
1156.658119 86.576 -133.0663
1165.039741 86.611 -132.5069
1173.482099 86.652 -131.9206
1181.985634 86.698 -131.3096
1190.550789 86.754 -130.6839
1199.178011 86.818 -130.0618
1207.867749 86.892 -129.4655
1216.620457 86.973 -128.9121
1225.436590 87.059 -128.4084
1234.316609 87.148 -127.9532
1243.260976 87.238 -127.5408
1252.270157 87.328 -127.1635
1261.344623 87.418 -126.8149
1270.484846 87.508 -126.4907
1279.691303 87.597 -126.1867
1288.964474 87.687 -125.8989
1298.304842 87.776 -125.6256
1307.712894 87.866 -125.3684
1317.189120 87.957 -125.1304
1326.734016 88.047 -124.9145
1336.348077 88.138 -124.7209
1346.031806 88.228 -124.5474
1355.785708 88.317 -124.3910
1365.610290 88.405 -124.2482
1375.506065 88.492 -124.1145
1385.473549 88.580 -123.9849
1395.513261 88.668 -123.8581
1405.625726 88.759 -123.7393
1415.811469 88.852 -123.6398
1426.071023 88.948 -123.5731
1436.404921 89.044 -123.5471
1446.813703 89.138 -123.5606
1457.297912 89.230 -123.6069
1467.858093 89.318 -123.6784
1478.494798 89.402 -123.7692
1489.208581 89.483 -123.8745
1500.000000 89.560 -123.9903
1510.869618 89.634 -124.1126
1521.818002 89.705 -124.2376
1532.845723 89.774 -124.3617
1543.953355 89.841 -124.4819
1555.141477 89.907 -124.5966
1566.410674 89.973 -124.7089
1577.761531 90.041 -124.8287
1589.194642 90.110 -124.9685
1600.710601 90.178 -125.1367
1612.310010 90.243 -125.3327
1623.993473 90.305 -125.5502
1635.761599 90.363 -125.7809
1647.615002 90.416 -126.0177
1659.554299 90.465 -126.2552
1671.580114 90.511 -126.4893
1683.693072 90.553 -126.7188
1695.893807 90.593 -126.9448
1708.182952 90.630 -127.1689
1720.561150 90.664 -127.3900
1733.029045 90.695 -127.6041
1745.587288 90.722 -127.8052
1758.236533 90.746 -127.9856
1770.977440 90.768 -128.1391
1783.810673 90.791 -128.2655
1796.736900 90.816 -128.3733
1809.756796 90.843 -128.4763
1822.871040 90.871 -128.5851
1836.080315 90.900 -128.7036
1849.385310 90.927 -128.8299
1862.786718 90.952 -128.9602
1876.285239 90.975 -129.0890
1889.881575 90.996 -129.2105
1903.576436 91.014 -129.3181
1917.370535 91.031 -129.4061
1931.264593 91.048 -129.4708
1945.259332 91.066 -129.5132
1959.355483 91.087 -129.5420
1973.553781 91.111 -129.5706
1987.854965 91.137 -129.6097
2002.259781 91.164 -129.6624
2016.768981 91.190 -129.7262
2031.383320 91.214 -129.7961
2046.103561 91.237 -129.8664
2060.930471 91.257 -129.9325
2075.864823 91.277 -129.9924
2090.907395 91.294 -130.0450
2106.058972 91.311 -130.0875
2121.320344 91.325 -130.1134
2136.692305 91.338 -130.1130
2152.175658 91.351 -130.0767
2167.771210 91.367 -130.0015
2183.479774 91.389 -129.8970
2199.302169 91.418 -129.7825
2215.239219 91.452 -129.6775
2231.291755 91.491 -129.5943
2247.460615 91.532 -129.5362
2263.746641 91.573 -129.4986
2280.150683 91.613 -129.4720
2296.673595 91.652 -129.4460
2313.316238 91.692 -129.4126
2330.079481 91.733 -129.3700
2346.964198 91.778 -129.3262
2363.971268 91.827 -129.2945
2381.101578 91.880 -129.2863
2398.356022 91.935 -129.3072
2415.735498 91.992 -129.3580
2433.240913 92.048 -129.4364
2450.873180 92.104 -129.5399
2468.633217 92.158 -129.6665
2486.521951 92.211 -129.8138
2504.540314 92.261 -129.9760
2522.689246 92.309 -130.1441
2540.969692 92.356 -130.3098
2559.382606 92.403 -130.4713
2577.928947 92.451 -130.6351
2596.609683 92.501 -130.8110
2615.425787 92.552 -131.0065
2634.378241 92.603 -131.2252
2653.468031 92.653 -131.4659
2672.696154 92.701 -131.7226
2692.063613 92.748 -131.9875
2711.571415 92.794 -132.2558
2731.220579 92.842 -132.5306
2751.012130 92.892 -132.8220
2770.947098 92.943 -133.1407
2791.026522 92.994 -133.4942
2811.251451 93.044 -133.8853
2831.622938 93.092 -134.3139
2852.142045 93.138 -134.7792
2872.809842 93.179 -135.2788
2893.627406 93.215 -135.8069
2914.595823 93.246 -136.3542
2935.716186 93.273 -136.9127
2956.989596 93.296 -137.4818
2978.417161 93.316 -138.0674
3000.000000 93.334 -138.6777
3021.739237 93.347 -139.3189
3043.636005 93.355 -139.9928
3065.691446 93.357 -140.6958
3087.906710 93.350 -141.4218
3110.282955 93.337 -142.1673
3132.821347 93.315 -142.9342
3155.523062 93.284 -143.7264
3178.389283 93.242 -144.5439
3201.421202 93.185 -145.3795
3224.620020 93.110 -146.2176
3247.986946 93.015 -147.0335
3271.523198 92.898 -147.7919
3295.230004 92.759 -148.4464
3319.108599 92.598 -148.9455
3343.160228 92.423 -149.2435
3367.386145 92.240 -149.3101
3391.787613 92.059 -149.1336
3416.365904 91.888 -148.7220
3441.122300 91.735 -148.1000
3466.058091 91.608 -147.3050
3491.174576 91.511 -146.3859
3516.473066 91.447 -145.4023
3541.954880 91.417 -144.4174
3567.621345 91.418 -143.4881
3593.473800 91.443 -142.6575
3619.513592 91.487 -141.9516
3645.742080 91.544 -141.3799
3672.160630 91.606 -140.9346
3698.770620 91.669 -140.5949
3725.573436 91.733 -140.3380
3752.570477 91.794 -140.1468
3779.763150 91.854 -140.0107
3807.152872 91.912 -139.9220
3834.741071 91.967 -139.8703
3862.529185 92.019 -139.8418
3890.518664 92.069 -139.8252
3918.710966 92.120 -139.8170
3947.107561 92.172 -139.8210
3975.709929 92.226 -139.8455
4004.519563 92.283 -139.9005
4033.537962 92.340 -139.9946
4062.766641 92.397 -140.1301
4092.207123 92.453 -140.3017
4121.860942 92.506 -140.5031
4151.729646 92.557 -140.7309
4181.814790 92.606 -140.9849
4212.117944 92.652 -141.2630
4242.640687 92.694 -141.5572
4273.384610 92.733 -141.8569
4304.351317 92.771 -142.1559
4335.542421 92.807 -142.4551
4366.959549 92.845 -142.7614
4398.604338 92.884 -143.0860
4430.478438 92.924 -143.4400
4462.583511 92.962 -143.8280
4494.921231 92.998 -144.2484
4527.493283 93.032 -144.6982
4560.301365 93.061 -145.1762
4593.347189 93.087 -145.6806
4626.632476 93.106 -146.2041
4660.158962 93.119 -146.7340
4693.928395 93.127 -147.2584
4727.942535 93.131 -147.7707
4762.203156 93.132 -148.2719
4796.712043 93.133 -148.7692
4831.470996 93.132 -149.2712
4866.481826 93.129 -149.7820
4901.746360 93.124 -150.3020
4937.266434 93.115 -150.8323
4973.043902 93.103 -151.3741
5009.080628 93.086 -151.9247
5045.378492 93.063 -152.4746
5081.939384 93.033 -153.0107
5118.765212 92.999 -153.5220
5155.857894 92.961 -154.0034
5193.219366 92.921 -154.4566
5230.851574 92.880 -154.8865
5268.756481 92.837 -155.2958
5306.936062 92.794 -155.6860
5345.392309 92.749 -156.0596
5384.127225 92.703 -156.4189
5423.142830 92.654 -156.7601
5462.441159 92.603 -157.0734
5502.024259 92.550 -157.3472
5541.894195 92.497 -157.5734
5582.053045 92.446 -157.7518
5622.502902 92.400 -157.8885
5663.245876 92.359 -157.9920
5704.284090 92.325 -158.0724
5745.619684 92.299 -158.1427
5787.254813 92.279 -158.2159
5829.191647 92.265 -158.2998
5871.432373 92.257 -158.3957
5913.979192 92.253 -158.5024
5956.834323 92.256 -158.6208
6000.000000 92.264 -158.7569
6043.478473 92.279 -158.9191
6087.272010 92.301 -159.1167
6131.382892 92.329 -159.3606
6175.813420 92.362 -159.6620
6220.565910 92.399 -160.0270
6265.642695 92.436 -160.4556
6311.046124 92.475 -160.9433
6356.778566 92.514 -161.4866
6402.842404 92.553 -162.0862
6449.240040 92.594 -162.7463
6495.973891 92.636 -163.4751
6543.046396 92.678 -164.2847
6590.460007 92.720 -165.1870
6638.217197 92.757 -166.1883
6686.320456 92.789 -167.2888
6734.772290 92.813 -168.4845
6783.575226 92.826 -169.7706
6832.731809 92.828 -171.1425
6882.244600 92.818 -172.5952
6932.116181 92.793 -174.1248
6982.349153 92.751 -175.7260
7032.946133 92.691 -177.3890
7083.909760 92.610 -179.0985
7135.242690 92.506 179.1638
7186.947600 92.380 177.4167
7239.027185 92.232 175.6786
7291.484160 92.060 173.9653
7344.321260 91.867 172.2888
7397.541239 91.653 170.6596
7451.146872 91.416 169.0911
7505.140954 91.157 167.6006
7559.526299 90.876 166.2075
7614.305743 90.575 164.9307
7669.482141 90.256 163.7862
7725.058371 89.920 162.7832
7781.037328 89.571 161.9255
7837.421932 89.207 161.2192
7894.215122 88.830 160.6809
7951.419859 88.438 160.3433
8009.039125 88.031 160.2606
8067.075924 87.614 160.5089
8125.533282 87.198 161.1720
8184.414245 86.801 162.3047
8243.721885 86.452 163.8687
8303.459292 86.172 165.6861
8363.629581 85.968 167.5077
8424.235888 85.827 169.1746
8485.281374 85.737 170.6465
8546.769221 85.688 171.8804
8608.702634 85.670 172.7903
8671.084842 85.658 173.3439
8733.919097 85.632 173.6215
8797.208675 85.584 173.7606
8860.956876 85.515 173.8806
8925.167022 85.436 174.0471
8989.842461 85.357 174.2722
9054.986566 85.286 174.5347
9120.602731 85.227 174.7993
9186.694378 85.183 175.0305
9253.264952 85.152 175.1994
9320.317925 85.134 175.2804
9387.856790 85.127 175.2480
9455.885071 85.127 175.0787
9524.406312 85.130 174.7561
9593.424086 85.130 174.2760
9662.941992 85.120 173.6479
9732.963653 85.098 172.8900
9803.492719 85.060 172.0220
9874.532869 85.003 171.0645
9946.087805 84.925 170.0411
10018.161257 84.823 168.9835
10090.756983 84.696 167.9308
10163.878768 84.547 166.9226
10237.530423 84.380 165.9897
10311.715789 84.200 165.1480
10386.438732 84.013 164.3975
10461.703149 83.823 163.7251
10537.512962 83.634 163.1071
10613.872125 83.448 162.5124
10690.784618 83.262 161.9094
10768.254450 83.075 161.2756
10846.285661 82.879 160.6078
10924.882318 82.670 159.9229
11004.048518 82.446 159.2495
11083.788390 82.204 158.6182
11164.106090 81.945 158.0563
11245.005805 81.670 157.5901
11326.491752 81.380 157.2456
11408.568180 81.080 157.0453
11491.239368 80.773 157.0022
11574.509626 80.463 157.1186
11658.383294 80.154 157.3926
11742.864745 79.849 157.8233
11827.958384 79.551 158.4099
11913.668646 79.264 159.1467
12000.000000 78.990 160.0225
12086.956947 78.734 161.0249
12174.544019 78.497 162.1435
12262.765784 78.282 163.3671
12351.626840 78.093 164.6771
12441.131819 77.932 166.0494
12531.285389 77.800 167.4616
12622.092249 77.699 168.8954
12713.557132 77.630 170.3314
12805.684808 77.597 171.7433
12898.480079 77.600 173.0999
12991.947783 77.640 174.3698
13086.092792 77.719 175.5208
13180.920015 77.838 176.5138
13276.434395 77.995 177.3024
13372.640911 78.191 177.8370
13469.544580 78.421 178.0674
13567.150452 78.682 177.9400
13665.463617 78.967 177.3995
13764.489200 79.266 176.3977
13864.232362 79.568 174.9005
13964.698305 79.859 172.8900
14065.892266 80.125 170.3648
14167.819519 80.350 167.3451
14270.485380 80.518 163.8777
14373.895200 80.617 160.0339
14478.054370 80.635 155.9042
14582.968320 80.566 151.5936
14688.642520 80.407 147.2175
14795.082478 80.160 142.8892
14902.293745 79.833 138.7085
15010.281908 79.435 134.7545
15119.052599 78.980 131.0826
15228.611486 78.483 127.7207
15338.964283 77.958 124.6669
15450.116741 77.420 121.8924
15562.074656 76.882 119.3440
15674.843864 76.352 116.9490
15788.430244 75.837 114.6228
15902.839718 75.334 112.2845
16018.078250 74.837 109.8726
16134.151848 74.335 107.3552
16251.066563 73.814 104.7335
16368.828491 73.263 102.0393
16487.443769 72.672 99.3238
16606.918584 72.036 96.6428
16727.259161 71.354 94.0464
16848.471777 70.628 91.5725
16970.562748 69.860 89.2390
17093.538442 69.052 87.0438
17217.405268 68.206 84.9758
17342.169684 67.317 83.0325
17467.838194 66.378 81.2378
17594.417350 65.379 79.6537
17721.913751 64.314 78.3717
17850.334044 63.179 77.4828
17979.684923 61.977 77.0690
18109.973131 60.707 77.2513
18241.205462 59.371 78.2983
18373.388756 57.976 80.7950
18506.529905 56.555 85.8806
18640.635849 55.194 95.3589
18775.713581 54.054 110.4792
18911.770141 53.308 128.0794
19048.812624 53.000 141.6592
19186.848172 52.983 149.2311
19325.883983 53.052 152.6326
19465.927305 53.068 153.8516
19606.985439 52.985 154.1375
19749.065738 52.824 154.1456
19892.175609 52.649 154.1435
20036.322514 52.535 154.1674
