* Measurement data measured by REW V5.30.9
* Source: EXCL: Microphone (USB Sound Device        ), MICROPHONE (Master Volume), L, volume: 0.560
* Format: 256k Log Swept Sine, 1 sweep at -9.0 dBFS with no timing reference
* Dated: Mar 31, 2024 1:06:04 AM
* REW Settings:
*  C-weighting compensation: Off
*  Target level: 75.0 dB
* Note: Kinera Celest Pandamon 2.0 R
* Measurement: R Kinera Celest Pandamon 2
* Smoothing: 1/12 octave
* Frequency Step: 96 ppo
* Start Frequency: 0.36621094 Hz
*
* Freq(Hz) SPL(dB) Phase(degrees)
0.366211 74.903 -160.0315
0.368865 74.908 -160.0368
0.371538 74.915 -160.0447
0.374230 74.924 -160.0546
0.376942 74.934 -160.0661
0.379673 74.945 -160.0787
0.382424 74.956 -160.0923
0.385196 74.968 -160.1066
0.387987 74.980 -160.1215
0.390798 74.992 -160.1371
0.393630 75.004 -160.1533
0.396483 75.016 -160.1701
0.399356 75.029 -160.1874
0.402250 75.041 -160.2053
0.405165 75.054 -160.2237
0.408101 75.066 -160.2428
0.411058 75.079 -160.2623
0.414037 75.092 -160.2824
0.417037 75.105 -160.3031
0.420059 75.118 -160.3243
0.423103 75.131 -160.3460
0.426169 75.144 -160.3683
0.429257 75.157 -160.3911
0.432367 75.171 -160.4144
0.435501 75.184 -160.4382
0.438656 75.198 -160.4625
0.441835 75.212 -160.4874
0.445037 75.225 -160.5127
0.448262 75.239 -160.5385
0.451510 75.253 -160.5648
0.454782 75.267 -160.5915
0.458077 75.282 -160.6187
0.461397 75.296 -160.6464
0.464740 75.310 -160.6745
0.468108 75.325 -160.7030
0.471500 75.339 -160.7319
0.474917 75.354 -160.7613
0.478358 75.369 -160.7910
0.481825 75.384 -160.8212
0.485316 75.399 -160.8516
0.488833 75.414 -160.8825
0.492375 75.429 -160.9137
0.495943 75.445 -160.9451
0.499537 75.460 -160.9770
0.503157 75.476 -161.0091
0.506803 75.491 -161.0414
0.510475 75.507 -161.0741
0.514174 75.523 -161.1070
0.517900 75.539 -161.1401
0.521653 75.555 -161.1734
0.525433 75.572 -161.2069
0.529241 75.588 -161.2406
0.533076 75.604 -161.2744
0.536939 75.621 -161.3083
0.540830 75.638 -161.3424
0.544749 75.655 -161.3765
0.548696 75.672 -161.4107
0.552673 75.689 -161.4449
0.556677 75.706 -161.4792
0.560711 75.723 -161.5134
0.564774 75.741 -161.5476
0.568867 75.759 -161.5817
0.572989 75.776 -161.6158
0.577141 75.794 -161.6497
0.581324 75.812 -161.6835
0.585536 75.830 -161.7171
0.589779 75.849 -161.7505
0.594053 75.867 -161.7837
0.598358 75.886 -161.8167
0.602694 75.904 -161.8493
0.607061 75.923 -161.8816
0.611460 75.942 -161.9136
0.615891 75.961 -161.9451
0.620354 75.980 -161.9762
0.624849 76.000 -162.0069
0.629377 76.019 -162.0370
0.633938 76.039 -162.0667
0.638532 76.059 -162.0957
0.643159 76.078 -162.1241
0.647819 76.098 -162.1519
0.652514 76.119 -162.1789
0.657242 76.139 -162.2052
0.662005 76.160 -162.2307
0.666802 76.180 -162.2554
0.671634 76.201 -162.2792
0.676501 76.222 -162.3021
0.681403 76.243 -162.3241
0.686341 76.264 -162.3451
0.691314 76.286 -162.3652
0.696324 76.307 -162.3845
0.701369 76.328 -162.4034
0.706452 76.349 -162.4223
0.711571 76.370 -162.4422
0.716727 76.390 -162.4645
0.721921 76.409 -162.4914
0.727153 76.426 -162.5259
0.732422 76.441 -162.5707
0.737729 76.452 -162.6278
0.743075 76.462 -162.6971
0.748460 76.469 -162.7771
0.753883 76.475 -162.8660
0.759346 76.480 -162.9625
0.764849 76.485 -163.0653
0.770391 76.489 -163.1737
0.775974 76.493 -163.2873
0.781597 76.497 -163.4057
0.787261 76.500 -163.5288
0.792965 76.504 -163.6564
0.798712 76.507 -163.7884
0.804499 76.510 -163.9247
0.810329 76.512 -164.0653
0.816201 76.514 -164.2101
0.822116 76.516 -164.3589
0.828073 76.517 -164.5118
0.834073 76.518 -164.6686
0.840118 76.518 -164.8293
0.846205 76.518 -164.9937
0.852337 76.517 -165.1618
0.858514 76.515 -165.3335
0.864735 76.512 -165.5086
0.871001 76.509 -165.6870
0.877313 76.504 -165.8688
0.883670 76.499 -166.0536
0.890074 76.492 -166.2415
0.896523 76.484 -166.4322
0.903020 76.475 -166.6257
0.909564 76.465 -166.8219
0.916155 76.453 -167.0205
0.922793 76.440 -167.2214
0.929480 76.426 -167.4246
0.936216 76.409 -167.6298
0.943000 76.391 -167.8369
0.949833 76.371 -168.0457
0.956716 76.349 -168.2561
0.963649 76.325 -168.4678
0.970632 76.299 -168.6808
0.977666 76.271 -168.8947
0.984750 76.240 -169.1095
0.991886 76.207 -169.3248
0.999074 76.171 -169.5406
1.006313 76.132 -169.7565
1.013605 76.090 -169.9723
1.020950 76.046 -170.1879
1.028349 75.998 -170.4029
1.035801 75.947 -170.6171
1.043306 75.893 -170.8303
1.050867 75.835 -171.0424
1.058482 75.773 -171.2531
1.066152 75.707 -171.4625
1.073878 75.637 -171.6709
1.081659 75.562 -171.8787
1.089498 75.481 -172.0871
1.097393 75.396 -172.2977
1.105345 75.303 -172.5125
1.113355 75.204 -172.7337
1.121422 75.098 -172.9634
1.129549 74.984 -173.2029
1.137734 74.861 -173.4535
1.145978 74.731 -173.7157
1.154283 74.594 -173.9901
1.162647 74.449 -174.2768
1.171072 74.296 -174.5760
1.179558 74.137 -174.8878
1.188106 73.971 -175.2124
1.196715 73.799 -175.5497
1.205387 73.621 -175.8997
1.214122 73.437 -176.2624
1.222920 73.249 -176.6378
1.231781 73.055 -177.0258
1.240708 72.858 -177.4263
1.249698 72.656 -177.8393
1.258754 72.451 -178.2645
1.267875 72.244 -178.7018
1.277063 72.034 -179.1508
1.286317 71.823 -179.6114
1.295638 71.611 179.9169
1.305027 71.399 179.4346
1.314484 71.186 178.9423
1.324009 70.975 178.4405
1.333603 70.766 177.9301
1.343267 70.559 177.4121
1.353001 70.355 176.8875
1.362805 70.155 176.3578
1.372681 69.961 175.8244
1.382628 69.772 175.2891
1.392647 69.590 174.7538
1.402739 69.416 174.2210
1.412904 69.251 173.6929
1.423142 69.095 173.1716
1.433455 68.949 172.6590
1.443842 68.813 172.1557
1.454305 68.688 171.6602
1.464843 68.572 171.1686
1.475458 68.464 170.6738
1.486150 68.364 170.1666
1.496919 68.270 169.6367
1.507766 68.181 169.0733
1.518692 68.097 168.4645
1.529697 68.018 167.7965
1.540782 67.944 167.0515
1.551947 67.875 166.2050
1.563193 67.811 165.2213
1.574521 67.753 164.0450
1.585931 67.701 162.5844
1.597423 67.656 160.6755
1.608998 67.618 157.9940
1.620658 67.587 153.8017
1.632402 67.565 146.0251
1.644231 67.551 126.7458
1.656146 67.546 69.8160
1.668147 67.552 22.5945
1.680235 67.567 7.2414
1.692410 67.594 0.5060
1.704674 67.632 -3.3524
1.717027 67.683 -5.9514
1.729469 67.747 -7.8989
1.742002 67.825 -9.4714
1.754625 67.918 -10.8121
1.767340 68.026 -12.0026
1.780147 68.152 -13.0920
1.793046 68.297 -14.1117
1.806040 68.461 -15.0815
1.819127 68.648 -16.0139
1.832309 68.861 -16.9161
1.845587 69.100 -17.7916
1.858961 69.367 -18.6420
1.872431 69.664 -19.4680
1.886000 69.990 -20.2704
1.899666 70.343 -21.0504
1.913432 70.721 -21.8092
1.927298 71.124 -22.5483
1.941264 71.547 -23.2695
1.955331 71.989 -23.9741
1.969500 72.447 -24.6640
1.983772 72.918 -25.3406
1.998147 73.398 -26.0055
2.012626 73.886 -26.6602
2.027211 74.377 -27.3062
2.041901 74.869 -27.9448
2.056697 75.358 -28.5775
2.071601 75.842 -29.2057
2.086613 76.316 -29.8307
2.101733 76.779 -30.4541
2.116963 77.226 -31.0771
2.132303 77.656 -31.7014
2.147755 78.065 -32.3285
2.163318 78.453 -32.9601
2.178995 78.819 -33.5981
2.194785 79.162 -34.2440
2.210689 79.485 -34.8994
2.226709 79.789 -35.5648
2.242844 80.077 -36.2401
2.259097 80.349 -36.9243
2.275467 80.608 -37.6160
2.291956 80.854 -38.3134
2.308565 81.088 -39.0149
2.325294 81.311 -39.7185
2.342144 81.525 -40.4229
2.359116 81.729 -41.1263
2.376211 81.925 -41.8277
2.393430 82.115 -42.5259
2.410774 82.298 -43.2201
2.428243 82.476 -43.9094
2.445839 82.650 -44.5934
2.463562 82.822 -45.2718
2.481415 82.991 -45.9446
2.499396 83.159 -46.6124
2.517508 83.326 -47.2761
2.535750 83.493 -47.9373
2.554126 83.659 -48.5986
2.572634 83.824 -49.2626
2.591276 83.986 -49.9321
2.610054 84.145 -50.6091
2.628967 84.300 -51.2944
2.648018 84.450 -51.9874
2.667206 84.595 -52.6871
2.686534 84.736 -53.3917
2.706002 84.872 -54.0993
2.725610 85.004 -54.8077
2.745361 85.133 -55.5148
2.765255 85.257 -56.2184
2.785294 85.378 -56.9165
2.805477 85.496 -57.6074
2.825807 85.611 -58.2894
2.846284 85.724 -58.9613
2.866909 85.835 -59.6225
2.887684 85.943 -60.2731
2.908609 86.050 -60.9141
2.929686 86.154 -61.5479
2.950916 86.255 -62.1771
2.972299 86.353 -62.8046
2.993838 86.447 -63.4323
3.015532 86.538 -64.0610
3.037384 86.626 -64.6906
3.059394 86.710 -65.3201
3.081564 86.791 -65.9480
3.103894 86.868 -66.5724
3.126386 86.943 -67.1913
3.149041 87.016 -67.8025
3.171861 87.086 -68.4039
3.194845 87.154 -68.9934
3.217996 87.220 -69.5693
3.241315 87.284 -70.1305
3.264803 87.347 -70.6763
3.288461 87.408 -71.2072
3.312291 87.467 -71.7244
3.336293 87.523 -72.2299
3.360469 87.577 -72.7252
3.384820 87.628 -73.2117
3.409348 87.677 -73.6895
3.434054 87.723 -74.1586
3.458938 87.768 -74.6185
3.484003 87.811 -75.0685
3.509250 87.852 -75.5072
3.534679 87.892 -75.9333
3.560293 87.932 -76.3456
3.586092 87.971 -76.7427
3.612079 88.010 -77.1233
3.638253 88.049 -77.4863
3.664618 88.087 -77.8312
3.691173 88.125 -78.1578
3.717921 88.163 -78.4666
3.744862 88.200 -78.7584
3.771999 88.236 -79.0342
3.799332 88.272 -79.2953
3.826864 88.308 -79.5430
3.854595 88.344 -79.7786
3.882527 88.381 -80.0031
3.910661 88.418 -80.2178
3.938999 88.457 -80.4232
3.967543 88.497 -80.6199
3.996294 88.539 -80.8076
4.025252 88.583 -80.9858
4.054421 88.628 -81.1539
4.083801 88.676 -81.3110
4.113394 88.725 -81.4576
4.143201 88.776 -81.5947
4.173225 88.829 -81.7244
4.203466 88.883 -81.8489
4.233926 88.939 -81.9714
4.264606 88.997 -82.0945
4.295509 89.056 -82.2209
4.326636 89.118 -82.3530
4.357989 89.181 -82.4918
4.389569 89.246 -82.6381
4.421378 89.314 -82.7914
4.453417 89.384 -82.9510
4.485688 89.455 -83.1169
4.518193 89.529 -83.2892
4.550934 89.604 -83.4690
4.583912 89.681 -83.6580
4.617129 89.759 -83.8578
4.650587 89.837 -84.0706
4.684287 89.916 -84.2979
4.718231 89.995 -84.5411
4.752421 90.075 -84.8014
4.786859 90.154 -85.0787
4.821547 90.234 -85.3727
4.856485 90.313 -85.6827
4.891677 90.393 -86.0078
4.927125 90.473 -86.3469
4.962829 90.552 -86.6995
4.998791 90.630 -87.0648
5.035015 90.707 -87.4426
5.071500 90.783 -87.8328
5.108251 90.857 -88.2356
5.145267 90.929 -88.6515
5.182552 91.000 -89.0806
5.220107 91.069 -89.5223
5.257934 91.136 -89.9756
5.296035 91.201 -90.4384
5.334412 91.264 -90.9087
5.373067 91.326 -91.3843
5.412003 91.385 -91.8633
5.451221 91.442 -92.3445
5.490722 91.497 -92.8273
5.530510 91.550 -93.3118
5.570587 91.600 -93.7980
5.610953 91.649 -94.2857
5.651613 91.695 -94.7736
5.692567 91.739 -95.2600
5.733818 91.782 -95.7429
5.775367 91.823 -96.2202
5.817218 91.862 -96.6903
5.859372 91.901 -97.1522
5.901831 91.937 -97.6055
5.944598 91.973 -98.0504
5.987675 92.008 -98.4871
6.031065 92.041 -98.9153
6.074768 92.074 -99.3351
6.118788 92.107 -99.7456
6.163127 92.140 -100.1464
6.207788 92.173 -100.5369
6.252772 92.207 -100.9167
6.298082 92.241 -101.2860
6.343721 92.276 -101.6456
6.389690 92.312 -101.9964
6.435992 92.348 -102.3400
6.482630 92.386 -102.6776
6.529606 92.425 -103.0106
6.576922 92.466 -103.3397
6.624581 92.508 -103.6656
6.672585 92.552 -103.9886
6.720938 92.598 -104.3099
6.769640 92.645 -104.6307
6.818696 92.694 -104.9529
6.868107 92.745 -105.2782
6.917876 92.796 -105.6084
6.968006 92.849 -105.9445
7.018499 92.904 -106.2870
7.069358 92.959 -106.6364
7.120586 93.016 -106.9927
7.172184 93.073 -107.3566
7.224157 93.131 -107.7285
7.276506 93.189 -108.1090
7.329235 93.247 -108.4985
7.382345 93.305 -108.8970
7.435841 93.363 -109.3041
7.489724 93.420 -109.7189
7.543997 93.476 -110.1404
7.598664 93.532 -110.5674
7.653728 93.587 -110.9990
7.709189 93.641 -111.4344
7.765053 93.693 -111.8732
7.821322 93.745 -112.3142
7.877998 93.795 -112.7560
7.935086 93.844 -113.1971
7.992587 93.891 -113.6359
8.050504 93.938 -114.0709
8.108841 93.983 -114.5013
8.167601 94.027 -114.9265
8.226787 94.071 -115.3457
8.286402 94.113 -115.7581
8.346449 94.155 -116.1628
8.406931 94.197 -116.5591
8.467851 94.238 -116.9464
8.529212 94.280 -117.3249
8.591018 94.321 -117.6946
8.653272 94.362 -118.0560
8.715977 94.404 -118.4097
8.779137 94.446 -118.7559
8.842754 94.488 -119.0950
8.906833 94.531 -119.4279
8.971375 94.575 -119.7553
9.036386 94.620 -120.0784
9.101867 94.665 -120.3982
9.167823 94.711 -120.7156
9.234257 94.757 -121.0314
9.301172 94.804 -121.3462
9.368572 94.851 -121.6606
9.436460 94.898 -121.9753
9.504841 94.946 -122.2909
9.573717 94.993 -122.6075
9.643092 95.040 -122.9253
9.712970 95.087 -123.2441
9.783354 95.133 -123.5637
9.854248 95.178 -123.8837
9.925656 95.223 -124.2036
9.997581 95.267 -124.5231
10.070028 95.310 -124.8415
10.143000 95.352 -125.1581
10.216500 95.393 -125.4722
10.290533 95.433 -125.7831
10.365103 95.472 -126.0903
10.440212 95.510 -126.3934
10.515866 95.547 -126.6920
10.592069 95.584 -126.9859
10.668823 95.620 -127.2748
10.746134 95.655 -127.5587
10.824005 95.689 -127.8379
10.902440 95.724 -128.1127
10.981443 95.758 -128.3834
11.061020 95.791 -128.6505
11.141172 95.824 -128.9146
11.221906 95.857 -129.1761
11.303225 95.890 -129.4358
11.385133 95.922 -129.6942
11.467634 95.953 -129.9517
11.550734 95.985 -130.2089
11.634435 96.015 -130.4659
11.718742 96.045 -130.7231
11.803661 96.075 -130.9806
11.889195 96.103 -131.2384
11.975349 96.131 -131.4965
12.062128 96.158 -131.7545
12.149535 96.184 -132.0125
12.237576 96.209 -132.2701
12.326254 96.233 -132.5273
12.415575 96.257 -132.7838
12.505544 96.280 -133.0394
12.596164 96.302 -133.2943
12.687441 96.323 -133.5483
12.779379 96.344 -133.8020
12.871984 96.364 -134.0553
12.965260 96.384 -134.3086
13.059211 96.404 -134.5624
13.153843 96.423 -134.8173
13.249161 96.442 -135.0734
13.345170 96.460 -135.3314
13.441875 96.478 -135.5916
13.539280 96.496 -135.8542
13.637391 96.513 -136.1195
13.736214 96.530 -136.3876
13.835752 96.546 -136.6581
13.936011 96.561 -136.9312
14.036998 96.576 -137.2063
14.138716 96.591 -137.4833
14.241171 96.605 -137.7617
14.344368 96.618 -138.0413
14.448313 96.631 -138.3215
14.553011 96.644 -138.6023
14.658468 96.657 -138.8835
14.764689 96.670 -139.1650
14.871680 96.682 -139.4470
14.979446 96.695 -139.7297
15.087994 96.708 -140.0133
15.197328 96.721 -140.2983
15.307454 96.734 -140.5848
15.418378 96.748 -140.8733
15.530106 96.762 -141.1639
15.642643 96.776 -141.4568
15.755996 96.790 -141.7517
15.870171 96.804 -142.0486
15.985172 96.818 -142.3470
16.101007 96.832 -142.6465
16.217682 96.846 -142.9464
16.335201 96.860 -143.2461
16.453573 96.873 -143.5448
16.572803 96.887 -143.8419
16.692898 96.901 -144.1371
16.813862 96.915 -144.4298
16.935701 96.929 -144.7198
17.058424 96.944 -145.0072
17.182035 96.959 -145.2919
17.306543 96.974 -145.5739
17.431953 96.989 -145.8535
17.558273 97.005 -146.1310
17.685509 97.020 -146.4064
17.813665 97.036 -146.6798
17.942751 97.053 -146.9512
18.072771 97.069 -147.2205
18.203733 97.085 -147.4873
18.335646 97.101 -147.7515
18.468513 97.116 -148.0126
18.602345 97.132 -148.2705
18.737144 97.147 -148.5248
18.872921 97.162 -148.7756
19.009682 97.177 -149.0227
19.147434 97.191 -149.2662
19.286184 97.205 -149.5065
19.425940 97.219 -149.7435
19.566708 97.233 -149.9776
19.708496 97.246 -150.2090
19.851313 97.258 -150.4380
19.995163 97.271 -150.6644
20.140057 97.282 -150.8885
20.285999 97.293 -151.1102
20.433001 97.304 -151.3295
20.581066 97.314 -151.5464
20.730206 97.323 -151.7612
20.880424 97.332 -151.9741
21.031733 97.341 -152.1855
21.184137 97.349 -152.3960
21.337646 97.357 -152.6061
21.492268 97.364 -152.8165
21.648010 97.371 -153.0277
21.804880 97.378 -153.2404
21.962887 97.384 -153.4545
22.122040 97.390 -153.6705
22.282345 97.395 -153.8882
22.443811 97.399 -154.1074
22.606449 97.403 -154.3279
22.770266 97.407 -154.5496
22.935268 97.410 -154.7720
23.101467 97.413 -154.9951
23.268869 97.416 -155.2190
23.437485 97.419 -155.4437
23.607323 97.422 -155.6694
23.778391 97.424 -155.8962
23.950699 97.427 -156.1244
24.124256 97.430 -156.3538
24.299070 97.433 -156.5845
24.475151 97.436 -156.8161
24.652508 97.440 -157.0484
24.831150 97.443 -157.2811
25.011087 97.446 -157.5137
25.192327 97.450 -157.7460
25.374882 97.454 -157.9775
25.558758 97.458 -158.2083
25.743967 97.463 -158.4380
25.930519 97.467 -158.6666
26.118422 97.472 -158.8937
26.307686 97.477 -159.1193
26.498322 97.482 -159.3431
26.690340 97.487 -159.5648
26.883749 97.493 -159.7842
27.078560 97.498 -160.0010
27.274782 97.503 -160.2151
27.472427 97.508 -160.4262
27.671503 97.513 -160.6344
27.872023 97.518 -160.8396
28.073996 97.522 -161.0419
28.277431 97.527 -161.2413
28.482342 97.531 -161.4382
28.688736 97.535 -161.6328
28.896626 97.539 -161.8254
29.106022 97.542 -162.0164
29.316936 97.545 -162.2062
29.529379 97.548 -162.3950
29.743361 97.550 -162.5831
29.958893 97.552 -162.7708
30.175987 97.554 -162.9581
30.394655 97.555 -163.1453
30.614908 97.555 -163.3323
30.836756 97.556 -163.5193
31.060211 97.556 -163.7068
31.285286 97.556 -163.8949
31.511992 97.555 -164.0841
31.740341 97.555 -164.2748
31.970345 97.555 -164.4673
32.202015 97.554 -164.6616
32.435364 97.554 -164.8579
32.670403 97.553 -165.0560
32.907146 97.552 -165.2557
33.145607 97.551 -165.4567
33.385796 97.551 -165.6587
33.627724 97.550 -165.8615
33.871403 97.549 -166.0646
34.116848 97.548 -166.2677
34.364071 97.547 -166.4705
34.613087 97.546 -166.6725
34.863907 97.545 -166.8733
35.116547 97.544 -167.0726
35.371017 97.543 -167.2700
35.627331 97.542 -167.4653
35.885502 97.541 -167.6584
36.145542 97.540 -167.8490
36.407467 97.539 -168.0372
36.671291 97.538 -168.2228
36.937027 97.536 -168.4061
37.204689 97.534 -168.5874
37.474289 97.533 -168.7669
37.745842 97.531 -168.9451
38.019363 97.529 -169.1222
38.294868 97.526 -169.2986
38.572369 97.524 -169.4745
38.851879 97.521 -169.6499
39.133415 97.517 -169.8249
39.416992 97.514 -169.9996
39.702625 97.510 -170.1740
39.990326 97.506 -170.3481
40.280113 97.502 -170.5221
40.571999 97.497 -170.6960
40.866001 97.493 -170.8699
41.162132 97.488 -171.0439
41.460411 97.484 -171.2179
41.760849 97.479 -171.3920
42.063465 97.475 -171.5660
42.368275 97.471 -171.7401
42.675293 97.466 -171.9139
42.984535 97.462 -172.0875
43.296021 97.457 -172.2606
43.609760 97.453 -172.4329
43.925774 97.449 -172.6041
44.244080 97.444 -172.7737
44.564690 97.439 -172.9416
44.887623 97.435 -173.1075
45.212898 97.430 -173.2714
45.540531 97.425 -173.4335
45.870537 97.420 -173.5941
46.202934 97.415 -173.7532
46.537739 97.411 -173.9116
46.874969 97.406 -174.0695
47.214645 97.401 -174.2277
47.556782 97.396 -174.3867
47.901398 97.391 -174.5468
48.248512 97.385 -174.7077
48.598141 97.380 -174.8690
48.950302 97.373 -175.0300
49.305016 97.367 -175.1900
49.662300 97.360 -175.3488
50.022175 97.354 -175.5063
50.384655 97.347 -175.6628
50.749763 97.340 -175.8184
51.117516 97.333 -175.9728
51.487934 97.326 -176.1260
51.861038 97.318 -176.2775
52.236843 97.311 -176.4274
52.615372 97.304 -176.5757
52.996643 97.297 -176.7228
53.380680 97.291 -176.8690
53.767498 97.284 -177.0145
54.157120 97.278 -177.1592
54.549564 97.272 -177.3035
54.944855 97.266 -177.4479
55.343006 97.260 -177.5928
55.744045 97.255 -177.7393
56.147991 97.250 -177.8881
56.554863 97.245 -178.0399
56.964684 97.241 -178.1952
57.377472 97.236 -178.3542
57.793251 97.231 -178.5165
58.212044 97.226 -178.6815
58.633873 97.220 -178.8483
59.058758 97.213 -179.0161
59.486721 97.206 -179.1841
59.917786 97.199 -179.3514
60.351974 97.190 -179.5175
60.789310 97.182 -179.6813
61.229816 97.172 -179.8424
61.673512 97.163 179.9994
62.120422 97.153 179.8438
62.570572 97.143 179.6904
63.023983 97.132 179.5388
63.480682 97.122 179.3888
63.940689 97.112 179.2399
64.404030 97.102 179.0917
64.870728 97.091 178.9437
65.340805 97.081 178.7955
65.814293 97.071 178.6475
66.291214 97.060 178.4998
66.771591 97.050 178.3528
67.255447 97.040 178.2068
67.742805 97.029 178.0618
68.233696 97.019 177.9174
68.728142 97.009 177.7732
69.226173 96.998 177.6289
69.727814 96.988 177.4845
70.233093 96.978 177.3402
70.742035 96.967 177.1967
71.254662 96.956 177.0544
71.771004 96.946 176.9138
72.291084 96.935 176.7747
72.814934 96.925 176.6365
73.342583 96.914 176.4985
73.874054 96.904 176.3606
74.409378 96.894 176.2228
74.948578 96.883 176.0855
75.491684 96.873 175.9487
76.038727 96.863 175.8119
76.589737 96.853 175.6739
77.144737 96.843 175.5336
77.703758 96.833 175.3901
78.266830 96.824 175.2427
78.833984 96.814 175.0908
79.405251 96.805 174.9337
79.980652 96.795 174.7707
80.560226 96.785 174.6011
81.143997 96.774 174.4248
81.732002 96.763 174.2426
82.324265 96.750 174.0555
82.920822 96.736 173.8658
83.521698 96.720 173.6759
84.126930 96.702 173.4886
84.736549 96.682 173.3069
85.350586 96.662 173.1331
85.969070 96.640 172.9685
86.592041 96.617 172.8137
87.219521 96.595 172.6683
87.851547 96.572 172.5310
88.488159 96.550 172.4002
89.129379 96.528 172.2737
89.775246 96.508 172.1492
90.425797 96.487 172.0251
91.081062 96.467 171.9010
91.741074 96.448 171.7775
92.405869 96.428 171.6552
93.075478 96.408 171.5346
93.749939 96.388 171.4156
94.429291 96.368 171.2980
95.113564 96.347 171.1810
95.802795 96.327 171.0645
96.497025 96.306 170.9474
97.196281 96.285 170.8288
97.900604 96.263 170.7079
98.610031 96.241 170.5857
99.324600 96.218 170.4644
100.044350 96.195 170.3467
100.769310 96.172 170.2343
101.499527 96.149 170.1274
102.235031 96.126 170.0244
102.975868 96.103 169.9229
103.722076 96.080 169.8221
104.473686 96.057 169.7219
105.230743 96.033 169.6215
105.993286 96.010 169.5190
106.761360 95.986 169.4113
107.534996 95.961 169.2973
108.314240 95.935 169.1783
109.099129 95.907 169.0582
109.889709 95.878 168.9404
110.686012 95.848 168.8269
111.488091 95.816 168.7178
112.295982 95.781 168.6138
113.109726 95.744 168.5178
113.929367 95.702 168.4356
114.754944 95.658 168.3749
115.586502 95.611 168.3427
116.424088 95.563 168.3437
117.267746 95.515 168.3808
118.117516 95.470 168.4574
118.973442 95.429 168.5775
119.835571 95.396 168.7408
120.703949 95.373 168.9352
121.578621 95.362 169.1375
122.459633 95.360 169.3252
123.347023 95.366 169.4830
124.240845 95.378 169.6019
125.141144 95.392 169.6763
126.047966 95.406 169.7047
126.961365 95.419 169.6887
127.881378 95.429 169.6332
128.808060 95.436 169.5452
129.741455 95.441 169.4314
130.681610 95.442 169.2977
131.628586 95.441 169.1494
132.582428 95.436 168.9913
133.543182 95.428 168.8282
134.510895 95.417 168.6635
135.485611 95.404 168.4996
136.467392 95.388 168.3385
137.456284 95.369 168.1814
138.452347 95.349 168.0293
139.455627 95.328 167.8826
140.466187 95.305 167.7416
141.484070 95.282 167.6063
142.509323 95.258 167.4768
143.542007 95.233 167.3529
144.582169 95.207 167.2341
145.629868 95.181 167.1200
146.685165 95.153 167.0103
147.748108 95.125 166.9055
148.818756 95.096 166.8066
149.897156 95.066 166.7150
150.983368 95.035 166.6329
152.077454 95.004 166.5629
153.179474 94.972 166.5066
154.289474 94.940 166.4635
155.407516 94.909 166.4300
156.533661 94.879 166.4005
157.667969 94.851 166.3690
158.810501 94.824 166.3317
159.961304 94.797 166.2872
161.120453 94.770 166.2366
162.287994 94.743 166.1819
163.464005 94.714 166.1260
164.648529 94.685 166.0715
165.841644 94.653 166.0219
167.043396 94.621 165.9812
168.253860 94.588 165.9536
169.473099 94.554 165.9429
170.701172 94.520 165.9503
171.938141 94.488 165.9731
173.184082 94.457 166.0062
174.439041 94.427 166.0439
175.703094 94.398 166.0825
176.976318 94.371 166.1197
178.258759 94.344 166.1545
179.550491 94.319 166.1866
180.851593 94.294 166.2161
182.162125 94.270 166.2421
183.482147 94.247 166.2640
184.811737 94.225 166.2812
186.150955 94.202 166.2938
187.499878 94.180 166.3021
188.858582 94.158 166.3078
190.227127 94.136 166.3122
191.605591 94.114 166.3156
192.994049 94.090 166.3162
194.392563 94.065 166.3119
195.801208 94.038 166.3019
197.220062 94.009 166.2888
198.649200 93.979 166.2775
200.088699 93.949 166.2719
201.538620 93.919 166.2738
202.999054 93.890 166.2831
204.470062 93.862 166.2964
205.951736 93.834 166.3090
207.444153 93.806 166.3168
208.947372 93.778 166.3186
210.461487 93.748 166.3173
211.986572 93.716 166.3180
213.522720 93.683 166.3272
215.069992 93.648 166.3506
216.628479 93.613 166.3923
218.198257 93.578 166.4529
219.779419 93.544 166.5292
221.372025 93.512 166.6155
222.976181 93.483 166.7057
224.591965 93.455 166.7958
226.219452 93.429 166.8833
227.858734 93.404 166.9675
229.509888 93.380 167.0475
231.173004 93.357 167.1226
232.848175 93.335 167.1915
234.535492 93.313 167.2527
236.235031 93.291 167.3045
237.946884 93.269 167.3459
239.671143 93.246 167.3771
241.407898 93.222 167.4001
243.157242 93.197 167.4182
244.919266 93.169 167.4360
246.694046 93.139 167.4584
248.481689 93.108 167.4902
250.282288 93.075 167.5356
252.095932 93.043 167.5968
253.922729 93.012 167.6727
255.762756 92.982 167.7579
257.616119 92.955 167.8431
259.482910 92.929 167.9192
261.363220 92.903 167.9816
263.257172 92.877 168.0323
265.164856 92.848 168.0778
267.086365 92.817 168.1259
269.021790 92.785 168.1832
270.971222 92.751 168.2535
272.934784 92.717 168.3375
274.912567 92.683 168.4334
276.904694 92.650 168.5386
278.911255 92.619 168.6506
280.932373 92.589 168.7672
282.968140 92.560 168.8846
285.018646 92.534 168.9977
287.084015 92.509 169.0998
289.164337 92.484 169.1852
291.259735 92.459 169.2527
293.370331 92.431 169.3077
295.496216 92.400 169.3603
297.637512 92.366 169.4203
299.794312 92.331 169.4942
301.966736 92.294 169.5839
304.154907 92.256 169.6884
306.358948 92.219 169.8050
308.578949 92.182 169.9307
310.815033 92.146 170.0630
313.067322 92.110 170.2005
315.335938 92.074 170.3442
317.621002 92.038 170.4968
319.922607 92.002 170.6617
322.240906 91.967 170.8393
324.575989 91.934 171.0272
326.928009 91.903 171.2207
329.297058 91.873 171.4149
331.683289 91.845 171.6055
334.086792 91.819 171.7892
336.507721 91.793 171.9639
338.946198 91.767 172.1293
341.402344 91.740 172.2871
343.876282 91.713 172.4405
346.368164 91.684 172.5932
348.878082 91.655 172.7482
351.406189 91.626 172.9072
353.952637 91.596 173.0711
356.517517 91.565 173.2398
359.100983 91.534 173.4130
361.703186 91.504 173.5905
364.324249 91.473 173.7717
366.964294 91.442 173.9568
369.623474 91.411 174.1454
372.301910 91.380 174.3382
374.999756 91.349 174.5352
377.717163 91.318 174.7365
380.454254 91.287 174.9417
383.211182 91.256 175.1502
385.988098 91.225 175.3621
388.785126 91.195 175.5775
391.602417 91.165 175.7970
394.440125 91.135 176.0210
397.298401 91.106 176.2494
400.177399 91.077 176.4816
403.077240 91.048 176.7162
405.998108 91.020 176.9512
408.940125 90.992 177.1860
411.903473 90.964 177.4220
414.888306 90.935 177.6625
417.894745 90.905 177.9111
420.922974 90.876 178.1702
423.973145 90.847 178.4406
427.045441 90.820 178.7209
430.139984 90.794 179.0074
433.256958 90.769 179.2950
436.396515 90.746 179.5804
439.558838 90.724 179.8628
442.744049 90.704 -179.8578
445.952362 90.684 -179.5832
449.183929 90.666 -179.3176
452.438904 90.648 -179.0664
455.717468 90.629 -178.8325
459.019775 90.608 -178.6125
462.346008 90.584 -178.3963
465.696350 90.557 -178.1722
469.070984 90.528 -177.9327
472.470062 90.498 -177.6759
475.893768 90.469 -177.4043
479.342285 90.440 -177.1233
482.815796 90.412 -176.8387
486.314484 90.384 -176.5525
489.838531 90.354 -176.2604
493.388092 90.325 -175.9548
496.963379 90.295 -175.6315
500.564575 90.267 -175.2941
504.191864 90.241 -174.9504
507.845459 90.216 -174.6072
511.525513 90.192 -174.2679
515.232239 90.167 -173.9315
518.965820 90.143 -173.5940
522.726440 90.118 -173.2509
526.514343 90.092 -172.8978
530.329712 90.067 -172.5326
534.172729 90.043 -172.1575
538.043579 90.021 -171.7771
541.942444 89.999 -171.3937
545.869568 89.978 -171.0065
549.825134 89.957 -170.6145
553.809387 89.938 -170.2196
557.822510 89.919 -169.8250
561.864746 89.901 -169.4330
565.936279 89.883 -169.0434
570.037292 89.864 -168.6531
574.168030 89.845 -168.2584
578.328674 89.826 -167.8569
582.519470 89.808 -167.4486
586.740662 89.789 -167.0335
590.992432 89.770 -166.6094
595.275024 89.752 -166.1737
599.588623 89.734 -165.7277
603.933472 89.718 -165.2756
608.309814 89.702 -164.8214
612.717896 89.687 -164.3662
617.157898 89.672 -163.9072
621.630066 89.657 -163.4383
626.134644 89.641 -162.9531
630.671875 89.627 -162.4495
635.242004 89.615 -161.9318
639.845215 89.606 -161.4061
644.481812 89.598 -160.8744
649.151978 89.593 -160.3355
653.856018 89.590 -159.7908
658.594116 89.591 -159.2470
663.366577 89.594 -158.7150
668.173584 89.599 -158.2031
673.015442 89.604 -157.7111
677.892395 89.607 -157.2310
682.804688 89.609 -156.7532
687.752563 89.608 -156.2703
692.736328 89.607 -155.7760
697.756165 89.605 -155.2657
702.812378 89.603 -154.7374
707.905273 89.603 -154.1931
713.035034 89.604 -153.6367
718.201965 89.606 -153.0714
723.406372 89.610 -152.4979
728.648499 89.614 -151.9155
733.928589 89.620 -151.3230
739.246948 89.627 -150.7201
744.603821 89.636 -150.1068
749.999512 89.646 -149.4827
755.434326 89.658 -148.8478
760.908508 89.672 -148.2025
766.422363 89.689 -147.5471
771.976196 89.708 -146.8824
777.570251 89.730 -146.2095
783.204834 89.754 -145.5291
788.880249 89.781 -144.8402
794.596802 89.811 -144.1403
800.354797 89.844 -143.4273
806.154480 89.882 -142.7037
811.996216 89.925 -141.9768
817.880249 89.974 -141.2566
823.806946 90.029 -140.5541
829.776611 90.087 -139.8785
835.789490 90.148 -139.2328
841.845947 90.210 -138.6110
847.946289 90.272 -138.0030
854.090881 90.334 -137.4018
860.279968 90.397 -136.8047
866.513916 90.462 -136.2097
872.793030 90.528 -135.6150
879.117676 90.597 -135.0215
885.488098 90.669 -134.4343
891.904724 90.744 -133.8578
898.367859 90.820 -133.2928
904.877808 90.899 -132.7373
911.434937 90.980 -132.1897
918.039551 91.063 -131.6513
924.692017 91.149 -131.1246
931.392700 91.237 -130.6127
938.141968 91.327 -130.1188
944.940125 91.420 -129.6440
951.787537 91.513 -129.1866
958.684570 91.608 -128.7440
965.631592 91.704 -128.3142
972.628967 91.801 -127.8953
979.677063 91.900 -127.4879
986.776184 92.001 -127.0940
993.926758 92.103 -126.7140
1001.129150 92.207 -126.3456
1008.383728 92.313 -125.9865
1015.690918 92.423 -125.6391
1023.051025 92.536 -125.3093
1030.464478 92.654 -125.0060
1037.931641 92.775 -124.7410
1045.452881 92.899 -124.5267
1053.028687 93.023 -124.3687
1060.659424 93.146 -124.2637
1068.345459 93.265 -124.2031
1076.087158 93.381 -124.1777
1083.884888 93.493 -124.1810
1091.739136 93.603 -124.2099
1099.650269 93.709 -124.2631
1107.618774 93.812 -124.3384
1115.645020 93.911 -124.4331
1123.729492 94.007 -124.5437
1131.872559 94.098 -124.6668
1140.074585 94.186 -124.7991
1148.336060 94.269 -124.9375
1156.657349 94.349 -125.0787
1165.038940 94.426 -125.2191
1173.481323 94.499 -125.3545
1181.984863 94.571 -125.4830
1190.550049 94.643 -125.6081
1199.177246 94.713 -125.7383
1207.866943 94.783 -125.8829
1216.619629 94.849 -126.0457
1225.435791 94.912 -126.2216
1234.315796 94.970 -126.4012
1243.260132 95.023 -126.5752
1252.269287 95.072 -126.7351
1261.343750 95.117 -126.8760
1270.484009 95.161 -126.9961
1279.690430 95.203 -127.0940
1288.963623 95.244 -127.1685
1298.303955 95.286 -127.2212
1307.712036 95.329 -127.2570
1317.188232 95.373 -127.2823
1326.733154 95.419 -127.3033
1336.347168 95.465 -127.3232
1346.030884 95.512 -127.3434
1355.784790 95.559 -127.3632
1365.609375 95.606 -127.3809
1375.505127 95.652 -127.3929
1385.472656 95.699 -127.3940
1395.512329 95.746 -127.3817
1405.624756 95.797 -127.3594
1415.810547 95.850 -127.3364
1426.070068 95.906 -127.3252
1436.403931 95.964 -127.3337
1446.812744 96.021 -127.3616
1457.296997 96.078 -127.4037
1467.857178 96.133 -127.4542
1478.493896 96.187 -127.5090
1489.207642 96.240 -127.5648
1499.999023 96.292 -127.6188
1510.868652 96.344 -127.6680
1521.817017 96.396 -127.7102
1532.844727 96.448 -127.7437
1543.952393 96.501 -127.7676
1555.140503 96.556 -127.7823
1566.409668 96.615 -127.7923
1577.760498 96.677 -127.8085
1589.193604 96.743 -127.8447
1600.709595 96.811 -127.9104
1612.308960 96.880 -128.0068
1623.992432 96.947 -128.1299
1635.760498 97.013 -128.2733
1647.613892 97.077 -128.4319
1659.553223 97.140 -128.6013
1671.578979 97.202 -128.7787
1683.691895 97.263 -128.9636
1695.892578 97.324 -129.1581
1708.181763 97.384 -129.3644
1720.559937 97.443 -129.5825
1733.027832 97.500 -129.8098
1745.586060 97.556 -130.0411
1758.235352 97.610 -130.2701
1770.976196 97.664 -130.4917
1783.809448 97.719 -130.7062
1796.735718 97.777 -130.9224
1809.755615 97.837 -131.1535
1822.869873 97.899 -131.4102
1836.079102 97.960 -131.6964
1849.384033 98.021 -132.0115
1862.785400 98.080 -132.3526
1876.283936 98.136 -132.7154
1889.880249 98.189 -133.0944
1903.575073 98.240 -133.4834
1917.369141 98.289 -133.8771
1931.263184 98.337 -134.2716
1945.257935 98.385 -134.6677
1959.354126 98.433 -135.0729
1973.552368 98.482 -135.4994
1987.853516 98.531 -135.9567
2002.258301 98.578 -136.4481
2016.767456 98.621 -136.9709
2031.381836 98.660 -137.5198
2046.102051 98.694 -138.0881
2060.928955 98.724 -138.6698
2075.863281 98.749 -139.2609
2090.905762 98.770 -139.8589
2106.057373 98.785 -140.4600
2121.318848 98.795 -141.0576
2136.690918 98.800 -141.6426
2152.174316 98.800 -142.2059
2167.769775 98.799 -142.7440
2183.478271 98.796 -143.2620
2199.300537 98.793 -143.7705
2215.237549 98.790 -144.2784
2231.290039 98.784 -144.7904
2247.458984 98.775 -145.3062
2263.745117 98.761 -145.8208
2280.149170 98.743 -146.3251
2296.672119 98.719 -146.8069
2313.314697 98.692 -147.2533
2330.077881 98.661 -147.6553
2346.962646 98.630 -148.0112
2363.969727 98.600 -148.3249
2381.100098 98.571 -148.5997
2398.354492 98.543 -148.8368
2415.733887 98.518 -149.0356
2433.239258 98.496 -149.1976
2450.871582 98.481 -149.3281
2468.631592 98.472 -149.4388
2486.520264 98.471 -149.5446
2504.538574 98.476 -149.6603
2522.687500 98.488 -149.7972
2540.968018 98.506 -149.9639
2559.380859 98.528 -150.1698
2577.927246 98.555 -150.4266
2596.607910 98.582 -150.7432
2615.424072 98.609 -151.1221
2634.376465 98.632 -151.5587
2653.466309 98.650 -152.0419
2672.694336 98.661 -152.5557
2692.061768 98.665 -153.0812
2711.569580 98.663 -153.6026
2731.218750 98.657 -154.1116
2751.010254 98.648 -154.6074
2770.945312 98.637 -155.0920
2791.024658 98.625 -155.5667
2811.249512 98.611 -156.0320
2831.621094 98.596 -156.4885
2852.140137 98.580 -156.9386
2872.807861 98.564 -157.3856
2893.625488 98.547 -157.8307
2914.593994 98.530 -158.2720
2935.714355 98.512 -158.7081
2956.987793 98.495 -159.1426
2978.415283 98.479 -159.5832
2999.998047 98.463 -160.0369
3021.737305 98.445 -160.5063
3043.634033 98.424 -160.9879
3065.689453 98.399 -161.4720
3087.904785 98.372 -161.9467
3110.281006 98.343 -162.4044
3132.819336 98.315 -162.8465
3155.520996 98.287 -163.2802
3178.387207 98.261 -163.7148
3201.419189 98.235 -164.1580
3224.617920 98.210 -164.6154
3247.984863 98.183 -165.0894
3271.520996 98.153 -165.5775
3295.227783 98.120 -166.0699
3319.106445 98.083 -166.5536
3343.157959 98.044 -167.0193
3367.383789 98.005 -167.4645
3391.785156 97.965 -167.8917
3416.363525 97.927 -168.3055
3441.119873 97.891 -168.7094
3466.055664 97.856 -169.1039
3491.172119 97.824 -169.4916
3516.470703 97.797 -169.8810
3541.952393 97.775 -170.2870
3567.618896 97.758 -170.7264
3593.471436 97.744 -171.2139
3619.511230 97.731 -171.7612
3645.739746 97.717 -172.3743
3672.158203 97.700 -173.0508
3698.768066 97.676 -173.7805
3725.570801 97.646 -174.5510
3752.567871 97.610 -175.3536
3779.760498 97.566 -176.1837
3807.150146 97.514 -177.0373
3834.738281 97.454 -177.9066
3862.526367 97.384 -178.7792
3890.515869 97.306 -179.6434
3918.708252 97.221 179.5072
3947.104736 97.130 178.6727
3975.707031 97.034 177.8494
4004.516602 96.932 177.0319
4033.534912 96.825 176.2154
4062.763672 96.710 175.4008
4092.204102 96.587 174.5957
4121.857910 96.455 173.8090
4151.726562 96.316 173.0461
4181.811523 96.168 172.3093
4212.114746 96.012 171.6019
4242.637695 95.847 170.9330
4273.381836 95.673 170.3158
4304.348633 95.492 169.7610
4335.539551 95.304 169.2736
4366.956543 95.113 168.8523
4398.601074 94.919 168.4909
4430.475098 94.723 168.1817
4462.580078 94.523 167.9220
4494.917969 94.321 167.7141
4527.490234 94.116 167.5606
4560.298340 93.908 167.4609
4593.344238 93.699 167.4135
4626.629395 93.486 167.4218
4660.155762 93.270 167.4950
4693.925293 93.052 167.6426
4727.939453 92.834 167.8689
4762.200195 92.618 168.1712
4796.708984 92.406 168.5399
4831.467773 92.197 168.9635
4866.478516 91.992 169.4351
4901.743164 91.791 169.9520
4937.263184 91.594 170.5110
4973.040527 91.399 171.1083
5009.077148 91.207 171.7432
5045.375000 91.017 172.4224
5081.936035 90.829 173.1556
5118.761719 90.644 173.9500
5155.854492 90.464 174.8058
5193.215820 90.290 175.7151
5230.848145 90.124 176.6664
5268.752930 89.966 177.6511
5306.932617 89.814 178.6627
5345.388672 89.670 179.6943
5384.123535 89.531 -179.2601
5423.139160 89.397 -178.2001
5462.437500 89.267 -177.1174
5502.020508 89.140 -176.0009
5541.890625 89.018 -174.8428
5582.049316 88.902 -173.6427
5622.499023 88.794 -172.4069
5663.242188 88.694 -171.1417
5704.280273 88.603 -169.8542
5745.615723 88.520 -168.5530
5787.250977 88.445 -167.2455
5829.187988 88.376 -165.9329
5871.428711 88.314 -164.6093
5913.975586 88.256 -163.2651
5956.830566 88.206 -161.8941
5999.996094 88.164 -160.4962
6043.474609 88.130 -159.0746
6087.268066 88.106 -157.6350
6131.378906 88.093 -156.1854
6175.809570 88.090 -154.7354
6220.562012 88.096 -153.2896
6265.638672 88.111 -151.8463
6311.041992 88.134 -150.3992
6356.774414 88.166 -148.9432
6402.838379 88.209 -147.4772
6449.235840 88.263 -146.0037
6495.969727 88.329 -144.5281
6543.041992 88.408 -143.0590
6590.455566 88.499 -141.6043
6638.212891 88.603 -140.1671
6686.315918 88.719 -138.7443
6734.767578 88.848 -137.3304
6783.570312 88.991 -135.9221
6832.727051 89.150 -134.5192
6882.239746 89.328 -133.1262
6932.111328 89.526 -131.7534
6982.344238 89.747 -130.4149
7032.941406 89.991 -129.1245
7083.904785 90.261 -127.8943
7135.237793 90.559 -126.7396
7186.942871 90.888 -125.6829
7239.022461 91.250 -124.7554
7291.479492 91.647 -123.9999
7344.316406 92.078 -123.4694
7397.536133 92.541 -123.2214
7451.141602 93.033 -123.3118
7505.135742 93.547 -123.7931
7559.520996 94.076 -124.7164
7614.300293 94.611 -126.1298
7669.476562 95.139 -128.0764
7725.052734 95.648 -130.5901
7781.031738 96.119 -133.6865
7837.416504 96.535 -137.3510
7894.209473 96.877 -141.5323
7951.414062 97.129 -146.1420
8009.033203 97.279 -151.0568
8067.069824 97.321 -156.1279
8125.527344 97.252 -161.1956
8184.408203 97.076 -166.1036
8243.715820 96.802 -170.7106
8303.453125 96.442 -174.8983
8363.623047 96.011 -178.5790
8424.229492 95.526 178.3034
8485.275391 95.005 175.7717
8546.763672 94.466 173.8152
8608.697266 93.925 172.3968
8671.079102 93.394 171.4639
8733.913086 92.884 170.9597
8797.202148 92.401 170.8312
8860.950195 91.950 171.0328
8925.160156 91.536 171.5219
8989.835938 91.162 172.2557
9054.980469 90.832 173.1921
9120.596680 90.547 174.2931
9186.688477 90.310 175.5259
9253.258789 90.123 176.8616
9320.311523 89.988 178.2673
9387.850586 89.911 179.6992
9455.878906 89.895 -178.8969
9524.400391 89.941 -177.5807
9593.417969 90.051 -176.4127
9662.935547 90.225 -175.4531
9732.957031 90.466 -174.7703
9803.486328 90.772 -174.4493
9874.526367 91.141 -174.5917
9946.081055 91.564 -175.3091
10018.154297 92.028 -176.7122
10090.750000 92.511 -178.8984
10163.872070 92.989 178.0562
10237.523438 93.427 174.1128
10311.708984 93.790 169.2866
10386.431641 94.042 163.6649
10461.696289 94.148 157.4152
10537.505859 94.085 150.7773
10613.865234 93.840 144.0353
10690.777344 93.414 137.4782
10768.247070 92.819 131.3643
10846.278320 92.075 125.9003
10924.875000 91.205 121.2324
11004.041016 90.239 117.4474
11083.781250 89.205 114.5775
11164.098633 88.132 112.6083
11244.998047 87.045 111.4908
11326.484375 85.968 111.1526
11408.560547 84.919 111.5035
11491.231445 83.913 112.4384
11574.501953 82.964 113.8433
11658.375977 82.074 115.6080
11742.857422 81.246 117.6403
11827.951172 80.475 119.8719
11913.661133 79.757 122.2582
11999.992188 79.085 124.7803
12086.949219 78.452 127.4496
12174.536133 77.857 130.2982
12262.757812 77.301 133.3450
12351.619141 76.792 136.5621
12441.124023 76.332 139.8760
12531.277344 75.921 143.2093
12622.083984 75.555 146.5145
12713.548828 75.228 149.7768
12805.676758 74.934 152.9992
12898.471680 74.671 156.1923
12991.939453 74.435 159.3715
13086.083984 74.226 162.5534
13180.911133 74.045 165.7497
13276.425781 73.895 168.9672
13372.631836 73.776 172.2119
13469.535156 73.691 175.4898
13567.140625 73.646 178.7978
13665.454102 73.645 -177.8792
13764.479492 73.692 -174.5641
13864.222656 73.792 -171.2803
13964.688477 73.950 -168.0536
14065.882812 74.172 -164.9218
14167.809570 74.464 -161.9388
14270.475586 74.831 -159.1757
14373.885742 75.273 -156.7241
14478.044922 75.790 -154.6928
14582.958984 76.374 -153.1917
14688.632812 77.014 -152.3149
14795.072266 77.695 -152.1332
14902.283203 78.400 -152.6927
15010.271484 79.112 -154.0124
15119.041992 79.815 -156.0859
15228.600586 80.496 -158.8894
15338.953125 81.142 -162.3877
15450.105469 81.744 -166.5367
15562.063477 82.294 -171.2864
15674.833008 82.788 -176.5861
15788.418945 83.225 177.6097
15902.828125 83.605 171.3352
16018.066406 83.929 164.6100
16134.139648 84.201 157.4343
16251.054688 84.419 149.7892
16368.816406 84.577 141.6456
16487.431641 84.665 132.9756
16606.906250 84.664 123.7687
16727.246094 84.549 114.0505
16848.458984 84.295 103.9006
16970.550781 83.876 93.4565
17093.527344 83.274 82.9029
17217.394531 82.478 72.4510
17342.158203 81.489 62.3073
17467.826172 80.315 52.6483
17594.404297 78.970 43.6068
17721.900391 77.473 35.2683
17850.320312 75.841 27.6754
17979.671875 74.093 20.8373
18109.960938 72.245 14.7407
18241.193359 70.309 9.3583
18373.376953 68.297 4.6583
18506.517578 66.215 0.6192
18640.623047 64.071 -2.7485
18775.701172 61.865 -5.3769
18911.757812 59.601 -7.1174
19048.800781 57.280 -7.7330
19186.835938 54.910 -6.9282
19325.871094 52.508 -4.4283
19465.914062 50.107 -0.1707
19606.972656 47.778 5.3978
19749.052734 45.649 11.1893
19892.162109 43.938 15.8534
20036.308594 42.953 18.3918
