* Measurement data measured by REW V5.31.3
* Source: EXCL: Microphone (USB Sound Device        ), MICROPHONE (Master Volume), R, volume: 0.390
* Format: 256k Log Swept Sine, 1 sweep at -12.0 dBFS with no timing reference
* Dated: Jun 8, 2025 12:09:23 AM
* REW Settings:
*  C-weighting compensation: Off
*  Target level: 75.0 dB
* Note: Kiwi Ears Septet L
* Measurement: L Kiwi Ears Septet
* Smoothing: 1/12 octave
* Frequency Step: 96 ppo
* Start Frequency: 0.36621094 Hz
*
* Freq(Hz) SPL(dB) Phase(degrees)
0.366211 94.543 157.2407
0.368865 94.537 157.2175
0.371538 94.529 157.1826
0.374230 94.519 157.1388
0.376942 94.507 157.0883
0.379673 94.495 157.0328
0.382424 94.482 156.9733
0.385196 94.469 156.9106
0.387987 94.456 156.8450
0.390798 94.442 156.7768
0.393630 94.428 156.7059
0.396483 94.414 156.6326
0.399356 94.400 156.5566
0.402250 94.386 156.4782
0.405165 94.372 156.3972
0.408101 94.358 156.3136
0.411058 94.343 156.2274
0.414037 94.329 156.1385
0.417037 94.314 156.0471
0.420059 94.300 155.9529
0.423103 94.285 155.8561
0.426169 94.270 155.7565
0.429257 94.255 155.6542
0.432368 94.240 155.5491
0.435501 94.224 155.4413
0.438656 94.209 155.3306
0.441835 94.194 155.2171
0.445037 94.178 155.1007
0.448262 94.162 154.9814
0.451510 94.146 154.8593
0.454782 94.130 154.7342
0.458077 94.114 154.6062
0.461397 94.098 154.4753
0.464740 94.082 154.3414
0.468108 94.066 154.2045
0.471500 94.049 154.0646
0.474917 94.032 153.9217
0.478358 94.016 153.7758
0.481825 93.999 153.6268
0.485316 93.982 153.4748
0.488833 93.965 153.3197
0.492375 93.947 153.1616
0.495943 93.930 153.0004
0.499537 93.912 152.8361
0.503157 93.895 152.6687
0.506803 93.877 152.4983
0.510475 93.859 152.3248
0.514175 93.841 152.1482
0.517900 93.823 151.9685
0.521653 93.805 151.7858
0.525434 93.786 151.5999
0.529241 93.768 151.4111
0.533076 93.749 151.2192
0.536939 93.730 151.0243
0.540830 93.711 150.8264
0.544749 93.692 150.6255
0.548696 93.673 150.4216
0.552673 93.654 150.2149
0.556677 93.634 150.0052
0.560711 93.615 149.7926
0.564774 93.595 149.5773
0.568867 93.575 149.3591
0.572989 93.555 149.1382
0.577141 93.535 148.9147
0.581324 93.514 148.6884
0.585536 93.494 148.4596
0.589779 93.473 148.2283
0.594053 93.452 147.9946
0.598358 93.431 147.7584
0.602694 93.410 147.5200
0.607061 93.389 147.2793
0.611460 93.367 147.0366
0.615891 93.346 146.7917
0.620354 93.324 146.5450
0.624849 93.302 146.2964
0.629377 93.280 146.0462
0.633938 93.258 145.7943
0.638532 93.236 145.5410
0.643159 93.213 145.2863
0.647819 93.190 145.0305
0.652514 93.168 144.7736
0.657242 93.145 144.5159
0.662005 93.121 144.2575
0.666802 93.098 143.9985
0.671634 93.074 143.7392
0.676501 93.051 143.4798
0.681403 93.027 143.2204
0.686341 93.003 142.9613
0.691314 92.978 142.7027
0.696324 92.954 142.4447
0.701370 92.929 142.1877
0.706452 92.904 141.9317
0.711571 92.878 141.6769
0.716728 92.852 141.4232
0.721921 92.825 141.1703
0.727153 92.796 140.9180
0.732422 92.765 140.6654
0.737729 92.733 140.4115
0.743075 92.698 140.1554
0.748460 92.662 139.8961
0.753883 92.625 139.6329
0.759346 92.587 139.3654
0.764849 92.548 139.0933
0.770391 92.508 138.8163
0.775974 92.468 138.5342
0.781597 92.427 138.2470
0.787261 92.386 137.9547
0.792966 92.344 137.6571
0.798712 92.301 137.3543
0.804500 92.258 137.0461
0.810329 92.214 136.7327
0.816201 92.170 136.4138
0.822116 92.125 136.0897
0.828073 92.080 135.7601
0.834074 92.033 135.4252
0.840118 91.986 135.0850
0.846206 91.938 134.7393
0.852338 91.890 134.3884
0.858514 91.841 134.0322
0.864735 91.791 133.6707
0.871001 91.740 133.3040
0.877313 91.688 132.9321
0.883670 91.635 132.5552
0.890074 91.581 132.1733
0.896524 91.527 131.7866
0.903020 91.471 131.3951
0.909564 91.414 130.9989
0.916155 91.356 130.5984
0.922794 91.298 130.1935
0.929481 91.238 129.7846
0.936216 91.176 129.3717
0.943000 91.114 128.9553
0.949834 91.050 128.5354
0.956717 90.985 128.1125
0.963649 90.919 127.6868
0.970632 90.851 127.2588
0.977666 90.782 126.8287
0.984750 90.711 126.3970
0.991886 90.639 125.9641
0.999074 90.565 125.5306
1.006314 90.490 125.0969
1.013606 90.412 124.6637
1.020951 90.334 124.2316
1.028349 90.253 123.8013
1.035801 90.170 123.3733
1.043307 90.086 122.9486
1.050867 90.000 122.5279
1.058482 89.911 122.1120
1.066152 89.821 121.7018
1.073878 89.728 121.2980
1.081660 89.633 120.9013
1.089498 89.537 120.5121
1.097393 89.438 120.1307
1.105345 89.337 119.7571
1.113355 89.234 119.3909
1.121423 89.130 119.0317
1.129549 89.024 118.6793
1.137734 88.916 118.3333
1.145979 88.806 117.9936
1.154283 88.694 117.6599
1.162647 88.581 117.3322
1.171072 88.466 117.0103
1.179558 88.348 116.6941
1.188106 88.229 116.3836
1.196715 88.107 116.0788
1.205387 87.983 115.7795
1.214122 87.857 115.4857
1.222920 87.729 115.1975
1.231782 87.598 114.9147
1.240708 87.464 114.6373
1.249699 87.328 114.3654
1.258754 87.189 114.0988
1.267876 87.048 113.8377
1.277063 86.903 113.5820
1.286318 86.755 113.3317
1.295639 86.604 113.0868
1.305027 86.450 112.8475
1.314484 86.293 112.6136
1.324009 86.132 112.3854
1.333604 85.968 112.1628
1.343268 85.799 111.9460
1.353002 85.627 111.7351
1.362806 85.451 111.5301
1.372681 85.271 111.3312
1.382628 85.087 111.1386
1.392647 84.898 110.9526
1.402739 84.704 110.7734
1.412904 84.506 110.6017
1.423142 84.302 110.4380
1.433455 84.092 110.2837
1.443843 83.876 110.1406
1.454305 83.652 110.0115
1.464844 83.419 109.9002
1.475459 83.175 109.8114
1.486150 82.918 109.7505
1.496920 82.647 109.7225
1.507767 82.362 109.7321
1.518693 82.061 109.7837
1.529698 81.746 109.8814
1.540783 81.418 110.0294
1.551948 81.076 110.2320
1.563194 80.723 110.4936
1.574521 80.360 110.8192
1.585931 79.987 111.2143
1.597423 79.607 111.6847
1.608999 79.222 112.2369
1.620658 78.832 112.8781
1.632402 78.440 113.6161
1.644232 78.047 114.4594
1.656146 77.657 115.4171
1.668147 77.269 116.4991
1.680235 76.889 117.7157
1.692411 76.516 119.0774
1.704675 76.155 120.5951
1.717028 75.807 122.2791
1.729470 75.475 124.1390
1.742003 75.164 126.1827
1.754626 74.875 128.4162
1.767341 74.612 130.8423
1.780147 74.378 133.4602
1.793047 74.177 136.2654
1.806040 74.012 139.2497
1.819128 73.886 142.4012
1.832310 73.801 145.7041
1.845587 73.758 149.1367
1.858961 73.758 152.6679
1.872432 73.799 156.2549
1.886001 73.882 159.8453
1.899667 74.002 163.3822
1.913433 74.159 166.8100
1.927299 74.349 170.0802
1.941265 74.570 173.1543
1.955332 74.818 176.0061
1.969501 75.090 178.6207
1.983773 75.383 -179.0064
1.998148 75.693 -176.8721
2.012627 76.017 -174.9673
2.027212 76.351 -173.2794
2.041902 76.692 -171.7935
2.056698 77.036 -170.4938
2.071602 77.379 -169.3649
2.086614 77.718 -168.3917
2.101734 78.048 -167.5605
2.116964 78.367 -166.8588
2.132304 78.671 -166.2759
2.147756 78.958 -165.8031
2.163320 79.227 -165.4337
2.178996 79.477 -165.1632
2.194786 79.708 -164.9894
2.210690 79.924 -164.9113
2.226710 80.127 -164.9278
2.242845 80.320 -165.0363
2.259098 80.505 -165.2321
2.275468 80.683 -165.5093
2.291957 80.854 -165.8607
2.308566 81.020 -166.2786
2.325295 81.180 -166.7554
2.342145 81.335 -167.2836
2.359117 81.484 -167.8560
2.376212 81.628 -168.4661
2.393431 81.766 -169.1074
2.410775 81.898 -169.7742
2.428244 82.025 -170.4613
2.445840 82.145 -171.1640
2.463564 82.260 -171.8784
2.481416 82.369 -172.6018
2.499397 82.472 -173.3326
2.517509 82.568 -174.0713
2.535752 82.657 -174.8209
2.554127 82.740 -175.5875
2.572635 82.815 -176.3792
2.591277 82.882 -177.2057
2.610055 82.941 -178.0745
2.628968 82.992 -178.9904
2.648019 83.034 -179.9548
2.667208 83.068 179.0332
2.686535 83.095 177.9769
2.706003 83.113 176.8806
2.725612 83.124 175.7498
2.745363 83.128 174.5904
2.765257 83.125 173.4089
2.785295 83.116 172.2120
2.805478 83.101 171.0065
2.825808 83.081 169.7987
2.846285 83.055 168.5946
2.866910 83.023 167.3982
2.887685 82.988 166.2117
2.908611 82.947 165.0334
2.929688 82.901 163.8580
2.950917 82.849 162.6766
2.972301 82.791 161.4791
2.993839 82.727 160.2568
3.015534 82.657 159.0035
3.037386 82.579 157.7157
3.059396 82.495 156.3926
3.081565 82.404 155.0353
3.103896 82.307 153.6466
3.126388 82.203 152.2308
3.149043 82.092 150.7933
3.171862 81.976 149.3404
3.194847 81.854 147.8789
3.217998 81.726 146.4156
3.241317 81.592 144.9562
3.264805 81.452 143.5041
3.288463 81.307 142.0591
3.312293 81.155 140.6171
3.336295 80.996 139.1704
3.360471 80.830 137.7107
3.384822 80.657 136.2308
3.409350 80.477 134.7255
3.434056 80.290 133.1922
3.458940 80.096 131.6307
3.484005 79.897 130.0437
3.509252 79.692 128.4361
3.534681 79.481 126.8157
3.560295 79.266 125.1928
3.586094 79.045 123.5794
3.612081 78.821 121.9890
3.638255 78.591 120.4342
3.664620 78.355 118.9256
3.691175 78.113 117.4697
3.717923 77.864 116.0685
3.744864 77.607 114.7210
3.772001 77.344 113.4240
3.799335 77.075 112.1741
3.826866 76.804 110.9682
3.854597 76.532 109.8047
3.882529 76.262 108.6842
3.910664 75.997 107.6101
3.939002 75.740 106.5893
3.967546 75.492 105.6336
3.996296 75.257 104.7597
4.025255 75.034 103.9885
4.054423 74.823 103.3428
4.083804 74.623 102.8423
4.113396 74.435 102.4985
4.143204 74.260 102.3130
4.173227 74.099 102.2775
4.203468 73.956 102.3754
4.233928 73.833 102.5835
4.264609 73.736 102.8743
4.295512 73.668 103.2195
4.326639 73.634 103.5933
4.357992 73.638 103.9768
4.389572 73.684 104.3607
4.421380 73.773 104.7441
4.453419 73.905 105.1276
4.485691 74.077 105.5060
4.518196 74.286 105.8647
4.550936 74.526 106.1818
4.583914 74.791 106.4319
4.617131 75.074 106.5893
4.650589 75.370 106.6319
4.684289 75.674 106.5436
4.718233 75.984 106.3161
4.752424 76.298 105.9501
4.786862 76.616 105.4553
4.821549 76.939 104.8474
4.856488 77.267 104.1440
4.891680 77.598 103.3613
4.927127 77.931 102.5125
4.962831 78.263 101.6072
4.998794 78.591 100.6512
5.035017 78.912 99.6471
5.071503 79.224 98.5952
5.108253 79.525 97.4945
5.145270 79.815 96.3444
5.182555 80.093 95.1476
5.220110 80.361 93.9106
5.257937 80.618 92.6441
5.296038 80.865 91.3609
5.334415 81.102 90.0734
5.373071 81.329 88.7919
5.412006 81.544 87.5233
5.451224 81.749 86.2699
5.490725 81.942 85.0301
5.530514 82.124 83.8001
5.570590 82.294 82.5771
5.610957 82.452 81.3625
5.651616 82.600 80.1624
5.692570 82.736 78.9860
5.733821 82.863 77.8436
5.775370 82.979 76.7445
5.817221 83.086 75.6950
5.859375 83.183 74.6975
5.901834 83.271 73.7507
5.944602 83.349 72.8523
5.987679 83.418 72.0019
6.031068 83.479 71.2017
6.074771 83.533 70.4568
6.118792 83.580 69.7739
6.163131 83.623 69.1598
6.207792 83.662 68.6198
6.252776 83.697 68.1569
6.298086 83.729 67.7708
6.343725 83.758 67.4593
6.389694 83.786 67.2191
6.435996 83.813 67.0463
6.482634 83.843 66.9380
6.529610 83.876 66.8915
6.576926 83.913 66.9052
6.624585 83.956 66.9774
6.672590 84.005 67.1048
6.720942 84.060 67.2807
6.769645 84.122 67.4953
6.818700 84.190 67.7366
6.868111 84.265 67.9924
6.917881 84.348 68.2522
6.968010 84.438 68.5082
7.018504 84.536 68.7551
7.069362 84.641 68.9878
7.120590 84.752 69.2004
7.172189 84.868 69.3856
7.224161 84.986 69.5359
7.276511 85.107 69.6448
7.329239 85.228 69.7080
7.382350 85.349 69.7242
7.435845 85.469 69.6942
7.489729 85.588 69.6203
7.544002 85.703 69.5051
7.598669 85.815 69.3513
7.653732 85.921 69.1609
7.709194 86.021 68.9360
7.765058 86.115 68.6792
7.821327 86.201 68.3946
7.878004 86.281 68.0880
7.935091 86.353 67.7662
7.992592 86.418 67.4353
8.050510 86.474 67.1007
8.108847 86.523 66.7661
8.167607 86.565 66.4346
8.226793 86.599 66.1100
8.286408 86.626 65.7969
8.346454 86.647 65.5001
8.406936 86.663 65.2239
8.467856 86.675 64.9710
8.529218 86.682 64.7427
8.591024 86.688 64.5390
8.653278 86.691 64.3595
8.715983 86.693 64.2038
8.779143 86.695 64.0709
8.842760 86.697 63.9596
8.906839 86.700 63.8674
8.971381 86.703 63.7903
9.036392 86.708 63.7231
9.101873 86.715 63.6604
9.167829 86.725 63.5976
9.234263 86.737 63.5303
9.301178 86.752 63.4543
9.368578 86.769 63.3651
9.436467 86.788 63.2578
9.504847 86.808 63.1281
9.573723 86.829 62.9730
9.643099 86.851 62.7905
9.712976 86.873 62.5797
9.783361 86.895 62.3401
9.854255 86.916 62.0717
9.925663 86.935 61.7748
9.997588 86.952 61.4504
10.070035 86.967 61.1006
10.143007 86.980 60.7281
10.216507 86.990 60.3358
10.290540 86.998 59.9263
10.365109 87.003 59.5019
10.440219 87.006 59.0650
10.515873 87.007 58.6181
10.592076 87.007 58.1637
10.668830 87.006 57.7036
10.746141 87.004 57.2389
10.824012 87.002 56.7703
10.902447 87.000 56.2978
10.981451 86.999 55.8216
11.061027 86.999 55.3413
11.141180 87.001 54.8563
11.221913 87.004 54.3654
11.303232 87.009 53.8673
11.385140 87.017 53.3611
11.467641 87.027 52.8460
11.550741 87.038 52.3213
11.634442 87.052 51.7867
11.718750 87.067 51.2424
11.803669 87.085 50.6886
11.889203 87.104 50.1264
11.975357 87.124 49.5573
12.062136 87.145 48.9831
12.149543 87.168 48.4056
12.237583 87.192 47.8269
12.326262 87.217 47.2491
12.415583 87.244 46.6746
12.505552 87.272 46.1052
12.596172 87.301 45.5424
12.687449 87.333 44.9876
12.779387 87.366 44.4414
12.871992 87.402 43.9045
12.965268 87.440 43.3768
13.059220 87.480 42.8581
13.153852 87.522 42.3476
13.249170 87.566 41.8447
13.345179 87.612 41.3487
13.441884 87.660 40.8592
13.539289 87.709 40.3757
13.637401 87.759 39.8983
13.736223 87.809 39.4273
13.835761 87.859 38.9638
13.936021 87.908 38.5090
14.037007 87.957 38.0645
14.138725 88.004 37.6320
14.241180 88.051 37.2137
14.344377 88.096 36.8115
14.448323 88.139 36.4269
14.553021 88.182 36.0612
14.658478 88.223 35.7153
14.764700 88.263 35.3893
14.871691 88.303 35.0825
14.979457 88.342 34.7939
15.088005 88.381 34.5216
15.197339 88.420 34.2634
15.307465 88.458 34.0167
15.418389 88.496 33.7788
15.530117 88.534 33.5469
15.642655 88.570 33.3189
15.756008 88.605 33.0928
15.870182 88.639 32.8670
15.985184 88.670 32.6408
16.101019 88.699 32.4138
16.217694 88.726 32.1862
16.335214 88.750 31.9584
16.453586 88.771 31.7310
16.572815 88.789 31.5044
16.692909 88.805 31.2791
16.813872 88.818 31.0548
16.935713 88.829 30.8310
17.058436 88.838 30.6068
17.182048 88.845 30.3806
17.306556 88.851 30.1506
17.431967 88.855 29.9149
17.558286 88.859 29.6714
17.685521 88.861 29.4183
17.813677 88.861 29.1540
17.942762 88.861 28.8776
18.072783 88.858 28.5885
18.203746 88.855 28.2865
18.335658 88.850 27.9721
18.468526 88.844 27.6457
18.602356 88.837 27.3080
18.737156 88.829 26.9597
18.872934 88.820 26.6013
19.009695 88.812 26.2330
19.147447 88.803 25.8548
19.286197 88.795 25.4666
19.425953 88.788 25.0681
19.566721 88.782 24.6593
19.708510 88.777 24.2402
19.851326 88.773 23.8115
19.995177 88.770 23.3740
20.140070 88.768 22.9291
20.286013 88.768 22.4786
20.433014 88.769 22.0244
20.581080 88.771 21.5686
20.730219 88.774 21.1129
20.880439 88.780 20.6590
21.031747 88.787 20.2079
21.184152 88.797 19.7603
21.337661 88.808 19.3168
21.492282 88.822 18.8776
21.648024 88.837 18.4431
21.804895 88.853 18.0138
21.962902 88.871 17.5906
22.122054 88.889 17.1748
22.282360 88.908 16.7680
22.443827 88.927 16.3719
22.606464 88.945 15.9882
22.770280 88.964 15.6183
22.935283 88.982 15.2630
23.101481 89.000 14.9225
23.268884 89.017 14.5963
23.437500 89.035 14.2834
23.607338 89.051 13.9823
23.778406 89.067 13.6914
23.950714 89.081 13.4094
24.124271 89.094 13.1350
24.299086 89.105 12.8674
24.475167 89.114 12.6059
24.652524 89.122 12.3503
24.831166 89.127 12.0999
25.011103 89.130 11.8540
25.192344 89.131 11.6113
25.374898 89.130 11.3704
25.558775 89.127 11.1293
25.743984 89.123 10.8859
25.930536 89.117 10.6381
26.118439 89.110 10.3841
26.307704 89.102 10.1224
26.498341 89.092 9.8520
26.690359 89.081 9.5721
26.883768 89.068 9.2824
27.078579 89.055 8.9825
27.274801 89.041 8.6723
27.472446 89.027 8.3518
27.671522 89.012 8.0211
27.872042 88.998 7.6806
28.074014 88.984 7.3310
28.277450 88.970 6.9734
28.482360 88.956 6.6090
28.688755 88.944 6.2394
28.896645 88.932 5.8659
29.106042 88.922 5.4896
29.316957 88.913 5.1115
29.529400 88.906 4.7323
29.743382 88.900 4.3530
29.958915 88.896 3.9745
30.176009 88.892 3.5983
30.394677 88.890 3.2260
30.614929 88.888 2.8596
30.836778 88.886 2.5007
31.060234 88.885 2.1508
31.285309 88.884 1.8108
31.512015 88.884 1.4810
31.740364 88.883 1.1612
31.970368 88.882 0.8508
32.202039 88.881 0.5492
32.435388 88.879 0.2560
32.670428 88.875 -0.0294
32.907171 88.871 -0.3074
33.145630 88.865 -0.5788
33.385817 88.859 -0.8447
33.627745 88.851 -1.1068
33.871425 88.841 -1.3671
34.116871 88.831 -1.6277
34.364096 88.819 -1.8905
34.613113 88.806 -2.1571
34.863934 88.792 -2.4285
35.116572 88.776 -2.7053
35.371041 88.759 -2.9878
35.627354 88.741 -3.2760
35.885525 88.722 -3.5702
36.145566 88.703 -3.8702
36.407492 88.683 -4.1758
36.671316 88.662 -4.4866
36.937051 88.642 -4.8018
37.204712 88.621 -5.1201
37.474313 88.601 -5.4402
37.745867 88.581 -5.7606
38.019389 88.561 -6.0804
38.294893 88.542 -6.3991
38.572394 88.524 -6.7168
38.851905 88.506 -7.0338
39.133442 88.489 -7.3502
39.417019 88.471 -7.6654
39.702651 88.453 -7.9774
39.990353 88.435 -8.2837
40.280140 88.415 -8.5811
40.572026 88.395 -8.8672
40.866028 88.374 -9.1414
41.162160 88.354 -9.4054
41.460438 88.335 -9.6626
41.760877 88.316 -9.9177
42.063494 88.297 -10.1745
42.368303 88.278 -10.4350
42.675322 88.257 -10.6991
42.984565 88.236 -10.9652
43.296048 88.214 -11.2310
43.609789 88.190 -11.4951
43.925804 88.166 -11.7574
44.244108 88.142 -12.0187
44.564719 88.118 -12.2800
44.887654 88.093 -12.5412
45.212928 88.068 -12.8009
45.540560 88.043 -13.0570
45.870565 88.018 -13.3072
46.202962 87.993 -13.5513
46.537768 87.969 -13.7905
46.875000 87.946 -14.0285
47.214676 87.924 -14.2693
47.556813 87.902 -14.5163
47.901429 87.879 -14.7707
48.248542 87.856 -15.0311
48.598171 87.830 -15.2942
48.950334 87.803 -15.5559
49.305048 87.773 -15.8131
49.662333 87.743 -16.0644
50.022206 87.711 -16.3103
50.384688 87.679 -16.5519
50.749796 87.647 -16.7905
51.117550 87.614 -17.0259
51.487969 87.581 -17.2572
51.861072 87.548 -17.4831
52.236879 87.515 -17.7030
52.615409 87.484 -17.9179
52.996681 87.454 -18.1298
53.380717 87.425 -18.3418
53.767536 87.397 -18.5558
54.157158 87.369 -18.7726
54.549603 87.341 -18.9906
54.944892 87.313 -19.2068
55.343045 87.283 -19.4180
55.744084 87.253 -19.6218
56.148028 87.223 -19.8177
56.554900 87.192 -20.0073
56.964720 87.161 -20.1938
57.377510 87.131 -20.3815
57.793291 87.101 -20.5746
58.212085 87.070 -20.7766
58.633914 87.039 -20.9892
59.058799 87.006 -21.2120
59.486764 86.972 -21.4425
59.917829 86.936 -21.6772
60.352019 86.898 -21.9121
60.789354 86.860 -22.1435
61.229859 86.821 -22.3689
61.673556 86.782 -22.5862
62.120468 86.743 -22.7946
62.570618 86.705 -22.9944
63.024031 86.667 -23.1867
63.480729 86.630 -23.3735
63.940736 86.594 -23.5564
64.404077 86.557 -23.7359
64.870776 86.519 -23.9117
65.340856 86.481 -24.0832
65.814343 86.442 -24.2503
66.291261 86.403 -24.4140
66.771635 86.362 -24.5761
67.255489 86.322 -24.7383
67.742850 86.281 -24.9022
68.233743 86.239 -25.0682
68.728193 86.198 -25.2363
69.226226 86.156 -25.4063
69.727867 86.114 -25.5778
70.233144 86.071 -25.7495
70.742083 86.029 -25.9185
71.254709 85.986 -26.0812
71.771050 85.943 -26.2358
72.291132 85.901 -26.3831
72.814984 85.860 -26.5244
73.342631 85.818 -26.6587
73.874102 85.776 -26.7827
74.409424 85.734 -26.8943
74.948626 85.694 -26.9960
75.491734 85.655 -27.0943
76.038779 85.617 -27.1962
76.589787 85.579 -27.3057
77.144788 85.540 -27.4232
77.703811 85.501 -27.5463
78.266885 85.460 -27.6696
78.834039 85.418 -27.7882
79.405303 85.376 -27.9010
79.980706 85.334 -28.0120
80.560280 85.294 -28.1276
81.144053 85.254 -28.2522
81.732056 85.214 -28.3869
82.324320 85.173 -28.5300
82.920876 85.131 -28.6783
83.521755 85.087 -28.8270
84.126988 85.041 -28.9708
84.736607 84.993 -29.1048
85.350643 84.943 -29.2259
85.969129 84.892 -29.3326
86.592097 84.839 -29.4253
87.219579 84.786 -29.5054
87.851608 84.733 -29.5757
88.488217 84.679 -29.6398
89.129439 84.625 -29.7012
89.775308 84.572 -29.7618
90.425856 84.518 -29.8214
91.081119 84.465 -29.8789
91.741131 84.412 -29.9330
92.405925 84.361 -29.9826
93.075536 84.311 -30.0268
93.750000 84.262 -30.0647
94.429351 84.214 -30.0961
95.113625 84.166 -30.1212
95.802858 84.118 -30.1402
96.497085 84.069 -30.1533
97.196342 84.019 -30.1607
97.900667 83.968 -30.1628
98.610096 83.917 -30.1600
99.324665 83.865 -30.1519
100.044413 83.814 -30.1380
100.769376 83.764 -30.1174
101.499592 83.715 -30.0890
102.235100 83.668 -30.0525
102.975938 83.623 -30.0086
103.722144 83.579 -29.9606
104.473757 83.537 -29.9133
105.230817 83.494 -29.8713
105.993363 83.451 -29.8370
106.761435 83.408 -29.8108
107.535072 83.364 -29.7922
108.314315 83.320 -29.7798
109.099206 83.276 -29.7715
109.889783 83.233 -29.7641
110.686090 83.190 -29.7532
111.488167 83.146 -29.7338
112.296056 83.099 -29.7017
113.109800 83.048 -29.6568
113.929440 82.990 -29.6021
114.755020 82.922 -29.5396
115.586582 82.843 -29.4620
116.424170 82.754 -29.3478
117.267827 82.658 -29.1712
118.117598 82.568 -28.9240
118.973527 82.493 -28.6342
119.835658 82.442 -28.3704
120.704037 82.415 -28.2094
121.578708 82.401 -28.1800
122.459718 82.392 -28.2469
123.347111 82.380 -28.3512
124.240935 82.365 -28.4450
125.141236 82.345 -28.5001
126.048061 82.320 -28.5075
126.961458 82.289 -28.4712
127.881473 82.255 -28.4004
128.808154 82.217 -28.3051
129.741551 82.177 -28.1936
130.681712 82.136 -28.0728
131.628686 82.095 -27.9471
132.582521 82.054 -27.8181
133.543269 82.013 -27.6857
134.510979 81.972 -27.5499
135.485701 81.929 -27.4119
136.467486 81.886 -27.2720
137.456386 81.842 -27.1308
138.452451 81.797 -26.9894
139.455735 81.752 -26.8490
140.466288 81.708 -26.7095
141.484165 81.664 -26.5697
142.509418 81.621 -26.4278
143.542100 81.580 -26.2834
144.582265 81.538 -26.1387
145.629968 81.498 -25.9953
146.685262 81.458 -25.8531
147.748204 81.418 -25.7100
148.818849 81.377 -25.5637
149.897251 81.334 -25.4128
150.983469 81.288 -25.2568
152.077557 81.238 -25.0960
153.179574 81.186 -24.9299
154.289576 81.131 -24.7542
155.407622 81.079 -24.5618
156.533770 81.033 -24.3510
157.668078 80.996 -24.1263
158.810606 80.968 -23.8898
159.961413 80.945 -23.6350
161.120559 80.924 -23.3523
162.288105 80.904 -23.0424
163.464112 80.885 -22.7289
164.648640 80.865 -22.4531
165.841752 80.844 -22.2451
167.043510 80.821 -22.1045
168.253976 80.798 -22.0096
169.473213 80.776 -21.9339
170.701286 80.755 -21.8526
171.938258 80.735 -21.7416
173.184194 80.714 -21.5782
174.439158 80.693 -21.3557
175.703216 80.673 -21.0936
176.976434 80.654 -20.8258
178.258878 80.636 -20.5811
179.550615 80.618 -20.3748
180.851713 80.599 -20.2075
182.162239 80.579 -20.0687
183.482262 80.557 -19.9430
184.811850 80.534 -19.8163
186.151073 80.510 -19.6783
187.500000 80.486 -19.5242
188.858702 80.461 -19.3557
190.227250 80.437 -19.1789
191.605715 80.414 -19.0013
192.994169 80.390 -18.8299
194.392685 80.366 -18.6680
195.801334 80.341 -18.5136
197.220191 80.315 -18.3608
198.649330 80.288 -18.2030
200.088825 80.262 -18.0350
201.538751 80.236 -17.8542
202.999184 80.212 -17.6615
204.470200 80.189 -17.4612
205.951875 80.169 -17.2593
207.444287 80.149 -17.0610
208.947514 80.130 -16.8692
210.461634 80.111 -16.6848
211.986726 80.091 -16.5070
213.522869 80.069 -16.3329
215.070144 80.045 -16.1571
216.628631 80.020 -15.9736
218.198411 79.996 -15.7783
219.779567 79.972 -15.5719
221.372180 79.950 -15.3592
222.976334 79.929 -15.1471
224.592112 79.910 -14.9407
226.219600 79.891 -14.7412
227.858880 79.872 -14.5456
229.510039 79.855 -14.3515
231.173164 79.840 -14.1568
232.848340 79.826 -13.9595
234.535655 79.812 -13.7589
236.235197 79.799 -13.5567
237.947054 79.786 -13.3555
239.671317 79.771 -13.1577
241.408074 79.755 -12.9631
243.157416 79.738 -12.7691
244.919435 79.719 -12.5718
246.694223 79.699 -12.3667
248.481871 79.679 -12.1494
250.282473 79.659 -11.9167
252.096123 79.640 -11.6677
253.922915 79.625 -11.4045
255.762945 79.613 -11.1329
257.616309 79.606 -10.8627
259.483103 79.601 -10.6045
261.363424 79.599 -10.3658
263.257372 79.596 -10.1480
265.165043 79.594 -9.9481
267.086538 79.590 -9.7604
269.021957 79.585 -9.5788
270.971401 79.580 -9.3979
272.934972 79.576 -9.2145
274.912771 79.571 -9.0277
276.904902 79.567 -8.8384
278.911469 79.564 -8.6497
280.932577 79.561 -8.4649
282.968330 79.560 -8.2870
285.018835 79.561 -8.1206
287.084199 79.562 -7.9703
289.164530 79.564 -7.8397
291.259935 79.564 -7.7295
293.370525 79.561 -7.6351
295.496408 79.555 -7.5472
297.637697 79.546 -7.4558
299.794503 79.535 -7.3533
301.966937 79.523 -7.2361
304.155114 79.511 -7.1066
306.359147 79.499 -6.9710
308.579152 79.488 -6.8355
310.815244 79.476 -6.7029
313.067539 79.464 -6.5726
315.336156 79.451 -6.4416
317.621211 79.438 -6.3056
319.922826 79.423 -6.1602
322.241118 79.409 -6.0033
324.576210 79.395 -5.8367
326.928223 79.382 -5.6649
329.297280 79.370 -5.4925
331.683504 79.359 -5.3226
334.087019 79.349 -5.1566
336.507952 79.338 -4.9947
338.946427 79.328 -4.8364
341.402572 79.317 -4.6809
343.876516 79.306 -4.5268
346.368387 79.294 -4.3721
348.878315 79.283 -4.2161
351.406431 79.271 -4.0584
353.952867 79.259 -3.8989
356.517756 79.248 -3.7376
359.101230 79.237 -3.5747
361.703426 79.225 -3.4103
364.324478 79.214 -3.2448
366.964523 79.203 -3.0788
369.623699 79.192 -2.9126
372.302145 79.182 -2.7457
375.000000 79.171 -2.5771
377.717405 79.160 -2.4060
380.454501 79.149 -2.2323
383.211431 79.138 -2.0563
385.988339 79.126 -1.8789
388.785369 79.116 -1.7006
391.602668 79.105 -1.5222
394.440383 79.095 -1.3437
397.298660 79.086 -1.1647
400.177650 79.077 -0.9852
403.077502 79.068 -0.8061
405.998368 79.059 -0.6291
408.940400 79.050 -0.4556
411.903750 79.040 -0.2852
414.888575 79.028 -0.1154
417.895028 79.017 0.0584
420.923268 79.006 0.2409
423.973452 78.995 0.4347
427.045738 78.987 0.6387
430.140287 78.980 0.8485
433.257261 78.974 1.0580
436.396822 78.970 1.2625
439.559133 78.966 1.4607
442.744360 78.963 1.6529
445.952668 78.960 1.8372
449.184225 78.959 2.0091
452.439199 78.957 2.1626
455.717760 78.955 2.2954
459.020079 78.950 2.4121
462.346327 78.942 2.5238
465.696680 78.931 2.6425
469.071310 78.918 2.7756
472.470394 78.904 2.9246
475.894109 78.891 3.0861
479.342634 78.877 3.2540
482.816148 78.863 3.4222
486.314833 78.848 3.5882
489.838871 78.833 3.7561
493.388445 78.816 3.9339
496.963741 78.800 4.1268
500.564945 78.784 4.3325
504.192245 78.770 4.5443
507.845830 78.758 4.7550
511.525890 78.745 4.9605
515.232618 78.733 5.1606
518.966206 78.720 5.3580
522.726849 78.706 5.5572
526.514743 78.691 5.7633
530.330086 78.677 5.9799
534.173076 78.664 6.2062
538.043915 78.652 6.4373
541.942803 78.641 6.6696
545.869944 78.630 6.9024
549.825542 78.620 7.1363
553.809805 78.610 7.3698
557.822939 78.601 7.5999
561.865154 78.593 7.8250
565.936660 78.583 8.0465
570.037671 78.573 8.2680
574.168399 78.562 8.4934
578.329060 78.550 8.7242
582.519870 78.538 8.9601
586.741049 78.525 9.2008
590.992817 78.512 9.4481
595.275394 78.499 9.7042
599.589005 78.487 9.9677
603.933874 78.475 10.2345
608.310228 78.465 10.5007
612.718295 78.454 10.7656
617.158304 78.443 11.0320
621.630488 78.430 11.3061
626.135079 78.418 11.5938
630.672311 78.405 11.8968
635.242423 78.395 12.2105
639.845651 78.387 12.5288
644.482237 78.380 12.8501
649.152421 78.377 13.1760
653.856447 78.375 13.5052
658.594560 78.377 13.8300
663.367008 78.382 14.1390
668.174039 78.387 14.4245
673.015903 78.392 14.6878
677.892854 78.396 14.9375
682.805145 78.396 15.1830
687.753032 78.395 15.4315
692.736774 78.391 15.6876
697.756631 78.386 15.9552
702.812863 78.380 16.2347
707.905735 78.374 16.5233
713.035511 78.369 16.8168
718.202461 78.364 17.1128
723.406852 78.360 17.4114
728.648956 78.355 17.7141
733.929047 78.350 18.0225
739.247399 78.345 18.3378
744.604290 78.340 18.6614
750.000000 78.334 18.9956
755.434809 78.329 19.3426
760.909001 78.325 19.7035
766.422861 78.322 20.0775
771.976677 78.321 20.4621
777.570739 78.322 20.8539
783.205337 78.326 21.2499
788.880766 78.331 21.6493
794.597321 78.339 22.0534
800.355301 78.349 22.4634
806.155005 78.362 22.8776
811.996736 78.378 23.2903
817.880799 78.398 23.6930
823.807501 78.421 24.0771
829.777150 78.446 24.4351
835.790057 78.470 24.7660
841.846536 78.492 25.0777
847.946903 78.512 25.3822
854.091476 78.530 25.6886
860.280575 78.546 26.0005
866.514523 78.562 26.3199
872.793644 78.577 26.6490
879.118267 78.592 26.9872
885.488720 78.609 27.3306
891.905336 78.626 27.6754
898.368450 78.644 28.0217
904.878398 78.663 28.3721
911.435520 78.684 28.7275
918.040157 78.706 29.0862
924.692655 78.730 29.4451
931.393359 78.756 29.8003
938.142619 78.783 30.1482
944.940787 78.812 30.4870
951.788218 78.841 30.8184
958.685268 78.870 31.1451
965.632296 78.899 31.4697
972.629666 78.928 31.7946
979.677741 78.957 32.1212
986.776890 78.986 32.4493
993.927482 79.016 32.7801
1001.129891 79.047 33.1164
1008.384491 79.079 33.4605
1015.691660 79.114 33.8106
1023.051781 79.153 34.1614
1030.465236 79.195 34.5057
1037.932411 79.242 34.8329
1045.453698 79.291 35.1310
1053.029486 79.342 35.3950
1060.660172 79.391 35.6288
1068.346153 79.438 35.8415
1076.087829 79.483 36.0428
1083.885605 79.526 36.2393
1091.739887 79.568 36.4333
1099.651084 79.608 36.6244
1107.619609 79.647 36.8125
1115.645878 79.685 36.9982
1123.730308 79.723 37.1828
1131.873321 79.759 37.3678
1140.075341 79.796 37.5543
1148.336797 79.832 37.7428
1156.658119 79.869 37.9340
1165.039741 79.905 38.1296
1173.482099 79.941 38.3312
1181.985634 79.980 38.5383
1190.550789 80.020 38.7449
1199.178011 80.063 38.9397
1207.867749 80.108 39.1107
1216.620457 80.152 39.2522
1225.436590 80.195 39.3684
1234.316609 80.235 39.4689
1243.260976 80.272 39.5634
1252.270157 80.305 39.6594
1261.344623 80.336 39.7607
1270.484846 80.365 39.8683
1279.691303 80.392 39.9836
1288.964474 80.419 40.1086
1298.304842 80.445 40.2431
1307.712894 80.471 40.3843
1317.189120 80.497 40.5278
1326.734016 80.523 40.6705
1336.348077 80.548 40.8129
1346.031806 80.571 40.9590
1355.785708 80.593 41.1142
1365.610290 80.614 41.2830
1375.506065 80.634 41.4696
1385.473549 80.655 41.6779
1395.513261 80.677 41.9090
1405.625726 80.704 42.1574
1415.811469 80.734 42.4116
1426.071023 80.768 42.6570
1436.404921 80.804 42.8844
1446.813703 80.841 43.0933
1457.297912 80.876 43.2889
1467.858093 80.911 43.4773
1478.494798 80.945 43.6633
1489.208581 80.978 43.8508
1500.000000 81.010 44.0433
1510.869618 81.042 44.2437
1521.818002 81.073 44.4546
1532.845723 81.104 44.6785
1543.953355 81.137 44.9173
1555.141477 81.172 45.1717
1566.410674 81.211 45.4376
1577.761531 81.255 45.7037
1589.194642 81.303 45.9558
1600.710601 81.352 46.1843
1612.310010 81.403 46.3886
1623.993473 81.452 46.5742
1635.761599 81.501 46.7491
1647.615002 81.547 46.9194
1659.554299 81.593 47.0894
1671.580114 81.638 47.2619
1683.693072 81.683 47.4373
1695.893807 81.729 47.6137
1708.182952 81.775 47.7891
1720.561150 81.821 47.9641
1733.029045 81.867 48.1419
1745.587288 81.913 48.3274
1758.236533 81.959 48.5275
1770.977440 82.006 48.7476
1783.810673 82.057 48.9868
1796.736900 82.112 49.2353
1809.756796 82.172 49.4773
1822.871040 82.237 49.7009
1836.080315 82.303 49.9016
1849.385310 82.372 50.0804
1862.786718 82.441 50.2409
1876.285239 82.509 50.3876
1889.881575 82.578 50.5256
1903.576436 82.647 50.6605
1917.370535 82.717 50.7970
1931.264593 82.788 50.9376
1945.259332 82.864 51.0803
1959.355483 82.943 51.2154
1973.553781 83.028 51.3282
1987.854965 83.116 51.4067
2002.259781 83.206 51.4457
2016.768981 83.296 51.4468
2031.383320 83.386 51.4150
2046.103561 83.475 51.3560
2060.930471 83.564 51.2737
2075.864823 83.651 51.1689
2090.907395 83.737 51.0413
2106.058972 83.822 50.8925
2121.320344 83.904 50.7274
2136.692305 83.984 50.5530
2152.175658 84.063 50.3762
2167.771210 84.142 50.1976
2183.479774 84.222 50.0088
2199.302169 84.305 49.7971
2215.239219 84.388 49.5523
2231.291755 84.471 49.2697
2247.460615 84.552 48.9492
2263.746641 84.631 48.5943
2280.150683 84.705 48.2120
2296.673595 84.776 47.8104
2313.316238 84.844 47.3960
2330.079481 84.909 46.9702
2346.964198 84.974 46.5260
2363.971268 85.036 46.0519
2381.101578 85.097 45.5393
2398.356022 85.152 44.9863
2415.735498 85.202 44.3969
2433.240913 85.244 43.7785
2450.873180 85.278 43.1391
2468.633217 85.304 42.4850
2486.521951 85.321 41.8229
2504.540314 85.328 41.1625
2522.689246 85.326 40.5174
2540.969692 85.316 39.9006
2559.382606 85.299 39.3181
2577.928947 85.278 38.7667
2596.609683 85.253 38.2387
2615.425787 85.224 37.7284
2634.378241 85.191 37.2348
2653.468031 85.152 36.7621
2672.696154 85.107 36.3192
2692.063613 85.057 35.9173
2711.571415 85.003 35.5644
2731.220579 84.948 35.2602
2751.012130 84.893 34.9974
2770.947098 84.838 34.7674
2791.026522 84.783 34.5647
2811.251451 84.729 34.3878
2831.622938 84.673 34.2379
2852.142045 84.617 34.1162
2872.809842 84.560 34.0251
2893.627406 84.503 33.9700
2914.595823 84.446 33.9587
2935.716186 84.392 33.9955
2956.989596 84.342 34.0755
2978.417161 84.297 34.1848
3000.000000 84.258 34.3073
3021.739237 84.224 34.4298
3043.636005 84.192 34.5459
3065.691446 84.162 34.6584
3087.906710 84.130 34.7775
3110.282955 84.098 34.9161
3132.821347 84.066 35.0847
3155.523062 84.035 35.2903
3178.389283 84.008 35.5359
3201.421202 83.986 35.8180
3224.620020 83.972 36.1244
3247.986946 83.965 36.4366
3271.523198 83.965 36.7380
3295.230004 83.970 37.0209
3319.108599 83.978 37.2877
3343.160228 83.987 37.5446
3367.386145 83.999 37.7962
3391.787613 84.012 38.0440
3416.365904 84.027 38.2873
3441.122300 84.043 38.5273
3466.058091 84.060 38.7703
3491.174576 84.078 39.0246
3516.473066 84.100 39.2936
3541.954880 84.125 39.5748
3567.621345 84.155 39.8619
3593.473800 84.189 40.1486
3619.513592 84.228 40.4281
3645.742080 84.271 40.6953
3672.160630 84.317 40.9508
3698.770620 84.365 41.2014
3725.573436 84.415 41.4536
3752.570477 84.470 41.7081
3779.763150 84.528 41.9607
3807.152872 84.591 42.2064
3834.741071 84.657 42.4460
3862.529185 84.727 42.6858
3890.518664 84.803 42.9308
3918.710966 84.886 43.1782
3947.107561 84.978 43.4172
3975.709929 85.081 43.6318
4004.519563 85.193 43.8041
4033.537962 85.315 43.9170
4062.766641 85.444 43.9594
4092.207123 85.579 43.9270
4121.860942 85.718 43.8163
4151.729646 85.862 43.6198
4181.814790 86.008 43.3271
4212.117944 86.153 42.9307
4242.640687 86.297 42.4306
4273.384610 86.435 41.8312
4304.351317 86.569 41.1355
4335.542421 86.695 40.3429
4366.959549 86.812 39.4508
4398.604338 86.919 38.4572
4430.478438 87.011 37.3648
4462.583511 87.084 36.1865
4494.921231 87.135 34.9440
4527.493283 87.164 33.6631
4560.301365 87.168 32.3685
4593.347189 87.146 31.0865
4626.632476 87.099 29.8480
4660.158962 87.028 28.6876
4693.928395 86.935 27.6371
4727.942535 86.825 26.7199
4762.203156 86.703 25.9487
4796.712043 86.573 25.3260
4831.470996 86.438 24.8481
4866.481826 86.301 24.5117
4901.746360 86.165 24.3140
4937.266434 86.033 24.2497
4973.043902 85.906 24.3100
5009.080628 85.787 24.4883
5045.378492 85.676 24.7831
5081.939384 85.575 25.1946
5118.765212 85.489 25.7193
5155.857894 85.420 26.3456
5193.219366 85.371 27.0532
5230.851574 85.344 27.8180
5268.756481 85.340 28.6172
5306.936062 85.361 29.4286
5345.392309 85.406 30.2274
5384.127225 85.475 30.9881
5423.142830 85.567 31.6894
5462.441159 85.681 32.3130
5502.024259 85.817 32.8401
5541.894195 85.974 33.2467
5582.053045 86.149 33.5034
5622.502902 86.339 33.5790
5663.245876 86.540 33.4478
5704.284090 86.745 33.0917
5745.619684 86.947 32.4995
5787.254813 87.140 31.6709
5829.191647 87.315 30.6205
5871.432373 87.466 29.3767
5913.979192 87.589 27.9771
5956.834323 87.680 26.4619
6000.000000 87.739 24.8702
6043.478473 87.764 23.2399
6087.272010 87.755 21.6079
6131.382892 87.714 20.0074
6175.813420 87.642 18.4686
6220.565910 87.540 17.0222
6265.642695 87.411 15.7006
6311.046124 87.258 14.5357
6356.778566 87.085 13.5541
6402.842404 86.900 12.7735
6449.240040 86.707 12.2024
6495.973891 86.513 11.8397
6543.046396 86.324 11.6746
6590.460007 86.144 11.6907
6638.217197 85.976 11.8708
6686.320456 85.824 12.2003
6734.772290 85.691 12.6648
6783.575226 85.579 13.2462
6832.731809 85.492 13.9224
6882.244600 85.434 14.6664
6932.116181 85.405 15.4444
6982.349153 85.406 16.2180
7032.946133 85.439 16.9488
7083.909760 85.500 17.6018
7135.242690 85.588 18.1454
7186.947600 85.700 18.5503
7239.027185 85.832 18.7907
7291.484160 85.980 18.8434
7344.321260 86.139 18.6880
7397.541239 86.303 18.3108
7451.146872 86.464 17.7103
7505.140954 86.616 16.8977
7559.526299 86.755 15.8945
7614.305743 86.876 14.7301
7669.482141 86.976 13.4385
7725.058371 87.057 12.0526
7781.037328 87.118 10.5993
7837.421932 87.162 9.0968
7894.215122 87.194 7.5518
7951.419859 87.217 5.9556
8009.039125 87.232 4.2836
8067.075924 87.239 2.5006
8125.533282 87.233 0.5709
8184.414245 87.204 -1.5252
8243.721885 87.141 -3.7747
8303.459292 87.033 -6.1266
8363.629581 86.870 -8.4979
8424.235888 86.651 -10.7856
8485.281374 86.379 -12.8869
8546.769221 86.067 -14.7247
8608.702634 85.731 -16.2733
8671.084842 85.386 -17.5715
8733.919097 85.041 -18.7026
8797.208675 84.691 -19.7293
8860.956876 84.325 -20.6389
8925.167022 83.938 -21.3573
8989.842461 83.530 -21.7972
9054.986566 83.110 -21.8963
9120.602731 82.692 -21.6349
9186.694378 82.289 -21.0332
9253.264952 81.913 -20.1368
9320.317925 81.572 -19.0058
9387.856790 81.271 -17.7054
9455.885071 81.012 -16.2931
9524.406312 80.793 -14.8086
9593.424086 80.613 -13.2733
9662.941992 80.475 -11.7036
9732.963653 80.380 -10.1315
9803.492719 80.333 -8.6120
9874.532869 80.331 -7.2119
9946.087805 80.373 -5.9974
10018.161257 80.452 -5.0230
10090.756983 80.561 -4.3294
10163.878768 80.692 -3.9500
10237.530423 80.837 -3.9148
10311.715789 80.985 -4.2456
10386.438732 81.123 -4.9482
10461.703149 81.240 -6.0049
10537.512962 81.324 -7.3789
10613.872125 81.366 -9.0221
10690.784618 81.359 -10.8791
10768.254450 81.295 -12.8852
10846.285661 81.168 -14.9602
10924.882318 80.975 -17.0100
11004.048518 80.718 -18.9370
11083.788390 80.400 -20.6519
11164.106090 80.031 -22.0804
11245.005805 79.620 -23.1631
11326.491752 79.179 -23.8552
11408.568180 78.719 -24.1305
11491.239368 78.253 -23.9846
11574.509626 77.795 -23.4336
11658.383294 77.354 -22.5042
11742.864745 76.939 -21.2261
11827.958384 76.559 -19.6322
11913.668646 76.223 -17.7662
12000.000000 75.941 -15.6903
12086.956947 75.718 -13.4867
12174.544019 75.560 -11.2564
12262.765784 75.466 -9.1098
12351.626840 75.431 -7.1514
12441.131819 75.444 -5.4627
12531.285389 75.495 -4.0968
12622.092249 75.570 -3.0839
12713.557132 75.658 -2.4356
12805.684808 75.747 -2.1440
12898.480079 75.826 -2.1854
12991.947783 75.890 -2.5354
13086.092792 75.930 -3.1784
13180.920015 75.937 -4.1010
13276.434395 75.900 -5.2729
13372.640911 75.807 -6.6319
13469.544580 75.647 -8.0828
13567.150452 75.414 -9.5083
13665.463617 75.106 -10.7797
13764.489200 74.724 -11.7576
13864.232362 74.275 -12.2887
13964.698305 73.771 -12.2055
14065.892266 73.233 -11.3261
14167.819519 72.693 -9.4565
14270.485380 72.200 -6.4194
14373.895200 71.820 -2.1432
14478.054370 71.632 3.1833
14582.968320 71.695 8.9933
14688.642520 72.021 14.4433
14795.082478 72.563 18.7544
14902.293745 73.240 21.5142
15010.281908 73.972 22.7032
15119.052599 74.703 22.5276
15228.611486 75.402 21.2435
15338.964283 76.055 19.0608
15450.116741 76.654 16.1208
15562.074656 77.191 12.5125
15674.843864 77.659 8.3010
15788.430244 78.048 3.5541
15902.839718 78.349 -1.6448
16018.078250 78.560 -7.2011
16134.151848 78.685 -13.0295
16251.066563 78.734 -19.0754
16368.828491 78.713 -25.3253
16487.443769 78.628 -31.7987
16606.918584 78.471 -38.5238
16727.259161 78.230 -45.5040
16848.471777 77.883 -52.6921
16970.562748 77.414 -59.9923
17093.538442 76.811 -67.2792
17217.405268 76.068 -74.4176
17342.169684 75.185 -81.2778
17467.838194 74.167 -87.7406
17594.417350 73.020 -93.6932
17721.913751 71.750 -99.0225
17850.334044 70.364 -103.6152
17979.684923 68.872 -107.3575
18109.973131 67.284 -110.1347
18241.205462 65.613 -111.8398
18373.388756 63.875 -112.3870
18506.529905 62.088 -111.7253
18640.635849 60.271 -109.8391
18775.713581 58.446 -106.7273
18911.770141 56.633 -102.3665
19048.812624 54.858 -96.6990
19186.848172 53.154 -89.7149
19325.883983 51.567 -81.6431
19465.927305 50.154 -73.1100
19606.985439 48.969 -65.0239
19749.065738 48.054 -58.2370
19892.175609 47.432 -53.3518
20036.322514 47.119 -50.7816
