* Measurement data measured by REW V5.31
* Source: EXCL: Microphone (USB Sound Device        ), MICROPHONE (Master Volume), L, volume: 0.390
* Format: 256k Log Swept Sine, 1 sweep at -10.0 dBFS with no timing reference
* Dated: Sep 26, 2024 12:04:01 AM
* REW Settings:
*  C-weighting compensation: Off
*  Target level: 75.0 dB
* Note: Kiwi Ears KE4 L
* Measurement: L Kiwi Ears KE4
* Smoothing: 1/12 octave
* Frequency Step: 96 ppo
* Start Frequency: 0.36621094 Hz
*
* Freq(Hz)	SPL(dB)	Phase(degrees)
0.366211	83.985	-108.8789
0.368865	84.002	-108.9641
0.371538	84.027	-109.0910
0.374230	84.059	-109.2491
0.376942	84.094	-109.4293
0.379673	84.131	-109.6252
0.382424	84.170	-109.8322
0.385196	84.211	-110.0477
0.387987	84.252	-110.2701
0.390798	84.293	-110.4984
0.393630	84.335	-110.7323
0.396483	84.377	-110.9713
0.399356	84.419	-111.2154
0.402250	84.462	-111.4644
0.405165	84.505	-111.7182
0.408101	84.549	-111.9767
0.411058	84.592	-112.2399
0.414037	84.636	-112.5078
0.417037	84.681	-112.7802
0.420059	84.725	-113.0570
0.423103	84.770	-113.3383
0.426169	84.816	-113.6238
0.429257	84.861	-113.9137
0.432368	84.907	-114.2076
0.435501	84.954	-114.5057
0.438656	85.000	-114.8077
0.441835	85.047	-115.1137
0.445037	85.095	-115.4234
0.448262	85.142	-115.7369
0.451510	85.190	-116.0540
0.454782	85.239	-116.3745
0.458077	85.288	-116.6986
0.461397	85.337	-117.0259
0.464740	85.386	-117.3564
0.468108	85.436	-117.6901
0.471500	85.486	-118.0267
0.474917	85.537	-118.3663
0.478358	85.587	-118.7087
0.481825	85.639	-119.0538
0.485316	85.690	-119.4014
0.488833	85.742	-119.7516
0.492375	85.795	-120.1041
0.495943	85.847	-120.4589
0.499537	85.901	-120.8160
0.503157	85.954	-121.1751
0.506803	86.008	-121.5361
0.510475	86.062	-121.8991
0.514175	86.117	-122.2639
0.517900	86.172	-122.6304
0.521653	86.228	-122.9985
0.525434	86.284	-123.3681
0.529241	86.340	-123.7392
0.533076	86.397	-124.1117
0.536939	86.454	-124.4854
0.540830	86.511	-124.8604
0.544749	86.569	-125.2365
0.548696	86.628	-125.6137
0.552673	86.686	-125.9919
0.556677	86.746	-126.3711
0.560711	86.805	-126.7512
0.564774	86.865	-127.1321
0.568867	86.926	-127.5139
0.572989	86.987	-127.8964
0.577141	87.048	-128.2797
0.581324	87.110	-128.6637
0.585536	87.173	-129.0484
0.589779	87.235	-129.4338
0.594053	87.298	-129.8199
0.598358	87.362	-130.2065
0.602694	87.426	-130.5939
0.607061	87.491	-130.9819
0.611460	87.556	-131.3706
0.615891	87.621	-131.7600
0.620354	87.688	-132.1501
0.624849	87.754	-132.5410
0.629377	87.821	-132.9326
0.633938	87.888	-133.3251
0.638532	87.956	-133.7185
0.643159	88.025	-134.1128
0.647819	88.094	-134.5081
0.652514	88.163	-134.9046
0.657242	88.233	-135.3022
0.662005	88.304	-135.7011
0.666802	88.375	-136.1013
0.671634	88.446	-136.5031
0.676501	88.518	-136.9065
0.681403	88.590	-137.3116
0.686341	88.663	-137.7186
0.691314	88.737	-138.1276
0.696324	88.811	-138.5388
0.701370	88.885	-138.9525
0.706452	88.959	-139.3688
0.711571	89.034	-139.7880
0.716728	89.108	-140.2105
0.721921	89.180	-140.6366
0.727153	89.252	-141.0668
0.732422	89.320	-141.5017
0.737729	89.387	-141.9420
0.743075	89.450	-142.3879
0.748460	89.512	-142.8400
0.753883	89.572	-143.2983
0.759346	89.630	-143.7629
0.764849	89.688	-144.2336
0.770391	89.746	-144.7103
0.775974	89.803	-145.1928
0.781597	89.859	-145.6809
0.787261	89.915	-146.1742
0.792966	89.971	-146.6727
0.798712	90.026	-147.1759
0.804500	90.081	-147.6836
0.810329	90.135	-148.1957
0.816201	90.189	-148.7118
0.822116	90.243	-149.2317
0.828073	90.296	-149.7552
0.834074	90.349	-150.2820
0.840118	90.401	-150.8118
0.846206	90.454	-151.3445
0.852338	90.505	-151.8798
0.858514	90.557	-152.4175
0.864735	90.608	-152.9574
0.871001	90.659	-153.4992
0.877313	90.709	-154.0428
0.883670	90.759	-154.5879
0.890074	90.809	-155.1344
0.896524	90.858	-155.6822
0.903020	90.908	-156.2310
0.909564	90.957	-156.7807
0.916155	91.005	-157.3311
0.922794	91.053	-157.8821
0.929481	91.101	-158.4336
0.936216	91.149	-158.9855
0.943000	91.197	-159.5377
0.949834	91.244	-160.0900
0.956717	91.291	-160.6424
0.963649	91.338	-161.1949
0.970632	91.385	-161.7474
0.977666	91.432	-162.2999
0.984750	91.478	-162.8522
0.991886	91.525	-163.4046
0.999074	91.571	-163.9568
1.006314	91.617	-164.5090
1.013606	91.664	-165.0613
1.020951	91.710	-165.6136
1.028349	91.756	-166.1660
1.035801	91.802	-166.7187
1.043307	91.849	-167.2719
1.050867	91.895	-167.8256
1.058482	91.941	-168.3802
1.066152	91.988	-168.9360
1.073878	92.035	-169.4937
1.081660	92.082	-170.0541
1.089498	92.128	-170.6182
1.097393	92.175	-171.1875
1.105345	92.222	-171.7637
1.113355	92.269	-172.3483
1.121423	92.315	-172.9427
1.129549	92.361	-173.5477
1.137734	92.407	-174.1637
1.145979	92.452	-174.7910
1.154283	92.497	-175.4294
1.162647	92.541	-176.0788
1.171072	92.585	-176.7388
1.179558	92.628	-177.4091
1.188106	92.671	-178.0892
1.196715	92.713	-178.7788
1.205387	92.756	-179.4774
1.214122	92.797	179.8156
1.222920	92.838	179.1007
1.231782	92.879	178.3784
1.240708	92.919	177.6492
1.249699	92.959	176.9138
1.258754	92.998	176.1727
1.267876	93.037	175.4266
1.277063	93.076	174.6761
1.286318	93.114	173.9220
1.295639	93.152	173.1649
1.305027	93.189	172.4055
1.314484	93.226	171.6445
1.324009	93.262	170.8826
1.333604	93.298	170.1207
1.343268	93.334	169.3594
1.353002	93.370	168.5995
1.362806	93.405	167.8419
1.372681	93.440	167.0873
1.382628	93.474	166.3364
1.392647	93.508	165.5900
1.402739	93.542	164.8487
1.412904	93.575	164.1131
1.423142	93.609	163.3835
1.433455	93.642	162.6600
1.443843	93.674	161.9421
1.454305	93.707	161.2286
1.464844	93.739	160.5179
1.475459	93.770	159.8076
1.486150	93.801	159.0952
1.496920	93.832	158.3788
1.507767	93.861	157.6570
1.518693	93.891	156.9290
1.529698	93.919	156.1944
1.540783	93.947	155.4531
1.551948	93.974	154.7053
1.563194	94.001	153.9511
1.574521	94.027	153.1911
1.585931	94.052	152.4255
1.597423	94.076	151.6550
1.608999	94.100	150.8798
1.620658	94.123	150.1007
1.632402	94.146	149.3181
1.644232	94.168	148.5327
1.656146	94.189	147.7450
1.668147	94.209	146.9557
1.680235	94.229	146.1656
1.692411	94.248	145.3752
1.704675	94.267	144.5854
1.717028	94.284	143.7969
1.729470	94.302	143.0103
1.742003	94.318	142.2265
1.754626	94.334	141.4462
1.767341	94.349	140.6698
1.780147	94.364	139.8978
1.793047	94.378	139.1302
1.806040	94.391	138.3666
1.819128	94.404	137.6060
1.832310	94.415	136.8463
1.845587	94.426	136.0854
1.858961	94.436	135.3209
1.872432	94.445	134.5507
1.886001	94.453	133.7737
1.899667	94.460	132.9891
1.913433	94.466	132.1969
1.927299	94.471	131.3971
1.941265	94.475	130.5902
1.955332	94.478	129.7769
1.969501	94.480	128.9580
1.983773	94.481	128.1345
1.998148	94.481	127.3072
2.012627	94.480	126.4775
2.027212	94.478	125.6467
2.041902	94.476	124.8160
2.056698	94.472	123.9871
2.071602	94.467	123.1614
2.086614	94.462	122.3408
2.101734	94.456	121.5268
2.116964	94.449	120.7212
2.132304	94.441	119.9257
2.147756	94.433	119.1416
2.163320	94.423	118.3697
2.178996	94.413	117.6103
2.194786	94.402	116.8626
2.210690	94.389	116.1252
2.226710	94.375	115.3960
2.242845	94.360	114.6730
2.259098	94.344	113.9547
2.275468	94.326	113.2402
2.291957	94.307	112.5288
2.308566	94.286	111.8204
2.325295	94.265	111.1152
2.342145	94.242	110.4137
2.359117	94.218	109.7162
2.376212	94.194	109.0237
2.393431	94.168	108.3371
2.410775	94.143	107.6575
2.428244	94.116	106.9862
2.445840	94.090	106.3247
2.463564	94.063	105.6745
2.481416	94.036	105.0374
2.499397	94.010	104.4152
2.517509	93.983	103.8097
2.535752	93.957	103.2227
2.554127	93.930	102.6557
2.572635	93.903	102.1097
2.591277	93.876	101.5852
2.610055	93.848	101.0821
2.628968	93.819	100.6001
2.648019	93.790	100.1385
2.667208	93.760	99.6964
2.686535	93.730	99.2728
2.706003	93.699	98.8669
2.725612	93.669	98.4777
2.745363	93.640	98.1042
2.765257	93.611	97.7457
2.785295	93.584	97.4011
2.805478	93.558	97.0698
2.825808	93.534	96.7512
2.846285	93.513	96.4451
2.866910	93.494	96.1514
2.887685	93.479	95.8710
2.908611	93.466	95.6053
2.929688	93.456	95.3567
2.950917	93.450	95.1278
2.972301	93.446	94.9208
2.993839	93.445	94.7371
3.015534	93.447	94.5766
3.037386	93.452	94.4380
3.059396	93.459	94.3190
3.081565	93.470	94.2168
3.103896	93.483	94.1281
3.126388	93.499	94.0492
3.149043	93.519	93.9764
3.171862	93.542	93.9058
3.194847	93.568	93.8339
3.217998	93.599	93.7578
3.241317	93.633	93.6751
3.264805	93.672	93.5851
3.288463	93.715	93.4883
3.312293	93.763	93.3865
3.336295	93.816	93.2823
3.360471	93.874	93.1774
3.384822	93.937	93.0721
3.409350	94.004	92.9656
3.434056	94.076	92.8557
3.458940	94.152	92.7397
3.484005	94.230	92.6143
3.509252	94.312	92.4760
3.534681	94.396	92.3211
3.560295	94.481	92.1463
3.586094	94.568	91.9486
3.612081	94.656	91.7257
3.638255	94.745	91.4760
3.664620	94.835	91.1995
3.691175	94.926	90.8969
3.717923	95.020	90.5699
3.744864	95.114	90.2203
3.772001	95.211	89.8500
3.799335	95.308	89.4604
3.826866	95.407	89.0527
3.854597	95.506	88.6278
3.882529	95.605	88.1865
3.910664	95.703	87.7288
3.939002	95.800	87.2547
3.967546	95.895	86.7638
3.996296	95.988	86.2550
4.025255	96.079	85.7273
4.054423	96.167	85.1796
4.083804	96.254	84.6115
4.113396	96.339	84.0237
4.143204	96.422	83.4180
4.173227	96.503	82.7970
4.203468	96.582	82.1638
4.233928	96.658	81.5217
4.264609	96.732	80.8736
4.295512	96.804	80.2221
4.326639	96.872	79.5688
4.357992	96.937	78.9144
4.389572	96.999	78.2580
4.421380	97.057	77.5981
4.453419	97.112	76.9334
4.485691	97.164	76.2633
4.518196	97.212	75.5889
4.550936	97.257	74.9126
4.583914	97.298	74.2376
4.617131	97.337	73.5678
4.650589	97.373	72.9071
4.684289	97.406	72.2587
4.718233	97.436	71.6249
4.752424	97.463	71.0070
4.786862	97.487	70.4044
4.821549	97.508	69.8164
4.856488	97.526	69.2420
4.891680	97.541	68.6813
4.927127	97.553	68.1352
4.962831	97.564	67.6054
4.998794	97.573	67.0942
5.035017	97.580	66.6043
5.071503	97.587	66.1381
5.108253	97.593	65.6975
5.145270	97.598	65.2838
5.182555	97.603	64.8973
5.220110	97.607	64.5375
5.257937	97.610	64.2031
5.296038	97.614	63.8928
5.334415	97.618	63.6050
5.373071	97.623	63.3387
5.412006	97.631	63.0928
5.451224	97.640	62.8672
5.490725	97.652	62.6620
5.530514	97.666	62.4776
5.570590	97.684	62.3137
5.610957	97.704	62.1686
5.651616	97.726	62.0394
5.692570	97.752	61.9222
5.733821	97.781	61.8127
5.775370	97.813	61.7067
5.817221	97.848	61.6011
5.859375	97.887	61.4938
5.901834	97.930	61.3840
5.944602	97.976	61.2709
5.987679	98.026	61.1531
6.031068	98.078	61.0285
6.074771	98.133	60.8939
6.118792	98.190	60.7461
6.163131	98.249	60.5820
6.207792	98.308	60.3993
6.252776	98.369	60.1967
6.298086	98.431	59.9740
6.343725	98.493	59.7318
6.389694	98.556	59.4707
6.435996	98.618	59.1915
6.482634	98.679	58.8945
6.529610	98.739	58.5800
6.576926	98.797	58.2478
6.624585	98.853	57.8982
6.672590	98.907	57.5316
6.720942	98.958	57.1498
6.769645	99.007	56.7552
6.818700	99.052	56.3506
6.868111	99.095	55.9390
6.917881	99.134	55.5227
6.968010	99.170	55.1032
7.018504	99.202	54.6815
7.069362	99.231	54.2590
7.120590	99.256	53.8373
7.172189	99.278	53.4193
7.224161	99.297	53.0080
7.276511	99.313	52.6061
7.329239	99.326	52.2156
7.382350	99.336	51.8378
7.435845	99.344	51.4734
7.489729	99.350	51.1229
7.544002	99.354	50.7872
7.598669	99.356	50.4671
7.653732	99.358	50.1638
7.709194	99.359	49.8778
7.765058	99.359	49.6092
7.821327	99.360	49.3574
7.878004	99.360	49.1211
7.935091	99.361	48.8988
7.992592	99.363	48.6888
8.050510	99.366	48.4898
8.108847	99.370	48.3007
8.167607	99.376	48.1199
8.226793	99.383	47.9457
8.286408	99.392	47.7756
8.346454	99.402	47.6071
8.406936	99.413	47.4380
8.467856	99.426	47.2665
8.529218	99.440	47.0914
8.591024	99.455	46.9117
8.653278	99.470	46.7260
8.715983	99.487	46.5333
8.779143	99.503	46.3327
8.842760	99.520	46.1235
8.906839	99.536	45.9058
8.971381	99.552	45.6800
9.036392	99.567	45.4468
9.101873	99.582	45.2069
9.167829	99.595	44.9611
9.234263	99.608	44.7101
9.301178	99.619	44.4549
9.368578	99.629	44.1968
9.436467	99.638	43.9372
9.504847	99.645	43.6774
9.573723	99.652	43.4183
9.643099	99.657	43.1608
9.712976	99.660	42.9055
9.783361	99.661	42.6529
9.854255	99.660	42.4036
9.925663	99.657	42.1578
9.997588	99.651	41.9156
10.070035	99.644	41.6765
10.143007	99.634	41.4399
10.216507	99.624	41.2054
10.290540	99.612	40.9720
10.365109	99.600	40.7392
10.440219	99.588	40.5061
10.515873	99.575	40.2717
10.592076	99.563	40.0351
10.668830	99.552	39.7956
10.746141	99.540	39.5526
10.824012	99.529	39.3057
10.902447	99.518	39.0546
10.981451	99.508	38.7992
11.061027	99.497	38.5393
11.141180	99.487	38.2753
11.221913	99.476	38.0075
11.303232	99.465	37.7365
11.385140	99.454	37.4627
11.467641	99.443	37.1868
11.550741	99.432	36.9092
11.634442	99.421	36.6306
11.718750	99.409	36.3515
11.803669	99.399	36.0723
11.889203	99.388	35.7935
11.975357	99.378	35.5151
12.062136	99.368	35.2373
12.149543	99.359	34.9602
12.237583	99.350	34.6838
12.326262	99.342	34.4081
12.415583	99.333	34.1329
12.505552	99.325	33.8583
12.596172	99.317	33.5842
12.687449	99.309	33.3109
12.779387	99.301	33.0384
12.871992	99.293	32.7671
12.965268	99.284	32.4973
13.059220	99.276	32.2297
13.153852	99.267	31.9646
13.249170	99.259	31.7028
13.345179	99.251	31.4445
13.441884	99.243	31.1905
13.539289	99.235	30.9409
13.637401	99.228	30.6960
13.736223	99.220	30.4559
13.835761	99.214	30.2202
13.936021	99.207	29.9889
14.037007	99.201	29.7612
14.138725	99.195	29.5367
14.241180	99.189	29.3145
14.344377	99.184	29.0941
14.448323	99.179	28.8747
14.553021	99.174	28.6559
14.658478	99.168	28.4372
14.764700	99.163	28.2186
14.871691	99.157	28.0000
14.979457	99.151	27.7819
15.088005	99.144	27.5648
15.197339	99.137	27.3492
15.307465	99.130	27.1360
15.418389	99.121	26.9260
15.530117	99.112	26.7198
15.642655	99.102	26.5180
15.756008	99.092	26.3209
15.870182	99.081	26.1285
15.985184	99.070	25.9407
16.101019	99.059	25.7568
16.217694	99.048	25.5760
16.335214	99.037	25.3976
16.453586	99.026	25.2203
16.572815	99.016	25.0432
16.692909	99.006	24.8652
16.813872	98.995	24.6858
16.935713	98.986	24.5043
17.058436	98.976	24.3206
17.182048	98.966	24.1345
17.306556	98.955	23.9467
17.431967	98.944	23.7573
17.558286	98.933	23.5671
17.685521	98.920	23.3766
17.813677	98.908	23.1864
17.942762	98.895	22.9967
18.072783	98.882	22.8079
18.203746	98.868	22.6197
18.335658	98.855	22.4320
18.468526	98.842	22.2443
18.602356	98.829	22.0563
18.737156	98.816	21.8673
18.872934	98.804	21.6771
19.009695	98.793	21.4853
19.147447	98.781	21.2918
19.286197	98.770	21.0967
19.425953	98.760	20.9001
19.566721	98.749	20.7026
19.708510	98.739	20.5043
19.851326	98.729	20.3057
19.995177	98.718	20.1072
20.140070	98.708	19.9089
20.286013	98.699	19.7111
20.433014	98.689	19.5139
20.581080	98.680	19.3174
20.730219	98.671	19.1219
20.880439	98.663	18.9274
21.031747	98.655	18.7343
21.184152	98.647	18.5428
21.337661	98.640	18.3536
21.492282	98.633	18.1669
21.648024	98.627	17.9829
21.804895	98.620	17.8021
21.962902	98.615	17.6243
22.122054	98.609	17.4495
22.282360	98.604	17.2775
22.443827	98.599	17.1079
22.606464	98.594	16.9405
22.770280	98.589	16.7751
22.935283	98.584	16.6117
23.101481	98.578	16.4504
23.268884	98.572	16.2916
23.437500	98.566	16.1356
23.607338	98.559	15.9830
23.778406	98.552	15.8340
23.950714	98.544	15.6886
24.124271	98.535	15.5468
24.299086	98.526	15.4080
24.475167	98.517	15.2717
24.652524	98.507	15.1370
24.831166	98.498	15.0033
25.011103	98.487	14.8700
25.192344	98.477	14.7366
25.374898	98.466	14.6030
25.558775	98.454	14.4691
25.743984	98.442	14.3350
25.930536	98.430	14.2009
26.118439	98.417	14.0670
26.307704	98.403	13.9332
26.498341	98.390	13.7992
26.690359	98.376	13.6649
26.883768	98.362	13.5300
27.078579	98.348	13.3942
27.274801	98.334	13.2572
27.472446	98.320	13.1188
27.671522	98.306	12.9790
27.872042	98.293	12.8378
28.074014	98.279	12.6951
28.277450	98.265	12.5510
28.482360	98.252	12.4059
28.688755	98.239	12.2597
28.896645	98.226	12.1130
29.106042	98.213	11.9663
29.316957	98.200	11.8200
29.529400	98.187	11.6747
29.743382	98.175	11.5309
29.958915	98.163	11.3889
30.176009	98.152	11.2487
30.394677	98.141	11.1105
30.614929	98.130	10.9739
30.836778	98.120	10.8391
31.060234	98.110	10.7060
31.285309	98.100	10.5747
31.512015	98.090	10.4455
31.740364	98.080	10.3186
31.970368	98.070	10.1942
32.202039	98.059	10.0722
32.435388	98.049	9.9524
32.670428	98.038	9.8344
32.907171	98.027	9.7177
33.145630	98.016	9.6019
33.385817	98.005	9.4868
33.627745	97.993	9.3723
33.871425	97.981	9.2584
34.116871	97.968	9.1452
34.364096	97.954	9.0326
34.613113	97.941	8.9205
34.863934	97.927	8.8090
35.116572	97.912	8.6978
35.371041	97.897	8.5867
35.627354	97.882	8.4755
35.885525	97.867	8.3643
36.145566	97.852	8.2528
36.407492	97.836	8.1411
36.671316	97.820	8.0291
36.937051	97.805	7.9169
37.204712	97.789	7.8047
37.474313	97.773	7.6929
37.745867	97.757	7.5818
38.019389	97.742	7.4717
38.294893	97.726	7.3627
38.572394	97.710	7.2551
38.851905	97.695	7.1489
39.133442	97.680	7.0443
39.417019	97.664	6.9415
39.702651	97.649	6.8407
39.990353	97.634	6.7419
40.280140	97.618	6.6456
40.572026	97.603	6.5514
40.866028	97.587	6.4592
41.162160	97.571	6.3688
41.460438	97.556	6.2800
41.760877	97.540	6.1925
42.063494	97.523	6.1062
42.368303	97.507	6.0210
42.675322	97.490	5.9368
42.984565	97.473	5.8535
43.296048	97.455	5.7710
43.609789	97.437	5.6892
43.925804	97.419	5.6081
44.244108	97.401	5.5276
44.564719	97.383	5.4478
44.887654	97.364	5.3685
45.212928	97.345	5.2900
45.540560	97.327	5.2125
45.870565	97.308	5.1359
46.202962	97.289	5.0604
46.537768	97.270	4.9860
46.875000	97.251	4.9126
47.214676	97.232	4.8405
47.556813	97.213	4.7698
47.901429	97.195	4.7006
48.248542	97.176	4.6332
48.598171	97.157	4.5675
48.950334	97.137	4.5033
49.305048	97.118	4.4406
49.662333	97.099	4.3793
50.022206	97.079	4.3197
50.384688	97.059	4.2620
50.749796	97.038	4.2064
51.117550	97.018	4.1533
51.487969	96.997	4.1023
51.861072	96.976	4.0533
52.236879	96.956	4.0059
52.615409	96.935	3.9597
52.996681	96.915	3.9149
53.380717	96.895	3.8716
53.767536	96.875	3.8301
54.157158	96.855	3.7904
54.549603	96.836	3.7522
54.944892	96.817	3.7152
55.343045	96.798	3.6787
55.744084	96.779	3.6423
56.148028	96.761	3.6056
56.554900	96.742	3.5679
56.964720	96.724	3.5287
57.377510	96.705	3.4873
57.793291	96.686	3.4435
58.212085	96.666	3.3973
58.633914	96.646	3.3495
59.058799	96.625	3.3012
59.486764	96.603	3.2537
59.917829	96.580	3.2083
60.352019	96.556	3.1655
60.789354	96.532	3.1261
61.229859	96.507	3.0902
61.673556	96.482	3.0578
62.120468	96.457	3.0289
62.570618	96.431	3.0035
63.024031	96.406	2.9819
63.480729	96.380	2.9638
63.940736	96.355	2.9492
64.404077	96.329	2.9379
64.870776	96.303	2.9290
65.340856	96.277	2.9224
65.814343	96.251	2.9175
66.291261	96.224	2.9144
66.771635	96.198	2.9126
67.255489	96.171	2.9117
67.742850	96.144	2.9114
68.233743	96.117	2.9111
68.728193	96.090	2.9110
69.226226	96.062	2.9111
69.727867	96.035	2.9117
70.233144	96.008	2.9133
70.742083	95.980	2.9158
71.254709	95.953	2.9192
71.771050	95.925	2.9240
72.291132	95.897	2.9303
72.814984	95.869	2.9392
73.342631	95.841	2.9514
73.874102	95.812	2.9681
74.409424	95.784	2.9897
74.948626	95.755	3.0165
75.491734	95.726	3.0469
76.038779	95.698	3.0794
76.589787	95.670	3.1124
77.144788	95.642	3.1450
77.703811	95.614	3.1767
78.266885	95.585	3.2075
78.834039	95.557	3.2371
79.405303	95.528	3.2646
79.980706	95.499	3.2889
80.560280	95.470	3.3090
81.144053	95.440	3.3239
81.732056	95.409	3.3337
82.324320	95.376	3.3399
82.920876	95.343	3.3444
83.521755	95.307	3.3503
84.126988	95.270	3.3608
84.736607	95.232	3.3792
85.350643	95.193	3.4076
85.969129	95.152	3.4479
86.592097	95.112	3.5010
87.219579	95.071	3.5668
87.851608	95.031	3.6442
88.488217	94.991	3.7312
89.129439	94.951	3.8259
89.775308	94.912	3.9266
90.425856	94.873	4.0317
91.081119	94.835	4.1401
91.741131	94.796	4.2510
92.405925	94.758	4.3640
93.075536	94.719	4.4790
93.750000	94.681	4.5961
94.429351	94.643	4.7153
95.113625	94.604	4.8369
95.802858	94.565	4.9614
96.497085	94.527	5.0892
97.196342	94.487	5.2208
97.900667	94.448	5.3568
98.610096	94.408	5.4983
99.324665	94.367	5.6460
100.044413	94.327	5.8008
100.769376	94.286	5.9628
101.499592	94.245	6.1316
102.235100	94.205	6.3062
102.975938	94.165	6.4851
103.722144	94.126	6.6674
104.473757	94.087	6.8518
105.230817	94.049	7.0375
105.993363	94.011	7.2238
106.761435	93.972	7.4100
107.535072	93.934	7.5958
108.314315	93.896	7.7807
109.099206	93.857	7.9642
109.889783	93.818	8.1456
110.686090	93.778	8.3248
111.488167	93.737	8.5024
112.296056	93.694	8.6797
113.109800	93.651	8.8593
113.929440	93.606	9.0443
114.755020	93.560	9.2393
115.586582	93.512	9.4492
116.424170	93.464	9.6781
117.267827	93.416	9.9276
118.117598	93.369	10.1960
118.973527	93.322	10.4795
119.835658	93.276	10.7747
120.704037	93.231	11.0803
121.578708	93.185	11.3956
122.459718	93.141	11.7173
123.347111	93.098	12.0406
124.240935	93.056	12.3625
125.141236	93.015	12.6815
126.048061	92.974	12.9975
126.961458	92.934	13.3114
127.881473	92.894	13.6246
128.808154	92.854	13.9391
129.741551	92.814	14.2562
130.681712	92.775	14.5765
131.628686	92.735	14.8997
132.582521	92.695	15.2250
133.543269	92.655	15.5519
134.510979	92.614	15.8812
135.485701	92.573	16.2148
136.467486	92.532	16.5547
137.456386	92.490	16.9025
138.452451	92.449	17.2591
139.455735	92.407	17.6241
140.466288	92.366	17.9966
141.484165	92.326	18.3749
142.509418	92.285	18.7576
143.542100	92.245	19.1438
144.582265	92.205	19.5330
145.629968	92.165	19.9253
146.685262	92.125	20.3214
147.748204	92.084	20.7229
148.818849	92.042	21.1324
149.897251	92.000	21.5525
150.983469	91.957	21.9855
152.077557	91.914	22.4327
153.179574	91.871	22.8954
154.289576	91.830	23.3729
155.407622	91.790	23.8624
156.533770	91.751	24.3590
157.668078	91.715	24.8569
158.810606	91.681	25.3512
159.961413	91.648	25.8387
161.120559	91.616	26.3191
162.288105	91.583	26.7935
163.464112	91.550	27.2646
164.648640	91.516	27.7363
165.841752	91.481	28.2122
167.043510	91.445	28.6957
168.253976	91.409	29.1898
169.473213	91.374	29.6967
170.701286	91.338	30.2164
171.938258	91.305	30.7474
173.184194	91.272	31.2866
174.439158	91.241	31.8309
175.703216	91.212	32.3779
176.976434	91.184	32.9259
178.258878	91.156	33.4742
179.550615	91.130	34.0223
180.851713	91.104	34.5701
182.162239	91.079	35.1176
183.482262	91.054	35.6650
184.811850	91.030	36.2125
186.151073	91.006	36.7601
187.500000	90.982	37.3085
188.858702	90.959	37.8589
190.227250	90.937	38.4129
191.605715	90.915	38.9717
192.994169	90.894	39.5364
194.392685	90.873	40.1071
195.801334	90.853	40.6839
197.220191	90.833	41.2671
198.649330	90.814	41.8571
200.088825	90.796	42.4545
201.538751	90.780	43.0587
202.999184	90.765	43.6678
204.470200	90.752	44.2780
205.951875	90.740	44.8848
207.444287	90.729	45.4849
208.947514	90.719	46.0774
210.461634	90.707	46.6642
211.986726	90.695	47.2490
213.522869	90.681	47.8369
215.070144	90.666	48.4337
216.628631	90.651	49.0439
218.198411	90.636	49.6694
219.779567	90.622	50.3070
221.372180	90.611	50.9504
222.976334	90.601	51.5928
224.592112	90.593	52.2299
226.219600	90.586	52.8606
227.858880	90.580	53.4857
229.510039	90.574	54.1067
231.173164	90.569	54.7251
232.848340	90.564	55.3412
234.535655	90.559	55.9548
236.235197	90.555	56.5652
237.947054	90.550	57.1720
239.671317	90.546	57.7758
241.408074	90.541	58.3782
243.157416	90.536	58.9819
244.919435	90.530	59.5903
246.694223	90.523	60.2064
248.481871	90.516	60.8335
250.282473	90.509	61.4742
252.096123	90.504	62.1298
253.922915	90.501	62.7985
255.762945	90.501	63.4739
257.616309	90.504	64.1456
259.483103	90.509	64.8031
261.363424	90.516	65.4410
263.257372	90.522	66.0612
265.165043	90.527	66.6709
267.086538	90.531	67.2789
269.021957	90.534	67.8925
270.971401	90.536	68.5157
272.934972	90.539	69.1489
274.912771	90.544	69.7902
276.904902	90.550	70.4366
278.911469	90.557	71.0856
280.932577	90.567	71.7343
282.968330	90.579	72.3786
285.018835	90.592	73.0127
287.084199	90.608	73.6292
289.164530	90.623	74.2221
291.259935	90.638	74.7907
293.370525	90.650	75.3410
295.496408	90.659	75.8837
297.637697	90.664	76.4293
299.794503	90.668	76.9847
301.966937	90.670	77.5523
304.155114	90.672	78.1313
306.359147	90.673	78.7184
308.579152	90.675	79.3094
310.815244	90.676	79.9008
313.067539	90.677	80.4907
315.336156	90.677	81.0805
317.621211	90.677	81.6744
319.922826	90.675	82.2771
322.241118	90.673	82.8913
324.576210	90.672	83.5160
326.928223	90.672	84.1483
329.297280	90.672	84.7850
331.683504	90.674	85.4230
334.087019	90.676	86.0600
336.507952	90.679	86.6942
338.946427	90.681	87.3250
341.402572	90.683	87.9535
343.876516	90.684	88.5823
346.368387	90.685	89.2140
348.878315	90.685	89.8498
351.406431	90.685	90.4899
353.952867	90.685	91.1336
356.517756	90.686	91.7798
359.101230	90.687	92.4268
361.703426	90.689	93.0737
364.324478	90.690	93.7198
366.964523	90.692	94.3653
369.623699	90.693	95.0108
372.302145	90.694	95.6567
375.000000	90.695	96.3031
377.717405	90.696	96.9494
380.454501	90.697	97.5956
383.211431	90.697	98.2421
385.988339	90.697	98.8895
388.785369	90.697	99.5386
391.602668	90.697	100.1901
394.440383	90.696	100.8446
397.298660	90.696	101.5023
400.177650	90.695	102.1624
403.077502	90.694	102.8229
405.998368	90.693	103.4819
408.940400	90.691	104.1389
411.903750	90.688	104.7957
414.888575	90.685	105.4561
417.895028	90.680	106.1246
420.923268	90.675	106.8040
423.973452	90.670	107.4952
427.045738	90.666	108.1964
430.140287	90.663	108.9034
433.257261	90.661	109.6108
436.396822	90.660	110.3156
439.559133	90.660	111.0172
442.744360	90.660	111.7155
445.952668	90.661	112.4090
449.184225	90.662	113.0934
452.439199	90.662	113.7639
455.717760	90.661	114.4188
459.020079	90.656	115.0640
462.346327	90.648	115.7129
465.696680	90.637	116.3787
469.071310	90.625	117.0677
472.470394	90.614	117.7762
475.894109	90.604	118.4915
479.342634	90.595	119.1969
482.816148	90.586	119.8791
486.314833	90.574	120.5381
489.838871	90.556	121.1910
493.388445	90.532	121.8637
496.963741	90.505	122.5760
500.564945	90.477	123.3322
504.192245	90.451	124.1227
507.845830	90.427	124.9314
511.525890	90.406	125.7433
515.232618	90.387	126.5508
518.966206	90.367	127.3547
522.726849	90.347	128.1620
526.514743	90.325	128.9811
530.330086	90.303	129.8171
534.173076	90.281	130.6690
538.043915	90.259	131.5327
541.942803	90.237	132.4070
545.869944	90.214	133.2952
549.825542	90.192	134.2006
553.809805	90.170	135.1228
557.822939	90.149	136.0590
561.865154	90.129	137.0062
565.936660	90.111	137.9629
570.037671	90.094	138.9295
574.168399	90.079	139.9061
578.329060	90.066	140.8907
582.519870	90.054	141.8785
586.741049	90.043	142.8660
590.992817	90.033	143.8531
595.275394	90.024	144.8413
599.589005	90.016	145.8295
603.933874	90.009	146.8140
608.310228	90.002	147.7917
612.718295	89.995	148.7632
617.158304	89.987	149.7329
621.630488	89.978	150.7089
626.135079	89.967	151.6993
630.672311	89.957	152.7072
635.242423	89.948	153.7288
639.845651	89.939	154.7580
644.482237	89.932	155.7930
649.152421	89.927	156.8352
653.856447	89.923	157.8835
658.594560	89.921	158.9306
663.367008	89.922	159.9657
668.174039	89.922	160.9807
673.015903	89.922	161.9768
677.892854	89.919	162.9630
682.805145	89.913	163.9494
687.753032	89.904	164.9435
692.736774	89.893	165.9512
697.756631	89.880	166.9769
702.812863	89.867	168.0221
707.905735	89.853	169.0845
713.035511	89.840	170.1595
718.202461	89.828	171.2435
723.406852	89.815	172.3359
728.648956	89.803	173.4377
733.929047	89.790	174.5499
739.247399	89.778	175.6733
744.604290	89.766	176.8083
750.000000	89.754	177.9556
755.434809	89.742	179.1152
760.909001	89.731	-179.7131
766.422861	89.720	-178.5301
771.976677	89.710	-177.3369
777.570739	89.701	-176.1345
783.205337	89.692	-174.9231
788.880766	89.684	-173.7010
794.597321	89.677	-172.4644
800.355301	89.671	-171.2102
806.155005	89.667	-169.9395
811.996736	89.667	-168.6586
817.880799	89.670	-167.3769
823.807501	89.676	-166.1049
829.777150	89.684	-164.8514
835.790057	89.693	-163.6189
841.846536	89.699	-162.3997
847.946903	89.704	-161.1825
854.091476	89.707	-159.9588
860.280575	89.708	-158.7248
866.514523	89.709	-157.4776
872.793644	89.709	-156.2139
879.118267	89.709	-154.9339
885.488720	89.710	-153.6422
891.905336	89.712	-152.3431
898.368450	89.715	-151.0372
904.878398	89.719	-149.7226
911.435520	89.724	-148.3989
918.040157	89.731	-147.0682
924.692655	89.739	-145.7333
931.393359	89.750	-144.3973
938.142619	89.761	-143.0631
944.940787	89.774	-141.7321
951.788218	89.787	-140.4028
958.685268	89.801	-139.0729
965.632296	89.815	-137.7400
972.629666	89.829	-136.4020
979.677741	89.844	-135.0585
986.776890	89.859	-133.7102
993.927482	89.875	-132.3557
1001.129891	89.891	-130.9895
1008.384491	89.909	-129.6071
1015.691660	89.929	-128.2094
1023.051781	89.952	-126.8018
1030.465236	89.979	-125.3931
1037.932411	90.010	-123.9969
1045.453698	90.045	-122.6274
1053.029486	90.081	-121.2910
1060.660172	90.116	-119.9839
1068.346153	90.149	-118.6956
1076.087829	90.179	-117.4150
1083.885605	90.207	-116.1342
1091.739887	90.234	-114.8506
1099.651084	90.259	-113.5640
1107.619609	90.283	-112.2738
1115.645878	90.306	-110.9790
1123.730308	90.327	-109.6778
1131.873321	90.348	-108.3683
1140.075341	90.368	-107.0493
1148.336797	90.388	-105.7199
1156.658119	90.408	-104.3795
1165.039741	90.428	-103.0272
1173.482099	90.449	-101.6617
1181.985634	90.472	-100.2841
1190.550789	90.498	-98.9017
1199.178011	90.528	-97.5275
1207.867749	90.559	-96.1744
1216.620457	90.591	-94.8482
1225.436590	90.622	-93.5440
1234.316609	90.649	-92.2520
1243.260976	90.673	-90.9619
1252.270157	90.695	-89.6647
1261.344623	90.713	-88.3559
1270.484846	90.730	-87.0342
1279.691303	90.745	-85.6982
1288.964474	90.758	-84.3468
1298.304842	90.771	-82.9808
1307.712894	90.784	-81.6030
1317.189120	90.797	-80.2169
1326.734016	90.810	-78.8243
1336.348077	90.823	-77.4244
1346.031806	90.836	-76.0139
1355.785708	90.849	-74.5882
1365.610290	90.863	-73.1427
1375.506065	90.877	-71.6717
1385.473549	90.894	-70.1695
1395.513261	90.913	-68.6346
1405.625726	90.936	-67.0731
1415.811469	90.964	-65.4985
1426.071023	90.996	-63.9271
1436.404921	91.030	-62.3691
1446.813703	91.064	-60.8246
1457.297912	91.097	-59.2872
1467.858093	91.129	-57.7495
1478.494798	91.159	-56.2062
1489.208581	91.187	-54.6533
1500.000000	91.211	-53.0873
1510.869618	91.232	-51.5047
1521.818002	91.250	-49.9024
1532.845723	91.264	-48.2776
1543.953355	91.275	-46.6282
1555.141477	91.285	-44.9537
1566.410674	91.295	-43.2586
1577.761531	91.308	-41.5553
1589.194642	91.324	-39.8594
1600.710601	91.342	-38.1808
1612.310010	91.359	-36.5193
1623.993473	91.376	-34.8680
1635.761599	91.391	-33.2175
1647.615002	91.405	-31.5597
1659.554299	91.418	-29.8890
1671.580114	91.431	-28.2019
1683.693072	91.445	-26.4984
1695.893807	91.459	-24.7810
1708.182952	91.474	-23.0523
1720.561150	91.489	-21.3119
1733.029045	91.503	-19.5558
1745.587288	91.517	-17.7779
1758.236533	91.530	-15.9703
1770.977440	91.546	-14.1273
1783.810673	91.565	-12.2509
1796.736900	91.590	-10.3541
1809.756796	91.622	-8.4561
1822.871040	91.659	-6.5725
1836.080315	91.700	-4.7101
1849.385310	91.745	-2.8693
1862.786718	91.792	-1.0473
1876.285239	91.840	0.7611
1889.881575	91.892	2.5630
1903.576436	91.946	4.3666
1917.370535	92.004	6.1795
1931.264593	92.069	8.0065
1945.259332	92.141	9.8463
1959.355483	92.221	11.6875
1973.553781	92.308	13.5129
1987.854965	92.401	15.3087
2002.259781	92.497	17.0703
2016.768981	92.594	18.8005
2031.383320	92.691	20.5056
2046.103561	92.787	22.1927
2060.930471	92.882	23.8674
2075.864823	92.977	25.5320
2090.907395	93.070	27.1873
2106.058972	93.162	28.8364
2121.320344	93.251	30.4861
2136.692305	93.339	32.1463
2152.175658	93.425	33.8266
2167.771210	93.512	35.5292
2183.479774	93.602	37.2450
2199.302169	93.695	38.9597
2215.239219	93.791	40.6616
2231.291755	93.890	42.3451
2247.460615	93.990	44.0097
2263.746641	94.091	45.6585
2280.150683	94.193	47.2973
2296.673595	94.296	48.9326
2313.316238	94.402	50.5684
2330.079481	94.512	52.2021
2346.964198	94.627	53.8215
2363.971268	94.746	55.4097
2381.101578	94.869	56.9537
2398.356022	94.994	58.4475
2415.735498	95.120	59.8909
2433.240913	95.246	61.2868
2450.873180	95.370	62.6376
2468.633217	95.492	63.9443
2486.521951	95.612	65.2088
2504.540314	95.729	66.4366
2522.689246	95.841	67.6372
2540.969692	95.951	68.8201
2559.382606	96.059	69.9877
2577.928947	96.165	71.1339
2596.609683	96.271	72.2498
2615.425787	96.375	73.3285
2634.378241	96.475	74.3679
2653.468031	96.572	75.3716
2672.696154	96.664	76.3484
2692.063613	96.751	77.3093
2711.571415	96.835	78.2612
2731.220579	96.917	79.2010
2751.012130	96.998	80.1181
2770.947098	97.077	81.0001
2791.026522	97.153	81.8387
2811.251451	97.225	82.6307
2831.622938	97.291	83.3771
2852.142045	97.350	84.0813
2872.809842	97.401	84.7504
2893.627406	97.441	85.3961
2914.595823	97.472	86.0347
2935.716186	97.494	86.6807
2956.989596	97.508	87.3410
2978.417161	97.516	88.0153
3000.000000	97.517	88.7012
3021.739237	97.512	89.3981
3043.636005	97.500	90.1107
3065.691446	97.480	90.8488
3087.906710	97.455	91.6240
3110.282955	97.425	92.4429
3132.821347	97.393	93.3028
3155.523062	97.359	94.1956
3178.389283	97.324	95.1124
3201.421202	97.288	96.0460
3224.620020	97.250	96.9911
3247.986946	97.210	97.9442
3271.523198	97.167	98.9054
3295.230004	97.120	99.8811
3319.108599	97.070	100.8803
3343.160228	97.017	101.9069
3367.386145	96.964	102.9585
3391.787613	96.910	104.0281
3416.365904	96.855	105.1105
3441.122300	96.799	106.2052
3466.058091	96.741	107.3184
3491.174576	96.682	108.4561
3516.473066	96.623	109.6183
3541.954880	96.565	110.7978
3567.621345	96.507	111.9846
3593.473800	96.449	113.1688
3619.513592	96.389	114.3430
3645.742080	96.326	115.5036
3672.160630	96.259	116.6549
3698.770620	96.184	117.8097
3725.573436	96.102	118.9826
3752.570477	96.014	120.1845
3779.763150	95.919	121.4228
3807.152872	95.816	122.7059
3834.741071	95.707	124.0474
3862.529185	95.591	125.4662
3890.518664	95.473	126.9773
3918.710966	95.355	128.5837
3947.107561	95.243	130.2744
3975.709929	95.138	132.0275
4004.519563	95.042	133.8139
4033.537962	94.956	135.6037
4062.766641	94.877	137.3748
4092.207123	94.803	139.1165
4121.860942	94.732	140.8254
4151.729646	94.661	142.4998
4181.814790	94.588	144.1419
4212.117944	94.510	145.7625
4242.640687	94.423	147.3861
4273.384610	94.328	149.0460
4304.351317	94.225	150.7748
4335.542421	94.117	152.5986
4366.959549	94.007	154.5336
4398.604338	93.901	156.5855
4430.478438	93.801	158.7519
4462.583511	93.712	161.0276
4494.921231	93.638	163.4036
4527.493283	93.582	165.8610
4560.301365	93.549	168.3689
4593.347189	93.540	170.8906
4626.632476	93.554	173.3937
4660.158962	93.591	175.8527
4693.928395	93.651	178.2440
4727.942535	93.733	-179.4585
4762.203156	93.835	-177.2836
4796.712043	93.954	-175.2613
4831.470996	94.086	-173.4154
4866.481826	94.227	-171.7580
4901.746360	94.372	-170.2919
4937.266434	94.517	-169.0163
4973.043902	94.658	-167.9274
5009.080628	94.790	-167.0137
5045.378492	94.910	-166.2544
5081.939384	95.015	-165.6245
5118.765212	95.105	-165.1011
5155.857894	95.179	-164.6669
5193.219366	95.238	-164.3103
5230.851574	95.280	-164.0211
5268.756481	95.304	-163.7853
5306.936062	95.310	-163.5874
5345.392309	95.297	-163.4132
5384.127225	95.266	-163.2484
5423.142830	95.214	-163.0735
5462.441159	95.144	-162.8643
5502.024259	95.056	-162.5974
5541.894195	94.953	-162.2554
5582.053045	94.840	-161.8316
5622.502902	94.719	-161.3273
5663.245876	94.593	-160.7472
5704.284090	94.464	-160.0988
5745.619684	94.334	-159.3937
5787.254813	94.203	-158.6438
5829.191647	94.070	-157.8558
5871.432373	93.936	-157.0298
5913.979192	93.801	-156.1621
5956.834323	93.664	-155.2501
6000.000000	93.527	-154.2937
6043.478473	93.390	-153.2924
6087.272010	93.252	-152.2432
6131.382892	93.115	-151.1425
6175.813420	92.979	-149.9851
6220.565910	92.843	-148.7606
6265.642695	92.709	-147.4529
6311.046124	92.580	-146.0450
6356.778566	92.458	-144.5259
6402.842404	92.349	-142.8955
6449.240040	92.257	-141.1640
6495.973891	92.186	-139.3518
6543.046396	92.139	-137.4881
6590.460007	92.119	-135.6049
6638.217197	92.125	-133.7310
6686.320456	92.158	-131.8901
6734.772290	92.217	-130.1036
6783.575226	92.303	-128.3948
6832.731809	92.414	-126.7881
6882.244600	92.548	-125.3076
6932.116181	92.702	-123.9774
6982.349153	92.874	-122.8198
7032.946133	93.061	-121.8542
7083.909760	93.260	-121.0970
7135.242690	93.468	-120.5625
7186.947600	93.681	-120.2618
7239.027185	93.893	-120.2001
7291.484160	94.101	-120.3760
7344.321260	94.299	-120.7817
7397.541239	94.483	-121.4017
7451.146872	94.648	-122.2125
7505.140954	94.791	-123.1843
7559.526299	94.911	-124.2830
7614.305743	95.009	-125.4718
7669.482141	95.087	-126.7196
7725.058371	95.151	-128.0175
7781.037328	95.204	-129.3865
7837.421932	95.245	-130.8677
7894.215122	95.266	-132.4933
7951.419859	95.254	-134.2566
8009.039125	95.199	-136.0995
8067.075924	95.095	-137.9284
8125.533282	94.942	-139.6454
8184.414245	94.749	-141.1702
8243.721885	94.524	-142.4475
8303.459292	94.277	-143.4446
8363.629581	94.020	-144.1476
8424.235888	93.763	-144.5575
8485.281374	93.516	-144.6914
8546.769221	93.288	-144.5847
8608.702634	93.087	-144.2869
8671.084842	92.916	-143.8533
8733.919097	92.780	-143.3386
8797.208675	92.676	-142.7932
8860.956876	92.606	-142.2631
8925.167022	92.565	-141.7940
8989.842461	92.551	-141.4296
9054.986566	92.558	-141.2040
9120.602731	92.577	-141.1348
9186.694378	92.603	-141.2203
9253.264952	92.629	-141.4425
9320.317925	92.651	-141.7767
9387.856790	92.667	-142.1998
9455.885071	92.678	-142.6931
9524.406312	92.681	-143.2402
9593.424086	92.678	-143.8245
9662.941992	92.668	-144.4279
9732.963653	92.654	-145.0357
9803.492719	92.636	-145.6412
9874.532869	92.617	-146.2445
9946.087805	92.596	-146.8478
10018.161257	92.573	-147.4485
10090.756983	92.547	-148.0380
10163.878768	92.519	-148.6069
10237.530423	92.492	-149.1512
10311.715789	92.465	-149.6721
10386.438732	92.441	-150.1732
10461.703149	92.420	-150.6553
10537.512962	92.403	-151.1194
10613.872125	92.393	-151.5706
10690.784618	92.389	-152.0198
10768.254450	92.392	-152.4791
10846.285661	92.403	-152.9548
10924.882318	92.419	-153.4463
11004.048518	92.444	-153.9521
11083.788390	92.478	-154.4754
11164.106090	92.524	-155.0259
11245.005805	92.585	-155.6161
11326.491752	92.662	-156.2615
11408.568180	92.759	-156.9872
11491.239368	92.880	-157.8324
11574.509626	93.023	-158.8499
11658.383294	93.188	-160.0956
11742.864745	93.370	-161.6211
11827.958384	93.563	-163.4724
11913.668646	93.757	-165.6897
12000.000000	93.944	-168.3030
12086.956947	94.109	-171.3234
12174.544019	94.240	-174.7375
12262.765784	94.323	-178.5089
12351.626840	94.346	177.4193
12441.131819	94.298	173.1243
12531.285389	94.172	168.7036
12622.092249	93.962	164.2686
12713.557132	93.670	159.9320
12805.684808	93.301	155.7964
12898.480079	92.861	151.9487
12991.947783	92.363	148.4583
13086.092792	91.818	145.3737
13180.920015	91.240	142.7177
13276.434395	90.643	140.4898
13372.640911	90.040	138.6723
13469.544580	89.441	137.2371
13567.150452	88.857	136.1460
13665.463617	88.296	135.3520
13764.489200	87.762	134.8059
13864.232362	87.260	134.4626
13964.698305	86.793	134.2805
14065.892266	86.363	134.2186
14167.819519	85.971	134.2387
14270.485380	85.618	134.3094
14373.895200	85.305	134.4033
14478.054370	85.032	134.4929
14582.968320	84.798	134.5524
14688.642520	84.603	134.5617
14795.082478	84.449	134.5036
14902.293745	84.336	134.3587
15010.281908	84.266	134.1057
15119.052599	84.242	133.7224
15228.611486	84.265	133.1836
15338.964283	84.338	132.4590
15450.116741	84.463	131.5170
15562.074656	84.639	130.3256
15674.843864	84.864	128.8501
15788.430244	85.135	127.0524
15902.839718	85.447	124.8932
16018.078250	85.794	122.3334
16134.151848	86.171	119.3350
16251.066563	86.568	115.8631
16368.828491	86.975	111.8927
16487.443769	87.383	107.4102
16606.918584	87.781	102.4133
16727.259161	88.159	96.9129
16848.471777	88.509	90.9340
16970.562748	88.824	84.5103
17093.538442	89.102	77.6790
17217.405268	89.343	70.4761
17342.169684	89.548	62.9289
17467.838194	89.719	55.0506
17594.417350	89.858	46.8396
17721.913751	89.962	38.2830
17850.334044	90.026	29.3604
17979.684923	90.040	20.0557
18109.973131	89.987	10.3716
18241.205462	89.849	0.3398
18373.388756	89.606	-9.9701
18506.529905	89.239	-20.4461
18640.635849	88.733	-30.9416
18775.713581	88.082	-41.2909
18911.770141	87.287	-51.3290
19048.812624	86.359	-60.9114
19186.848172	85.315	-69.9262
19325.883983	84.181	-78.2929
19465.927305	82.995	-85.9393
19606.985439	81.816	-92.7570
19749.065738	80.732	-98.5283
19892.175609	79.873	-102.8624
20036.322514	79.390	-105.2364
