* Measurement data measured by REW V5.31
* Source: EXCL: Microphone (USB Sound Device        ), MICROPHONE (Master Volume), L, volume: 0.250
* Format: 256k Log Swept Sine, 1 sweep at -10.0 dBFS with no timing reference
* Dated: Jul 1, 2024 1:21:41 AM
* REW Settings:
*  C-weighting compensation: Off
*  Target level: 75.0 dB
* Note: KZ AS10 PRO L
* Measurement: L KZ AS10 PRO
* Smoothing: 1/12 octave
* Frequency Step: 96 ppo
* Start Frequency: 0.36621094 Hz
*
* Freq(Hz) SPL(dB) Phase(degrees)
0.366211 84.782 158.7613
0.368865 84.777 158.7399
0.371538 84.769 158.7078
0.374230 84.759 158.6675
0.376942 84.749 158.6210
0.379673 84.737 158.5699
0.382424 84.725 158.5153
0.385196 84.713 158.4576
0.387987 84.701 158.3974
0.390798 84.688 158.3346
0.393630 84.675 158.2695
0.396483 84.662 158.2021
0.399356 84.649 158.1324
0.402250 84.636 158.0603
0.405165 84.623 157.9859
0.408101 84.610 157.9092
0.411058 84.596 157.8301
0.414037 84.583 157.7486
0.417037 84.569 157.6647
0.420059 84.556 157.5784
0.423103 84.542 157.4895
0.426169 84.528 157.3983
0.429257 84.514 157.3045
0.432368 84.500 157.2082
0.435501 84.486 157.1094
0.438656 84.471 157.0080
0.441835 84.457 156.9040
0.445037 84.443 156.7975
0.448262 84.428 156.6883
0.451510 84.413 156.5766
0.454782 84.398 156.4621
0.458077 84.384 156.3451
0.461397 84.369 156.2253
0.464740 84.353 156.1029
0.468108 84.338 155.9778
0.471500 84.323 155.8499
0.474917 84.307 155.7194
0.478358 84.292 155.5861
0.481825 84.276 155.4501
0.485316 84.260 155.3113
0.488833 84.244 155.1698
0.492375 84.228 155.0255
0.495943 84.212 154.8785
0.499537 84.196 154.7287
0.503157 84.180 154.5762
0.506803 84.163 154.4208
0.510475 84.146 154.2627
0.514175 84.130 154.1019
0.517900 84.113 153.9383
0.521653 84.096 153.7720
0.525434 84.079 153.6029
0.529241 84.062 153.4311
0.533076 84.044 153.2566
0.536939 84.027 153.0795
0.540830 84.009 152.8996
0.544749 83.991 152.7171
0.548696 83.973 152.5320
0.552673 83.956 152.3443
0.556677 83.937 152.1541
0.560711 83.919 151.9613
0.564774 83.901 151.7660
0.568867 83.882 151.5683
0.572989 83.864 151.3681
0.577141 83.845 151.1656
0.581324 83.826 150.9608
0.585536 83.807 150.7538
0.589779 83.788 150.5446
0.594053 83.768 150.3332
0.598358 83.749 150.1198
0.602694 83.729 149.9044
0.607061 83.709 149.6872
0.611460 83.690 149.4681
0.615891 83.669 149.2473
0.620354 83.649 149.0249
0.624849 83.629 148.8009
0.629377 83.608 148.5755
0.633938 83.588 148.3489
0.638532 83.567 148.1210
0.643159 83.546 147.8921
0.647819 83.525 147.6623
0.652514 83.504 147.4317
0.657242 83.482 147.2005
0.662005 83.461 146.9688
0.666802 83.439 146.7369
0.671634 83.417 146.5048
0.676501 83.395 146.2728
0.681403 83.373 146.0410
0.686341 83.351 145.8097
0.691314 83.328 145.5790
0.696324 83.305 145.3492
0.701370 83.282 145.1205
0.706452 83.259 144.8929
0.711571 83.235 144.6666
0.716728 83.211 144.4417
0.721921 83.185 144.2178
0.727153 83.159 143.9946
0.732422 83.131 143.7715
0.737729 83.101 143.5476
0.743075 83.069 143.3221
0.748460 83.036 143.0941
0.753883 83.001 142.8630
0.759346 82.966 142.6284
0.764849 82.930 142.3901
0.770391 82.893 142.1478
0.775974 82.856 141.9016
0.781597 82.818 141.6512
0.787261 82.779 141.3967
0.792966 82.740 141.1380
0.798712 82.701 140.8751
0.804500 82.660 140.6081
0.810329 82.619 140.3368
0.816201 82.578 140.0614
0.822116 82.536 139.7818
0.828073 82.493 139.4980
0.834074 82.450 139.2100
0.840118 82.406 138.9180
0.846206 82.361 138.6219
0.852338 82.316 138.3217
0.858514 82.270 138.0176
0.864735 82.223 137.7095
0.871001 82.175 137.3976
0.877313 82.127 137.0819
0.883670 82.078 136.7625
0.890074 82.028 136.4396
0.896524 81.977 136.1132
0.903020 81.925 135.7835
0.909564 81.873 135.4507
0.916155 81.820 135.1148
0.922794 81.765 134.7761
0.929481 81.710 134.4348
0.936216 81.654 134.0911
0.943000 81.597 133.7453
0.949834 81.539 133.3975
0.956717 81.480 133.0481
0.963649 81.420 132.6975
0.970632 81.358 132.3458
0.977666 81.296 131.9936
0.984750 81.233 131.6412
0.991886 81.168 131.2890
0.999074 81.102 130.9376
1.006314 81.035 130.5873
1.013606 80.967 130.2387
1.020951 80.898 129.8924
1.028349 80.827 129.5491
1.035801 80.755 129.2093
1.043307 80.682 128.8737
1.050867 80.607 128.5431
1.058482 80.531 128.2183
1.066152 80.453 127.9000
1.073878 80.374 127.5889
1.081660 80.293 127.2858
1.089498 80.210 126.9911
1.097393 80.126 126.7052
1.105345 80.040 126.4284
1.113355 79.951 126.1607
1.121423 79.861 125.9019
1.129549 79.768 125.6521
1.137734 79.673 125.4111
1.145979 79.576 125.1789
1.154283 79.477 124.9557
1.162647 79.375 124.7413
1.171072 79.271 124.5359
1.179558 79.165 124.3395
1.188106 79.057 124.1523
1.196715 78.947 123.9742
1.205387 78.835 123.8055
1.214122 78.721 123.6462
1.222920 78.605 123.4964
1.231782 78.487 123.3562
1.240708 78.367 123.2259
1.249699 78.245 123.1055
1.258754 78.122 122.9951
1.267876 77.998 122.8949
1.277063 77.871 122.8051
1.286318 77.744 122.7258
1.295639 77.615 122.6571
1.305027 77.484 122.5992
1.314484 77.353 122.5522
1.324009 77.220 122.5162
1.333604 77.087 122.4914
1.343268 76.952 122.4778
1.353002 76.817 122.4756
1.362806 76.681 122.4848
1.372681 76.545 122.5055
1.382628 76.409 122.5376
1.392647 76.272 122.5812
1.402739 76.134 122.6363
1.412904 75.997 122.7032
1.423142 75.860 122.7820
1.433455 75.722 122.8736
1.443843 75.585 122.9791
1.454305 75.446 123.1008
1.464844 75.306 123.2417
1.475459 75.164 123.4059
1.486150 75.019 123.5977
1.496920 74.870 123.8212
1.507767 74.718 124.0799
1.518693 74.562 124.3767
1.529698 74.402 124.7138
1.540783 74.238 125.0934
1.551948 74.072 125.5172
1.563194 73.902 125.9867
1.574521 73.731 126.5033
1.585931 73.558 127.0684
1.597423 73.384 127.6830
1.608999 73.209 128.3481
1.620658 73.034 129.0645
1.632402 72.861 129.8325
1.644232 72.688 130.6526
1.656146 72.518 131.5243
1.668147 72.352 132.4473
1.680235 72.189 133.4203
1.692411 72.030 134.4418
1.704675 71.878 135.5095
1.717028 71.732 136.6207
1.729470 71.593 137.7719
1.742003 71.463 138.9589
1.754626 71.342 140.1771
1.767341 71.233 141.4216
1.780147 71.134 142.6873
1.793047 71.049 143.9696
1.806040 70.978 145.2648
1.819128 70.921 146.5707
1.832310 70.880 147.8867
1.845587 70.855 149.2134
1.858961 70.846 150.5507
1.872432 70.854 151.8967
1.886001 70.877 153.2474
1.899667 70.915 154.5967
1.913433 70.968 155.9372
1.927299 71.035 157.2610
1.941265 71.114 158.5600
1.955332 71.205 159.8266
1.969501 71.307 161.0535
1.983773 71.418 162.2342
1.998148 71.538 163.3632
2.012627 71.666 164.4357
2.027212 71.799 165.4477
2.041902 71.938 166.3961
2.056698 72.080 167.2787
2.071602 72.224 168.0934
2.086614 72.369 168.8393
2.101734 72.514 169.5155
2.116964 72.657 170.1216
2.132304 72.797 170.6575
2.147756 72.933 171.1234
2.163320 73.065 171.5195
2.178996 73.192 171.8461
2.194786 73.316 172.1041
2.210690 73.437 172.2943
2.226710 73.557 172.4183
2.242845 73.677 172.4782
2.259098 73.798 172.4769
2.275468 73.920 172.4177
2.291957 74.043 172.3040
2.308566 74.167 172.1397
2.325295 74.291 171.9286
2.342145 74.417 171.6743
2.359117 74.542 171.3804
2.376212 74.667 171.0505
2.393431 74.790 170.6878
2.410775 74.913 170.2953
2.428244 75.033 169.8758
2.445840 75.151 169.4317
2.463564 75.265 168.9651
2.481416 75.376 168.4774
2.499397 75.483 167.9691
2.517509 75.586 167.4399
2.535752 75.683 166.8880
2.554127 75.776 166.3101
2.572635 75.863 165.7019
2.591277 75.945 165.0587
2.610055 76.023 164.3772
2.628968 76.095 163.6560
2.648019 76.164 162.8956
2.667208 76.227 162.0982
2.686535 76.287 161.2671
2.706003 76.343 160.4060
2.725612 76.395 159.5193
2.745363 76.444 158.6117
2.765257 76.489 157.6875
2.785295 76.531 156.7516
2.805478 76.570 155.8081
2.825808 76.606 154.8611
2.846285 76.639 153.9140
2.866910 76.670 152.9691
2.887685 76.698 152.0270
2.908611 76.724 151.0865
2.929688 76.747 150.1439
2.950917 76.766 149.1939
2.972301 76.783 148.2309
2.993839 76.795 147.2507
3.015534 76.804 146.2508
3.037386 76.809 145.2308
3.059396 76.811 144.1920
3.081565 76.810 143.1366
3.103896 76.805 142.0678
3.126388 76.797 140.9897
3.149043 76.787 139.9063
3.171862 76.774 138.8223
3.194847 76.759 137.7419
3.217998 76.742 136.6693
3.241317 76.722 135.6073
3.264805 76.701 134.5576
3.288463 76.678 133.5196
3.312293 76.653 132.4907
3.336295 76.625 131.4670
3.360471 76.594 130.4448
3.384822 76.561 129.4218
3.409350 76.525 128.3970
3.434056 76.486 127.3710
3.458940 76.446 126.3458
3.484005 76.403 125.3245
3.509252 76.360 124.3108
3.534681 76.316 123.3094
3.560295 76.272 122.3255
3.586094 76.227 121.3643
3.612081 76.184 120.4310
3.638255 76.140 119.5296
3.664620 76.097 118.6632
3.691175 76.054 117.8328
3.717923 76.010 117.0381
3.744864 75.966 116.2776
3.772001 75.923 115.5495
3.799335 75.880 114.8516
3.826866 75.838 114.1823
3.854597 75.797 113.5399
3.882529 75.760 112.9234
3.910664 75.726 112.3322
3.939002 75.697 111.7667
3.967546 75.672 111.2281
3.996296 75.654 110.7188
4.025255 75.641 110.2419
4.054423 75.635 109.8011
4.083804 75.634 109.3988
4.113396 75.640 109.0355
4.143204 75.651 108.7090
4.173227 75.668 108.4150
4.203468 75.692 108.1476
4.233928 75.722 107.9002
4.264609 75.759 107.6659
4.295512 75.803 107.4384
4.326639 75.855 107.2128
4.357992 75.915 106.9861
4.389572 75.983 106.7580
4.421380 76.061 106.5300
4.453419 76.147 106.3040
4.485691 76.242 106.0806
4.518196 76.346 105.8579
4.550936 76.457 105.6319
4.583914 76.574 105.3972
4.617131 76.696 105.1476
4.650589 76.824 104.8769
4.684289 76.954 104.5799
4.718233 77.088 104.2527
4.752424 77.225 103.8937
4.786862 77.365 103.5033
4.821549 77.508 103.0837
4.856488 77.654 102.6375
4.891680 77.803 102.1673
4.927127 77.954 101.6750
4.962831 78.106 101.1618
4.998794 78.257 100.6284
5.035017 78.408 100.0745
5.071503 78.557 99.4996
5.108253 78.703 98.9030
5.145270 78.847 98.2842
5.182555 78.988 97.6436
5.220110 79.127 96.9831
5.257937 79.263 96.3060
5.296038 79.397 95.6167
5.334415 79.527 94.9198
5.373071 79.654 94.2195
5.412006 79.777 93.5192
5.451224 79.895 92.8209
5.490725 80.010 92.1249
5.530514 80.120 91.4308
5.570590 80.226 90.7383
5.610957 80.327 90.0485
5.651616 80.424 89.3641
5.692570 80.517 88.6891
5.733821 80.606 88.0279
5.775370 80.691 87.3847
5.817221 80.773 86.7626
5.859375 80.851 86.1632
5.901834 80.926 85.5869
5.944602 80.998 85.0332
5.987679 81.066 84.5020
6.031068 81.131 83.9940
6.074771 81.194 83.5108
6.118792 81.256 83.0542
6.163131 81.316 82.6264
6.207792 81.376 82.2290
6.252776 81.435 81.8627
6.298086 81.494 81.5272
6.343725 81.552 81.2210
6.389694 81.611 80.9422
6.435996 81.670 80.6884
6.482634 81.730 80.4574
6.529610 81.792 80.2472
6.576926 81.856 80.0566
6.624585 81.923 79.8845
6.672590 81.992 79.7297
6.720942 82.063 79.5897
6.769645 82.136 79.4611
6.818700 82.212 79.3398
6.868111 82.289 79.2215
6.917881 82.369 79.1028
6.968010 82.452 78.9810
7.018504 82.536 78.8548
7.069362 82.622 78.7226
7.120590 82.710 78.5830
7.172189 82.799 78.4339
7.224161 82.888 78.2730
7.276511 82.978 78.0982
7.329239 83.067 77.9081
7.382350 83.156 77.7022
7.435845 83.243 77.4807
7.489729 83.330 77.2446
7.544002 83.415 76.9948
7.598669 83.498 76.7326
7.653732 83.578 76.4586
7.709194 83.656 76.1737
7.765058 83.731 75.8787
7.821327 83.803 75.5751
7.878004 83.872 75.2651
7.935091 83.938 74.9511
7.992592 84.000 74.6355
8.050510 84.059 74.3204
8.108847 84.116 74.0070
8.167607 84.169 73.6966
8.226793 84.219 73.3903
8.286408 84.267 73.0896
8.346454 84.312 72.7962
8.406936 84.356 72.5112
8.467856 84.397 72.2356
8.529218 84.437 71.9694
8.591024 84.476 71.7124
8.653278 84.514 71.4639
8.715983 84.552 71.2234
8.779143 84.589 70.9901
8.842760 84.626 70.7634
8.906839 84.663 70.5420
8.971381 84.701 70.3242
9.036392 84.739 70.1080
9.101873 84.778 69.8915
9.167829 84.817 69.6727
9.234263 84.857 69.4501
9.301178 84.897 69.2223
9.368578 84.939 68.9878
9.436467 84.980 68.7450
9.504847 85.021 68.4925
9.573723 85.062 68.2292
9.643099 85.103 67.9547
9.712976 85.142 67.6687
9.783361 85.179 67.3713
9.854255 85.214 67.0626
9.925663 85.246 66.7427
9.997588 85.274 66.4123
10.070035 85.299 66.0720
10.143007 85.321 65.7230
10.216507 85.341 65.3664
10.290540 85.358 65.0031
10.365109 85.373 64.6340
10.440219 85.386 64.2601
10.515873 85.397 63.8821
10.592076 85.408 63.5009
10.668830 85.417 63.1172
10.746141 85.427 62.7313
10.824012 85.436 62.3434
10.902447 85.445 61.9535
10.981451 85.454 61.5616
11.061027 85.464 61.1675
11.141180 85.474 60.7709
11.221913 85.485 60.3714
11.303232 85.496 59.9686
11.385140 85.508 59.5620
11.467641 85.521 59.1515
11.550741 85.534 58.7367
11.634442 85.548 58.3176
11.718750 85.564 57.8942
11.803669 85.580 57.4665
11.889203 85.597 57.0350
11.975357 85.615 56.6002
12.062136 85.633 56.1625
12.149543 85.653 55.7227
12.237583 85.673 55.2814
12.326262 85.694 54.8395
12.415583 85.715 54.3975
12.505552 85.737 53.9562
12.596172 85.760 53.5162
12.687449 85.782 53.0778
12.779387 85.806 52.6415
12.871992 85.830 52.2075
12.965268 85.855 51.7759
13.059220 85.881 51.3467
13.153852 85.908 50.9198
13.249170 85.936 50.4953
13.345179 85.965 50.0729
13.441884 85.995 49.6528
13.539289 86.025 49.2349
13.637401 86.056 48.8193
13.736223 86.087 48.4064
13.835761 86.119 47.9965
13.936021 86.151 47.5901
14.037007 86.182 47.1876
14.138725 86.214 46.7897
14.241180 86.245 46.3969
14.344377 86.275 46.0097
14.448323 86.306 45.6287
14.553021 86.336 45.2540
14.658478 86.365 44.8858
14.764700 86.395 44.5241
14.871691 86.425 44.1686
14.979457 86.454 43.8189
15.088005 86.483 43.4743
15.197339 86.513 43.1343
15.307465 86.542 42.7981
15.418389 86.571 42.4649
15.530117 86.599 42.1341
15.642655 86.627 41.8051
15.756008 86.654 41.4773
15.870182 86.680 41.1506
15.985184 86.705 40.8247
16.101019 86.729 40.4997
16.217694 86.752 40.1755
16.335214 86.773 39.8523
16.453586 86.794 39.5302
16.572815 86.813 39.2093
16.692909 86.831 38.8896
16.813872 86.849 38.5710
16.935713 86.866 38.2531
17.058436 86.882 37.9356
17.182048 86.898 37.6179
17.306556 86.913 37.2995
17.431967 86.927 36.9798
17.558286 86.940 36.6581
17.685521 86.953 36.3339
17.813677 86.965 36.0068
17.942762 86.976 35.6764
18.072783 86.987 35.3424
18.203746 86.996 35.0046
18.335658 87.006 34.6630
18.468526 87.015 34.3175
18.602356 87.023 33.9680
18.737156 87.032 33.6145
18.872934 87.040 33.2567
19.009695 87.048 32.8947
19.147447 87.057 32.5284
19.286197 87.066 32.1578
19.425953 87.075 31.7829
19.566721 87.084 31.4040
19.708510 87.093 31.0216
19.851326 87.102 30.6359
19.995177 87.112 30.2478
20.140070 87.122 29.8576
20.286013 87.132 29.4660
20.433014 87.143 29.0734
20.581080 87.155 28.6800
20.730219 87.167 28.2858
20.880439 87.180 27.8907
21.031747 87.195 27.4944
21.184152 87.210 27.0967
21.337661 87.227 26.6974
21.492282 87.244 26.2968
21.648024 87.262 25.8953
21.804895 87.280 25.4938
21.962902 87.298 25.0935
22.122054 87.316 24.6957
22.282360 87.334 24.3018
22.443827 87.353 23.9131
22.606464 87.371 23.5299
22.770280 87.389 23.1524
22.935283 87.408 22.7798
23.101481 87.427 22.4107
23.268884 87.447 22.0432
23.437500 87.466 21.6754
23.607338 87.485 21.3057
23.778406 87.504 20.9333
23.950714 87.520 20.5582
24.124271 87.535 20.1819
24.299086 87.547 19.8070
24.475167 87.557 19.4366
24.652524 87.564 19.0745
24.831166 87.569 18.7239
25.011103 87.572 18.3872
25.192344 87.575 18.0650
25.374898 87.577 17.7559
25.558775 87.580 17.4569
25.743984 87.585 17.1629
25.930536 87.591 16.8681
26.118439 87.598 16.5668
26.307704 87.606 16.2540
26.498341 87.614 15.9264
26.690359 87.621 15.5833
26.883768 87.627 15.2262
27.078579 87.630 14.8585
27.274801 87.632 14.4851
27.472446 87.631 14.1111
27.671522 87.628 13.7410
27.872042 87.625 13.3776
28.074014 87.622 13.0216
28.277450 87.619 12.6713
28.482360 87.619 12.3233
28.688755 87.620 11.9733
28.896645 87.623 11.6167
29.106042 87.627 11.2503
29.316957 87.633 10.8723
29.529400 87.638 10.4832
29.743382 87.643 10.0852
29.958915 87.648 9.6818
30.176009 87.651 9.2769
30.394677 87.654 8.8739
30.614929 87.657 8.4751
30.836778 87.660 8.0815
31.060234 87.662 7.6929
31.285309 87.665 7.3081
31.512015 87.668 6.9262
31.740364 87.671 6.5467
31.970368 87.673 6.1696
32.202039 87.675 5.7960
32.435388 87.676 5.4272
32.670428 87.675 5.0643
32.907171 87.675 4.7077
33.145630 87.674 4.3570
33.385817 87.672 4.0108
33.627745 87.671 3.6675
33.871425 87.668 3.3253
34.116871 87.666 2.9832
34.364096 87.662 2.6411
34.613113 87.658 2.2994
34.863934 87.653 1.9588
35.116572 87.647 1.6198
35.371041 87.641 1.2824
35.627354 87.634 0.9456
35.885525 87.628 0.6077
36.145566 87.621 0.2669
36.407492 87.615 -0.0785
36.671316 87.608 -0.4295
36.937051 87.602 -0.7864
37.204712 87.595 -1.1488
37.474313 87.587 -1.5156
37.745867 87.579 -1.8856
38.019389 87.570 -2.2575
38.294893 87.561 -2.6299
38.572394 87.551 -3.0018
38.851905 87.541 -3.3722
39.133442 87.531 -3.7399
39.417019 87.520 -4.1041
39.702651 87.510 -4.4638
39.990353 87.499 -4.8179
40.280140 87.489 -5.1660
40.572026 87.478 -5.5078
40.866028 87.469 -5.8440
41.162160 87.460 -6.1764
41.460438 87.453 -6.5073
41.760877 87.446 -6.8397
42.063494 87.439 -7.1759
42.368303 87.433 -7.5170
42.675322 87.425 -7.8628
42.984565 87.417 -8.2113
43.296048 87.407 -8.5604
43.609789 87.396 -8.9077
43.925804 87.385 -9.2525
44.244108 87.372 -9.5948
44.564719 87.358 -9.9356
44.887654 87.344 -10.2757
45.212928 87.329 -10.6148
45.540560 87.312 -10.9513
45.870565 87.294 -11.2829
46.202962 87.275 -11.6075
46.537768 87.255 -11.9242
46.875000 87.236 -12.2340
47.214676 87.217 -12.5399
47.556813 87.199 -12.8452
47.901429 87.182 -13.1534
48.248542 87.165 -13.4661
48.598171 87.147 -13.7837
48.950334 87.130 -14.1054
49.305048 87.113 -14.4301
49.662333 87.095 -14.7574
50.022206 87.077 -15.0872
50.384688 87.060 -15.4195
50.749796 87.042 -15.7541
51.117550 87.024 -16.0901
51.487969 87.006 -16.4263
51.861072 86.988 -16.7618
52.236879 86.969 -17.0964
52.615409 86.951 -17.4299
52.996681 86.933 -17.7620
53.380717 86.915 -18.0918
53.767536 86.896 -18.4182
54.157158 86.878 -18.7404
54.549603 86.859 -19.0583
54.944892 86.840 -19.3730
55.343045 86.821 -19.6859
55.744084 86.802 -19.9983
56.148028 86.783 -20.3112
56.554900 86.763 -20.6258
56.964720 86.744 -20.9436
57.377510 86.724 -21.2663
57.793291 86.703 -21.5951
58.212085 86.682 -21.9301
58.633914 86.661 -22.2707
59.058799 86.638 -22.6160
59.486764 86.615 -22.9657
59.917829 86.591 -23.3188
60.352019 86.565 -23.6723
60.789354 86.538 -24.0209
61.229859 86.509 -24.3582
61.673556 86.481 -24.6803
62.120468 86.453 -24.9885
62.570618 86.427 -25.2887
63.024031 86.403 -25.5879
63.480729 86.379 -25.8902
63.940736 86.355 -26.1954
64.404077 86.330 -26.5014
64.870776 86.305 -26.8069
65.340856 86.279 -27.1135
65.814343 86.254 -27.4238
66.291261 86.227 -27.7393
66.771635 86.199 -28.0597
67.255489 86.170 -28.3826
67.742850 86.139 -28.7039
68.233743 86.107 -29.0193
68.728193 86.075 -29.3253
69.226226 86.043 -29.6214
69.727867 86.011 -29.9107
70.233144 85.980 -30.1972
70.742083 85.949 -30.4821
71.254709 85.918 -30.7634
71.771050 85.885 -31.0370
72.291132 85.852 -31.3015
72.814984 85.819 -31.5585
73.342631 85.785 -31.8110
73.874102 85.750 -32.0593
74.409424 85.714 -32.2987
74.948626 85.678 -32.5228
75.491734 85.644 -32.7310
76.038779 85.615 -32.9345
76.589787 85.592 -33.1555
77.144788 85.573 -33.4164
77.703811 85.556 -33.7278
78.266885 85.537 -34.0834
78.834039 85.514 -34.4646
79.405303 85.487 -34.8512
79.980706 85.458 -35.2296
80.560280 85.428 -35.5954
81.144053 85.397 -35.9514
81.732056 85.367 -36.3020
82.324320 85.336 -36.6500
82.920876 85.303 -36.9953
83.521755 85.268 -37.3365
84.126988 85.231 -37.6712
84.736607 85.191 -37.9960
85.350643 85.150 -38.3071
85.969129 85.106 -38.6025
86.592097 85.063 -38.8834
87.219579 85.020 -39.1523
87.851608 84.977 -39.4116
88.488217 84.937 -39.6635
89.129439 84.897 -39.9102
89.775308 84.860 -40.1539
90.425856 84.823 -40.3962
91.081119 84.787 -40.6383
91.741131 84.752 -40.8807
92.405925 84.716 -41.1232
93.075536 84.679 -41.3653
93.750000 84.640 -41.6089
94.429351 84.601 -41.8591
95.113625 84.560 -42.1207
95.802858 84.518 -42.3959
96.497085 84.475 -42.6861
97.196342 84.430 -42.9935
97.900667 84.385 -43.3195
98.610096 84.339 -43.6597
99.324665 84.291 -43.9999
100.044413 84.241 -44.3166
100.769376 84.191 -44.5862
101.499592 84.146 -44.8009
102.235100 84.109 -44.9755
102.975938 84.079 -45.1349
103.722144 84.053 -45.2971
104.473757 84.029 -45.4689
105.230817 84.004 -45.6500
105.993363 83.976 -45.8383
106.761435 83.944 -46.0330
107.535072 83.908 -46.2361
108.314315 83.869 -46.4519
109.099206 83.828 -46.6844
109.889783 83.783 -46.9349
110.686090 83.737 -47.2019
111.488167 83.692 -47.4819
112.296056 83.647 -47.7715
113.109800 83.605 -48.0681
113.929440 83.566 -48.3680
114.755020 83.530 -48.6638
115.586582 83.497 -48.9442
116.424170 83.466 -49.2020
117.267827 83.438 -49.4402
118.117598 83.409 -49.6697
118.973527 83.376 -49.9003
119.835658 83.335 -50.1287
120.704037 83.283 -50.3325
121.578708 83.223 -50.4900
122.459718 83.160 -50.6040
123.347111 83.098 -50.6989
124.240935 83.040 -50.8007
125.141236 82.986 -50.9256
126.048061 82.937 -51.0785
126.961458 82.891 -51.2551
127.881473 82.849 -51.4472
128.808154 82.808 -51.6485
129.741551 82.769 -51.8558
130.681712 82.730 -52.0663
131.628686 82.691 -52.2770
132.582521 82.651 -52.4858
133.543269 82.609 -52.6926
134.510979 82.567 -52.8978
135.485701 82.524 -53.1011
136.467486 82.481 -53.3018
137.456386 82.437 -53.5003
138.452451 82.394 -53.6977
139.455735 82.350 -53.8952
140.466288 82.305 -54.0926
141.484165 82.260 -54.2882
142.509418 82.214 -54.4804
143.542100 82.169 -54.6708
144.582265 82.125 -54.8630
145.629968 82.081 -55.0599
146.685262 82.037 -55.2628
147.748204 81.994 -55.4708
148.818849 81.950 -55.6814
149.897251 81.907 -55.8909
150.983469 81.862 -56.0950
152.077557 81.817 -56.2883
153.179574 81.770 -56.4631
154.289576 81.720 -56.6103
155.407622 81.670 -56.7251
156.533770 81.619 -56.8154
157.668078 81.570 -56.8988
158.810606 81.523 -56.9910
159.961413 81.476 -57.0989
161.120559 81.431 -57.2226
162.288105 81.385 -57.3597
163.464112 81.340 -57.5068
164.648640 81.294 -57.6601
165.841752 81.247 -57.8152
167.043510 81.200 -57.9663
168.253976 81.153 -58.1059
169.473213 81.107 -58.2252
170.701286 81.062 -58.3189
171.938258 81.021 -58.3882
173.184194 80.982 -58.4441
174.439158 80.944 -58.5062
175.703216 80.906 -58.5995
176.976434 80.865 -58.7409
178.258878 80.821 -58.9256
179.550615 80.772 -59.1332
180.851713 80.722 -59.3426
182.162239 80.673 -59.5412
183.482262 80.624 -59.7236
184.811850 80.577 -59.8901
186.151073 80.531 -60.0438
187.500000 80.485 -60.1882
188.858702 80.438 -60.3268
190.227250 80.392 -60.4627
191.605715 80.347 -60.5977
192.994169 80.302 -60.7318
194.392685 80.257 -60.8639
195.801334 80.214 -60.9924
197.220191 80.170 -61.1160
198.649330 80.127 -61.2335
200.088825 80.085 -61.3429
201.538751 80.042 -61.4431
202.999184 80.001 -61.5366
204.470200 79.961 -61.6292
205.951875 79.922 -61.7272
207.444287 79.883 -61.8344
208.947514 79.844 -61.9515
210.461634 79.805 -62.0761
211.986726 79.764 -62.2038
213.522869 79.722 -62.3288
215.070144 79.678 -62.4446
216.628631 79.633 -62.5464
218.198411 79.589 -62.6330
219.779567 79.546 -62.7086
221.372180 79.506 -62.7809
222.976334 79.467 -62.8564
224.592112 79.429 -62.9359
226.219600 79.390 -63.0137
227.858880 79.351 -63.0843
229.510039 79.311 -63.1478
231.173164 79.270 -63.2086
232.848340 79.230 -63.2722
234.535655 79.189 -63.3419
236.235197 79.150 -63.4184
237.947054 79.111 -63.5005
239.671317 79.072 -63.5862
241.408074 79.034 -63.6731
243.157416 78.994 -63.7590
244.919435 78.954 -63.8417
246.694223 78.913 -63.9181
248.481871 78.871 -63.9849
250.282473 78.829 -64.0390
252.096123 78.789 -64.0786
253.922915 78.750 -64.1049
255.762945 78.715 -64.1243
257.616309 78.682 -64.1467
259.483103 78.652 -64.1819
261.363424 78.622 -64.2346
263.257372 78.592 -64.3034
265.165043 78.561 -64.3820
267.086538 78.529 -64.4632
269.021957 78.496 -64.5408
270.971401 78.463 -64.6107
272.934972 78.430 -64.6719
274.912771 78.398 -64.7259
276.904902 78.367 -64.7756
278.911469 78.336 -64.8238
280.932577 78.306 -64.8729
282.968330 78.279 -64.9258
285.018835 78.253 -64.9864
287.084199 78.229 -65.0591
289.164530 78.206 -65.1471
291.259935 78.182 -65.2505
293.370525 78.155 -65.3646
295.496408 78.126 -65.4804
297.637697 78.094 -65.5885
299.794503 78.061 -65.6823
301.966937 78.026 -65.7597
304.155114 77.991 -65.8230
306.359147 77.956 -65.8769
308.579152 77.921 -65.9266
310.815244 77.886 -65.9758
313.067539 77.851 -66.0257
315.336156 77.816 -66.0748
317.621211 77.779 -66.1189
319.922826 77.742 -66.1528
322.241118 77.705 -66.1732
324.576210 77.669 -66.1808
326.928223 77.635 -66.1794
329.297280 77.602 -66.1738
331.683504 77.571 -66.1681
334.087019 77.541 -66.1659
336.507952 77.512 -66.1692
338.946427 77.483 -66.1774
341.402572 77.453 -66.1876
343.876516 77.423 -66.1954
346.368387 77.393 -66.1973
348.878315 77.362 -66.1923
351.406431 77.331 -66.1812
353.952867 77.300 -66.1656
356.517756 77.270 -66.1452
359.101230 77.241 -66.1190
361.703426 77.212 -66.0858
364.324478 77.184 -66.0453
366.964523 77.157 -65.9981
369.623699 77.131 -65.9453
372.302145 77.105 -65.8881
375.000000 77.080 -65.8282
377.717405 77.056 -65.7662
380.454501 77.033 -65.7014
383.211431 77.010 -65.6327
385.988339 76.988 -65.5600
388.785369 76.966 -65.4852
391.602668 76.946 -65.4115
394.440383 76.927 -65.3404
397.298660 76.910 -65.2704
400.177650 76.893 -65.1991
403.077502 76.878 -65.1262
405.998368 76.864 -65.0534
408.940400 76.850 -64.9817
411.903750 76.836 -64.9094
414.888575 76.821 -64.8327
417.895028 76.806 -64.7477
420.923268 76.792 -64.6516
423.973452 76.778 -64.5444
427.045738 76.767 -64.4297
430.140287 76.757 -64.3140
433.257261 76.750 -64.2029
436.396822 76.745 -64.0986
439.559133 76.741 -64.0002
442.744360 76.739 -63.9064
445.952668 76.739 -63.8185
449.184225 76.739 -63.7412
452.439199 76.741 -63.6806
455.717760 76.741 -63.6399
459.020079 76.740 -63.6149
462.346327 76.735 -63.5948
465.696680 76.729 -63.5666
469.071310 76.721 -63.5221
472.470394 76.713 -63.4593
475.894109 76.705 -63.3813
479.342634 76.698 -63.2945
482.816148 76.691 -63.2054
486.314833 76.684 -63.1154
489.838871 76.677 -63.0189
493.388445 76.670 -62.9067
496.963741 76.663 -62.7754
500.564945 76.658 -62.6299
504.192245 76.654 -62.4796
507.845830 76.653 -62.3324
511.525890 76.652 -62.1912
515.232618 76.651 -62.0543
518.966206 76.651 -61.9177
522.726849 76.650 -61.7768
526.514743 76.649 -61.6267
530.330086 76.649 -61.4650
534.173076 76.651 -61.2934
538.043915 76.655 -61.1162
541.942803 76.660 -60.9347
545.869944 76.667 -60.7477
549.825542 76.676 -60.5561
553.809805 76.687 -60.3646
557.822939 76.699 -60.1788
561.865154 76.713 -60.0008
565.936660 76.727 -59.8277
570.037671 76.742 -59.6534
574.168399 76.756 -59.4726
578.329060 76.770 -59.2829
582.519870 76.785 -59.0858
586.741049 76.799 -58.8825
590.992817 76.814 -58.6722
595.275394 76.831 -58.4535
599.589005 76.849 -58.2281
603.933874 76.869 -58.0010
608.310228 76.891 -57.7761
612.718295 76.914 -57.5540
617.158304 76.937 -57.3310
621.630488 76.961 -57.1007
626.135079 76.985 -56.8564
630.672311 77.011 -56.5966
635.242423 77.040 -56.3267
639.845651 77.071 -56.0542
644.482237 77.106 -55.7825
649.152421 77.143 -55.5119
653.856447 77.183 -55.2437
658.594560 77.227 -54.9829
663.367008 77.274 -54.7379
668.174039 77.323 -54.5156
673.015903 77.371 -54.3159
677.892854 77.418 -54.1310
682.805145 77.463 -53.9508
687.753032 77.506 -53.7677
692.736774 77.548 -53.5764
697.756631 77.590 -53.3729
702.812863 77.632 -53.1565
707.905735 77.675 -52.9297
713.035511 77.720 -52.6969
718.202461 77.767 -52.4620
723.406852 77.814 -52.2265
728.648956 77.862 -51.9911
733.929047 77.910 -51.7561
739.247399 77.958 -51.5213
744.604290 78.008 -51.2859
750.000000 78.058 -51.0488
755.434809 78.110 -50.8091
760.909001 78.162 -50.5662
766.422861 78.215 -50.3198
771.976677 78.270 -50.0705
777.570739 78.326 -49.8195
783.205337 78.384 -49.5679
788.880766 78.442 -49.3154
794.597321 78.503 -49.0596
800.355301 78.566 -48.7985
806.155005 78.632 -48.5339
811.996736 78.702 -48.2716
817.880799 78.776 -48.0204
823.807501 78.853 -47.7893
829.777150 78.932 -47.5860
835.790057 79.010 -47.4121
841.846536 79.087 -47.2602
847.946903 79.161 -47.1193
854.091476 79.233 -46.9813
860.280575 79.304 -46.8419
866.514523 79.374 -46.6978
872.793644 79.444 -46.5450
879.118267 79.513 -46.3835
885.488720 79.584 -46.2185
891.905336 79.655 -46.0547
898.368450 79.726 -45.8938
904.878398 79.798 -45.7341
911.435520 79.872 -45.5744
918.040157 79.947 -45.4155
924.692655 80.023 -45.2597
931.393359 80.101 -45.1101
938.142619 80.180 -44.9704
944.940787 80.260 -44.8420
951.788218 80.340 -44.7235
958.685268 80.419 -44.6116
965.632296 80.499 -44.5036
972.629666 80.578 -44.3970
979.677741 80.658 -44.2913
986.776890 80.738 -44.1865
993.927482 80.818 -44.0812
1001.129891 80.898 -43.9715
1008.384491 80.978 -43.8545
1015.691660 81.060 -43.7310
1023.051781 81.145 -43.6058
1030.465236 81.234 -43.4864
1037.932411 81.326 -43.3849
1045.453698 81.421 -43.3136
1053.029486 81.516 -43.2779
1060.660172 81.609 -43.2738
1068.346153 81.700 -43.2915
1076.087829 81.788 -43.3206
1083.885605 81.874 -43.3532
1091.739887 81.958 -43.3864
1099.651084 82.040 -43.4200
1107.619609 82.122 -43.4541
1115.645878 82.201 -43.4885
1123.730308 82.280 -43.5224
1131.873321 82.357 -43.5549
1140.075341 82.432 -43.5850
1148.336797 82.507 -43.6119
1156.658119 82.582 -43.6348
1165.039741 82.657 -43.6526
1173.482099 82.731 -43.6640
1181.985634 82.808 -43.6697
1190.550789 82.887 -43.6759
1199.178011 82.969 -43.6942
1207.867749 83.052 -43.7369
1216.620457 83.136 -43.8100
1225.436590 83.217 -43.9092
1234.316609 83.294 -44.0251
1243.260976 83.368 -44.1471
1252.270157 83.438 -44.2661
1261.344623 83.505 -44.3773
1270.484846 83.570 -44.4796
1279.691303 83.633 -44.5721
1288.964474 83.694 -44.6538
1298.304842 83.755 -44.7252
1307.712894 83.815 -44.7886
1317.189120 83.874 -44.8470
1326.734016 83.934 -44.9026
1336.348077 83.992 -44.9548
1346.031806 84.050 -45.0011
1355.785708 84.107 -45.0375
1365.610290 84.165 -45.0599
1375.506065 84.224 -45.0639
1385.473549 84.283 -45.0451
1395.513261 84.346 -45.0032
1405.625726 84.412 -44.9442
1415.811469 84.482 -44.8803
1426.071023 84.555 -44.8263
1436.404921 84.630 -44.7910
1446.813703 84.704 -44.7742
1457.297912 84.777 -44.7698
1467.858093 84.847 -44.7707
1478.494798 84.915 -44.7719
1489.208581 84.980 -44.7688
1500.000000 85.040 -44.7575
1510.869618 85.097 -44.7348
1521.818002 85.149 -44.6981
1532.845723 85.196 -44.6455
1543.953355 85.240 -44.5758
1555.141477 85.282 -44.4889
1566.410674 85.324 -44.3894
1577.761531 85.368 -44.2884
1589.194642 85.413 -44.2002
1600.710601 85.460 -44.1339
1612.310010 85.505 -44.0892
1623.993473 85.549 -44.0596
1635.761599 85.590 -44.0365
1647.615002 85.629 -44.0125
1659.554299 85.666 -43.9823
1671.580114 85.701 -43.9422
1683.693072 85.736 -43.8920
1695.893807 85.770 -43.8339
1708.182952 85.803 -43.7699
1720.561150 85.834 -43.6994
1733.029045 85.863 -43.6190
1745.587288 85.889 -43.5227
1758.236533 85.913 -43.4034
1770.977440 85.936 -43.2554
1783.810673 85.961 -43.0799
1796.736900 85.989 -42.8873
1809.756796 86.020 -42.6931
1822.871040 86.054 -42.5088
1836.080315 86.090 -42.3384
1849.385310 86.127 -42.1797
1862.786718 86.164 -42.0285
1876.285239 86.201 -41.8787
1889.881575 86.239 -41.7237
1903.576436 86.279 -41.5570
1917.370535 86.323 -41.3732
1931.264593 86.370 -41.1692
1945.259332 86.425 -40.9472
1959.355483 86.486 -40.7174
1973.553781 86.553 -40.4947
1987.854965 86.624 -40.2905
2002.259781 86.698 -40.1082
2016.768981 86.773 -39.9448
2031.383320 86.847 -39.7942
2046.103561 86.920 -39.6498
2060.930471 86.992 -39.5065
2075.864823 87.063 -39.3623
2090.907395 87.133 -39.2171
2106.058972 87.201 -39.0689
2121.320344 87.267 -38.9126
2136.692305 87.331 -38.7404
2152.175658 87.394 -38.5447
2167.771210 87.457 -38.3243
2183.479774 87.522 -38.0877
2199.302169 87.590 -37.8484
2215.239219 87.660 -37.6171
2231.291755 87.731 -37.3993
2247.460615 87.803 -37.1953
2263.746641 87.875 -37.0010
2280.150683 87.947 -36.8098
2296.673595 88.018 -36.6139
2313.316238 88.091 -36.4075
2330.079481 88.165 -36.1905
2346.964198 88.244 -35.9717
2363.971268 88.326 -35.7648
2381.101578 88.411 -35.5806
2398.356022 88.498 -35.4239
2415.735498 88.586 -35.2941
2433.240913 88.673 -35.1878
2450.873180 88.760 -35.1015
2468.633217 88.845 -35.0328
2486.521951 88.929 -34.9788
2504.540314 89.011 -34.9337
2522.689246 89.090 -34.8881
2540.969692 89.169 -34.8335
2559.382606 89.248 -34.7685
2577.928947 89.330 -34.7004
2596.609683 89.413 -34.6403
2615.425787 89.498 -34.5970
2634.378241 89.584 -34.5748
2653.468031 89.669 -34.5729
2672.696154 89.754 -34.5858
2692.063613 89.838 -34.6065
2711.571415 89.923 -34.6315
2731.220579 90.010 -34.6660
2751.012130 90.099 -34.7214
2770.947098 90.190 -34.8097
2791.026522 90.282 -34.9390
2811.251451 90.373 -35.1125
2831.622938 90.462 -35.3304
2852.142045 90.548 -35.5916
2872.809842 90.629 -35.8929
2893.627406 90.705 -36.2276
2914.595823 90.776 -36.5850
2935.716186 90.840 -36.9560
2956.989596 90.901 -37.3387
2978.417161 90.957 -37.7375
3000.000000 91.010 -38.1584
3021.739237 91.058 -38.6046
3043.636005 91.099 -39.0744
3065.691446 91.135 -39.5610
3087.906710 91.164 -40.0552
3110.282955 91.187 -40.5523
3132.821347 91.206 -41.0549
3155.523062 91.222 -41.5704
3178.389283 91.233 -42.1057
3201.421202 91.238 -42.6654
3224.620020 91.238 -43.2514
3247.986946 91.230 -43.8632
3271.523198 91.212 -44.4959
3295.230004 91.185 -45.1384
3319.108599 91.147 -45.7761
3343.160228 91.099 -46.3981
3367.386145 91.042 -46.9989
3391.787613 90.977 -47.5758
3416.365904 90.903 -48.1249
3441.122300 90.820 -48.6369
3466.058091 90.727 -49.0964
3491.174576 90.625 -49.4876
3516.473066 90.517 -49.8002
3541.954880 90.404 -50.0313
3567.621345 90.287 -50.1823
3593.473800 90.167 -50.2565
3619.513592 90.046 -50.2578
3645.742080 89.923 -50.1890
3672.160630 89.798 -50.0482
3698.770620 89.670 -49.8281
3725.573436 89.542 -49.5221
3752.570477 89.414 -49.1291
3779.763150 89.287 -48.6535
3807.152872 89.161 -48.0998
3834.741071 89.035 -47.4662
3862.529185 88.911 -46.7432
3890.518664 88.789 -45.9198
3918.710966 88.672 -44.9911
3947.107561 88.564 -43.9600
3975.709929 88.466 -42.8359
4004.519563 88.382 -41.6324
4033.537962 88.312 -40.3649
4062.766641 88.258 -39.0455
4092.207123 88.220 -37.6822
4121.860942 88.199 -36.2858
4151.729646 88.198 -34.8750
4181.814790 88.215 -33.4752
4212.117944 88.251 -32.1108
4242.640687 88.304 -30.8002
4273.384610 88.371 -29.5576
4304.351317 88.452 -28.3997
4335.542421 88.543 -27.3470
4366.959549 88.643 -26.4209
4398.604338 88.746 -25.6395
4430.478438 88.848 -25.0111
4462.583511 88.942 -24.5280
4494.921231 89.023 -24.1667
4527.493283 89.087 -23.8951
4560.301365 89.131 -23.6766
4593.347189 89.154 -23.4688
4626.632476 89.156 -23.2201
4660.158962 89.140 -22.8745
4693.928395 89.111 -22.3830
4727.942535 89.079 -21.7154
4762.203156 89.055 -20.8682
4796.712043 89.048 -19.8683
4831.470996 89.066 -18.7679
4866.481826 89.114 -17.6327
4901.746360 89.192 -16.5331
4937.266434 89.296 -15.5366
4973.043902 89.420 -14.6968
5009.080628 89.555 -14.0421
5045.378492 89.692 -13.5719
5081.939384 89.824 -13.2656
5118.765212 89.946 -13.0935
5155.857894 90.057 -13.0262
5193.219366 90.154 -13.0388
5230.851574 90.237 -13.1089
5268.756481 90.306 -13.2141
5306.936062 90.361 -13.3342
5345.392309 90.404 -13.4542
5384.127225 90.434 -13.5627
5423.142830 90.453 -13.6468
5462.441159 90.461 -13.6908
5502.024259 90.460 -13.6812
5541.894195 90.455 -13.6111
5582.053045 90.447 -13.4835
5622.502902 90.439 -13.3085
5663.245876 90.434 -13.0980
5704.284090 90.432 -12.8649
5745.619684 90.433 -12.6243
5787.254813 90.437 -12.3904
5829.191647 90.443 -12.1709
5871.432373 90.449 -11.9660
5913.979192 90.455 -11.7722
5956.834323 90.460 -11.5878
6000.000000 90.464 -11.4150
6043.478473 90.468 -11.2576
6087.272010 90.471 -11.1183
6131.382892 90.472 -11.0006
6175.813420 90.470 -10.9067
6220.565910 90.464 -10.8329
6265.642695 90.451 -10.7693
6311.046124 90.433 -10.7033
6356.778566 90.410 -10.6265
6402.842404 90.383 -10.5363
6449.240040 90.352 -10.4334
6495.973891 90.318 -10.3193
6543.046396 90.281 -10.1964
6590.460007 90.240 -10.0659
6638.217197 90.196 -9.9247
6686.320456 90.147 -9.7654
6734.772290 90.094 -9.5789
6783.575226 90.037 -9.3588
6832.731809 89.979 -9.1014
6882.244600 89.918 -8.8070
6932.116181 89.856 -8.4805
6982.349153 89.794 -8.1287
7032.946133 89.730 -7.7562
7083.909760 89.666 -7.3634
7135.242690 89.602 -6.9486
7186.947600 89.539 -6.5116
7239.027185 89.479 -6.0545
7291.484160 89.423 -5.5838
7344.321260 89.371 -5.1114
7397.541239 89.325 -4.6496
7451.146872 89.282 -4.2064
7505.140954 89.242 -3.7844
7559.526299 89.205 -3.3844
7614.305743 89.170 -3.0077
7669.482141 89.138 -2.6586
7725.058371 89.109 -2.3476
7781.037328 89.081 -2.0882
7837.421932 89.053 -1.8891
7894.215122 89.022 -1.7500
7951.419859 88.985 -1.6634
8009.039125 88.940 -1.6175
8067.075924 88.888 -1.6004
8125.533282 88.828 -1.6058
8184.414245 88.759 -1.6320
8243.721885 88.680 -1.6752
8303.459292 88.591 -1.7250
8363.629581 88.490 -1.7650
8424.235888 88.377 -1.7758
8485.281374 88.255 -1.7406
8546.769221 88.124 -1.6515
8608.702634 87.988 -1.5078
8671.084842 87.847 -1.3093
8733.919097 87.702 -1.0538
8797.208675 87.554 -0.7355
8860.956876 87.405 -0.3482
8925.167022 87.256 0.1076
8989.842461 87.112 0.6218
9054.986566 86.972 1.1789
9120.602731 86.839 1.7639
9186.694378 86.711 2.3657
9253.264952 86.589 2.9781
9320.317925 86.473 3.5936
9387.856790 86.364 4.1984
9455.885071 86.261 4.7738
9524.406312 86.164 5.3007
9593.424086 86.071 5.7655
9662.941992 85.978 6.1631
9732.963653 85.885 6.4921
9803.492719 85.788 6.7496
9874.532869 85.686 6.9320
9946.087805 85.574 7.0391
10018.161257 85.448 7.0805
10090.756983 85.305 7.0765
10163.878768 85.143 7.0515
10237.530423 84.960 7.0273
10311.715789 84.756 7.0225
10386.438732 84.531 7.0554
10461.703149 84.283 7.1496
10537.512962 84.015 7.3307
10613.872125 83.726 7.6192
10690.784618 83.421 8.0266
10768.254450 83.101 8.5578
10846.285661 82.765 9.2208
10924.882318 82.416 10.0303
11004.048518 82.054 11.0048
11083.788390 81.683 12.1602
11164.106090 81.305 13.5070
11245.005805 80.925 15.0508
11326.491752 80.547 16.7889
11408.568180 80.177 18.7030
11491.239368 79.818 20.7560
11574.509626 79.472 22.9038
11658.383294 79.137 25.1159
11742.864745 78.809 27.3866
11827.958384 78.487 29.7276
11913.668646 78.171 32.1507
12000.000000 77.860 34.6582
12086.956947 77.555 37.2451
12174.544019 77.258 39.9040
12262.765784 76.969 42.6258
12351.626840 76.687 45.3975
12441.131819 76.411 48.2066
12531.285389 76.141 51.0499
12622.092249 75.875 53.9346
12713.557132 75.613 56.8706
12805.684808 75.356 59.8624
12898.480079 75.104 62.9112
12991.947783 74.857 66.0183
13086.092792 74.618 69.1854
13180.920015 74.387 72.4079
13276.434395 74.165 75.6748
13372.640911 73.953 78.9740
13469.544580 73.752 82.2958
13567.150452 73.560 85.6283
13665.463617 73.378 88.9565
13764.489200 73.205 92.2683
13864.232362 73.039 95.5587
13964.698305 72.880 98.8255
14065.892266 72.727 102.0635
14167.819519 72.582 105.2659
14270.485380 72.443 108.4290
14373.895200 72.310 111.5479
14478.054370 72.184 114.6121
14582.968320 72.064 117.6096
14688.642520 71.949 120.5348
14795.082478 71.837 123.3868
14902.293745 71.727 126.1646
15010.281908 71.619 128.8678
15119.052599 71.513 131.4989
15228.611486 71.407 134.0612
15338.964283 71.304 136.5580
15450.116741 71.204 138.9934
15562.074656 71.106 141.3714
15674.843864 71.010 143.6933
15788.430244 70.913 145.9566
15902.839718 70.814 148.1585
16018.078250 70.710 150.2978
16134.151848 70.601 152.3725
16251.066563 70.483 154.3788
16368.828491 70.355 156.3151
16487.443769 70.214 158.1845
16606.918584 70.055 159.9937
16727.259161 69.876 161.7570
16848.471777 69.674 163.5020
16970.562748 69.448 165.2678
17093.538442 69.201 167.0982
17217.405268 68.939 169.0281
17342.169684 68.671 171.0552
17467.838194 68.403 173.1176
17594.417350 68.134 175.1156
17721.913751 67.850 176.9772
17850.334044 67.533 178.7261
17979.684923 67.165 -179.4990
18109.973131 66.740 -177.4844
18241.205462 66.266 -175.0119
18373.388756 65.768 -171.9303
18506.529905 65.277 -168.2181
18640.635849 64.825 -164.0305
18775.713581 64.431 -159.6848
18911.770141 64.091 -155.5353
19048.812624 63.777 -151.7999
19186.848172 63.459 -148.4771
19325.883983 63.116 -145.4182
19465.927305 62.750 -142.4750
19606.985439 62.386 -139.6242
19749.065738 62.058 -137.0218
19892.175609 61.810 -134.9730
20036.322514 61.675 -133.8271
