* Measurement data measured by REW V5.31
* Source: EXCL: Microphone (USB Sound Device        ), no input selected, L, volume: 0.390
* Format: 256k Log Swept Sine, 1 sweep at -4.0 dBFS with no timing reference
* Dated: Aug 22, 2024 12:40:20 PM
* REW Settings:
*  C-weighting compensation: Off
*  Target level: 75.0 dB
* Note: KZ AS24 Pro 01100 0.5ohm L
* Measurement: L AS24P 0.5ohm
* Smoothing: 1/12 octave
* Frequency Step: 96 ppo
* Start Frequency: 0.36621094 Hz
*
* Freq(Hz) SPL(dB) Phase(degrees)
0.366211 94.050 -47.5661
0.368865 94.052 -47.6181
0.371538 94.055 -47.6961
0.374230 94.059 -47.7938
0.376942 94.064 -47.9061
0.379673 94.068 -48.0291
0.382424 94.073 -48.1604
0.385196 94.079 -48.2984
0.387987 94.084 -48.4423
0.390798 94.089 -48.5915
0.393630 94.095 -48.7459
0.396483 94.100 -48.9053
0.399356 94.106 -49.0696
0.402250 94.111 -49.2389
0.405165 94.117 -49.4131
0.408101 94.122 -49.5924
0.411058 94.128 -49.7767
0.414037 94.134 -49.9660
0.417037 94.139 -50.1605
0.420059 94.145 -50.3600
0.423103 94.151 -50.5646
0.426169 94.157 -50.7744
0.429257 94.163 -50.9894
0.432368 94.169 -51.2095
0.435501 94.175 -51.4349
0.438656 94.181 -51.6654
0.441835 94.187 -51.9012
0.445037 94.193 -52.1423
0.448262 94.199 -52.3885
0.451510 94.205 -52.6400
0.454782 94.211 -52.8968
0.458077 94.218 -53.1588
0.461397 94.224 -53.4260
0.464740 94.230 -53.6985
0.468108 94.237 -53.9762
0.471500 94.243 -54.2591
0.474917 94.250 -54.5471
0.478358 94.256 -54.8404
0.481825 94.263 -55.1387
0.485316 94.270 -55.4422
0.488833 94.276 -55.7508
0.492375 94.283 -56.0644
0.495943 94.290 -56.3829
0.499537 94.297 -56.7065
0.503157 94.304 -57.0349
0.506803 94.311 -57.3682
0.510475 94.318 -57.7063
0.514175 94.325 -58.0491
0.517900 94.332 -58.3966
0.521653 94.339 -58.7487
0.525434 94.346 -59.1053
0.529241 94.353 -59.4663
0.533076 94.361 -59.8317
0.536939 94.368 -60.2014
0.540830 94.376 -60.5752
0.544749 94.383 -60.9531
0.548696 94.391 -61.3350
0.552673 94.398 -61.7208
0.556677 94.406 -62.1103
0.560711 94.414 -62.5034
0.564774 94.421 -62.9001
0.568867 94.429 -63.3002
0.572989 94.437 -63.7035
0.577141 94.445 -64.1100
0.581324 94.453 -64.5195
0.585536 94.461 -64.9318
0.589779 94.469 -65.3468
0.594053 94.477 -65.7644
0.598358 94.485 -66.1844
0.602694 94.494 -66.6067
0.607061 94.502 -67.0310
0.611460 94.510 -67.4573
0.615891 94.519 -67.8853
0.620354 94.527 -68.3149
0.624849 94.536 -68.7459
0.629377 94.545 -69.1781
0.633938 94.553 -69.6114
0.638532 94.562 -70.0456
0.643159 94.571 -70.4804
0.647819 94.580 -70.9158
0.652514 94.589 -71.3515
0.657242 94.598 -71.7873
0.662005 94.607 -72.2231
0.666802 94.616 -72.6586
0.671634 94.625 -73.0936
0.676501 94.635 -73.5281
0.681403 94.644 -73.9616
0.686341 94.653 -74.3942
0.691314 94.663 -74.8256
0.696324 94.672 -75.2556
0.701370 94.682 -75.6842
0.706452 94.691 -76.1111
0.711571 94.701 -76.5366
0.716728 94.710 -76.9608
0.721921 94.719 -77.3840
0.727153 94.727 -77.8071
0.732422 94.735 -78.2311
0.737729 94.742 -78.6574
0.743075 94.749 -79.0872
0.748460 94.754 -79.5216
0.753883 94.760 -79.9616
0.759346 94.765 -80.4075
0.764849 94.770 -80.8596
0.770391 94.775 -81.3181
0.775974 94.779 -81.7829
0.781597 94.784 -82.2541
0.787261 94.788 -82.7314
0.792966 94.793 -83.2149
0.798712 94.797 -83.7044
0.804500 94.802 -84.1997
0.810329 94.806 -84.7006
0.816201 94.810 -85.2071
0.822116 94.814 -85.7189
0.828073 94.818 -86.2358
0.834074 94.821 -86.7576
0.840118 94.825 -87.2841
0.846206 94.828 -87.8151
0.852338 94.831 -88.3504
0.858514 94.834 -88.8897
0.864735 94.837 -89.4327
0.871001 94.840 -89.9793
0.877313 94.842 -90.5291
0.883670 94.845 -91.0818
0.890074 94.847 -91.6371
0.896524 94.848 -92.1948
0.903020 94.850 -92.7546
0.909564 94.851 -93.3160
0.916155 94.852 -93.8788
0.922794 94.852 -94.4427
0.929481 94.853 -95.0072
0.936216 94.852 -95.5721
0.943000 94.852 -96.1369
0.949834 94.851 -96.7013
0.956717 94.850 -97.2649
0.963649 94.848 -97.8274
0.970632 94.846 -98.3882
0.977666 94.844 -98.9470
0.984750 94.841 -99.5035
0.991886 94.837 -100.0571
0.999074 94.833 -100.6074
1.006314 94.829 -101.1541
1.013606 94.823 -101.6966
1.020951 94.818 -102.2346
1.028349 94.811 -102.7675
1.035801 94.804 -103.2950
1.043307 94.797 -103.8166
1.050867 94.789 -104.3318
1.058482 94.780 -104.8404
1.066152 94.770 -105.3420
1.073878 94.759 -105.8366
1.081660 94.748 -106.3244
1.089498 94.736 -106.8059
1.097393 94.723 -107.2821
1.105345 94.710 -107.7542
1.113355 94.696 -108.2238
1.121423 94.681 -108.6923
1.129549 94.665 -109.1608
1.137734 94.649 -109.6299
1.145979 94.632 -110.1004
1.154283 94.614 -110.5726
1.162647 94.596 -111.0466
1.171072 94.576 -111.5228
1.179558 94.556 -112.0013
1.188106 94.536 -112.4820
1.196715 94.514 -112.9650
1.205387 94.492 -113.4505
1.214122 94.468 -113.9382
1.222920 94.444 -114.4283
1.231782 94.419 -114.9206
1.240708 94.393 -115.4150
1.249699 94.367 -115.9114
1.258754 94.339 -116.4095
1.267876 94.310 -116.9092
1.277063 94.280 -117.4102
1.286318 94.250 -117.9121
1.295639 94.218 -118.4146
1.305027 94.185 -118.9171
1.314484 94.151 -119.4194
1.324009 94.116 -119.9207
1.333604 94.080 -120.4204
1.343268 94.043 -120.9180
1.353002 94.004 -121.4125
1.362806 93.964 -121.9031
1.372681 93.923 -122.3889
1.382628 93.881 -122.8689
1.392647 93.838 -123.3420
1.402739 93.793 -123.8071
1.412904 93.747 -124.2629
1.423142 93.699 -124.7084
1.433455 93.650 -125.1424
1.443843 93.599 -125.5641
1.454305 93.546 -125.9730
1.464844 93.491 -126.3689
1.475459 93.434 -126.7523
1.486150 93.375 -127.1237
1.496920 93.313 -127.4839
1.507767 93.248 -127.8331
1.518693 93.181 -128.1718
1.529698 93.111 -128.5001
1.540783 93.039 -128.8179
1.551948 92.964 -129.1251
1.563194 92.887 -129.4216
1.574521 92.807 -129.7070
1.585931 92.726 -129.9810
1.597423 92.643 -130.2432
1.608999 92.558 -130.4932
1.620658 92.472 -130.7305
1.632402 92.384 -130.9545
1.644232 92.295 -131.1648
1.656146 92.205 -131.3606
1.668147 92.114 -131.5412
1.680235 92.023 -131.7058
1.692411 91.931 -131.8537
1.704675 91.840 -131.9840
1.717028 91.748 -132.0957
1.729470 91.657 -132.1878
1.742003 91.567 -132.2592
1.754626 91.477 -132.3086
1.767341 91.389 -132.3349
1.780147 91.302 -132.3363
1.793047 91.217 -132.3111
1.806040 91.132 -132.2570
1.819128 91.049 -132.1712
1.832310 90.966 -132.0505
1.845587 90.883 -131.8913
1.858961 90.799 -131.6900
1.872432 90.714 -131.4440
1.886001 90.627 -131.1509
1.899667 90.539 -130.8094
1.913433 90.450 -130.4186
1.927299 90.360 -129.9778
1.941265 90.270 -129.4871
1.955332 90.180 -128.9468
1.969501 90.090 -128.3573
1.983773 90.002 -127.7197
1.998148 89.916 -127.0353
2.012627 89.832 -126.3060
2.027212 89.752 -125.5341
2.041902 89.676 -124.7225
2.056698 89.605 -123.8746
2.071602 89.539 -122.9945
2.086614 89.481 -122.0867
2.101734 89.429 -121.1563
2.116964 89.386 -120.2086
2.132304 89.352 -119.2490
2.147756 89.329 -118.2822
2.163320 89.316 -117.3119
2.178996 89.316 -116.3399
2.194786 89.328 -115.3659
2.210690 89.353 -114.3879
2.226710 89.392 -113.4033
2.242845 89.444 -112.4113
2.259098 89.509 -111.4131
2.275468 89.586 -110.4123
2.291957 89.675 -109.4139
2.308566 89.775 -108.4241
2.325295 89.885 -107.4494
2.342145 90.004 -106.4965
2.359117 90.131 -105.5718
2.376212 90.265 -104.6814
2.393431 90.405 -103.8309
2.410775 90.550 -103.0255
2.428244 90.698 -102.2696
2.445840 90.849 -101.5673
2.463564 91.002 -100.9218
2.481416 91.155 -100.3360
2.499397 91.307 -99.8117
2.517509 91.459 -99.3500
2.535752 91.609 -98.9510
2.554127 91.758 -98.6133
2.572635 91.908 -98.3347
2.591277 92.058 -98.1118
2.610055 92.211 -97.9409
2.628968 92.366 -97.8185
2.648019 92.523 -97.7414
2.667208 92.684 -97.7067
2.686535 92.846 -97.7115
2.706003 93.010 -97.7534
2.725612 93.175 -97.8299
2.745363 93.340 -97.9390
2.765257 93.505 -98.0785
2.785295 93.669 -98.2466
2.805478 93.831 -98.4419
2.825808 93.989 -98.6629
2.846285 94.145 -98.9090
2.866910 94.296 -99.1798
2.887685 94.443 -99.4755
2.908611 94.585 -99.7972
2.929688 94.722 -100.1466
2.950917 94.853 -100.5252
2.972301 94.981 -100.9342
2.993839 95.104 -101.3735
3.015534 95.222 -101.8417
3.037386 95.337 -102.3364
3.059396 95.448 -102.8544
3.081565 95.556 -103.3923
3.103896 95.659 -103.9464
3.126388 95.759 -104.5131
3.149043 95.856 -105.0889
3.171862 95.949 -105.6707
3.194847 96.038 -106.2558
3.217998 96.123 -106.8423
3.241317 96.205 -107.4293
3.264805 96.283 -108.0173
3.288463 96.357 -108.6083
3.312293 96.427 -109.2054
3.336295 96.493 -109.8119
3.360471 96.554 -110.4303
3.384822 96.610 -111.0612
3.409350 96.662 -111.7036
3.434056 96.710 -112.3552
3.458940 96.753 -113.0127
3.484005 96.793 -113.6722
3.509252 96.828 -114.3298
3.534681 96.860 -114.9811
3.560295 96.889 -115.6222
3.586094 96.914 -116.2499
3.612081 96.935 -116.8617
3.638255 96.953 -117.4567
3.664620 96.968 -118.0358
3.691175 96.979 -118.6011
3.717923 96.986 -119.1551
3.744864 96.988 -119.6998
3.772001 96.987 -120.2359
3.799335 96.982 -120.7629
3.826866 96.973 -121.2796
3.854597 96.961 -121.7836
3.882529 96.947 -122.2722
3.910664 96.931 -122.7421
3.939002 96.913 -123.1902
3.967546 96.893 -123.6132
3.996296 96.873 -124.0084
4.025255 96.851 -124.3739
4.054423 96.827 -124.7085
4.083804 96.802 -125.0125
4.113396 96.775 -125.2865
4.143204 96.746 -125.5315
4.173227 96.717 -125.7490
4.203468 96.686 -125.9402
4.233928 96.656 -126.1064
4.264609 96.627 -126.2484
4.295512 96.600 -126.3669
4.326639 96.575 -126.4621
4.357992 96.553 -126.5332
4.389572 96.535 -126.5789
4.421380 96.519 -126.5977
4.453419 96.507 -126.5886
4.485691 96.499 -126.5519
4.518196 96.493 -126.4901
4.550936 96.491 -126.4071
4.583914 96.492 -126.3079
4.617131 96.497 -126.1983
4.650589 96.506 -126.0840
4.684289 96.520 -125.9699
4.718233 96.538 -125.8599
4.752424 96.562 -125.7560
4.786862 96.591 -125.6585
4.821549 96.625 -125.5672
4.856488 96.664 -125.4825
4.891680 96.709 -125.4060
4.927127 96.757 -125.3408
4.962831 96.809 -125.2906
4.998794 96.864 -125.2598
5.035017 96.921 -125.2527
5.071503 96.979 -125.2730
5.108253 97.039 -125.3233
5.145270 97.100 -125.4048
5.182555 97.163 -125.5174
5.220110 97.227 -125.6599
5.257937 97.291 -125.8308
5.296038 97.356 -126.0284
5.334415 97.421 -126.2512
5.373071 97.484 -126.4981
5.412006 97.545 -126.7684
5.451224 97.604 -127.0620
5.490725 97.660 -127.3792
5.530514 97.713 -127.7203
5.570590 97.763 -128.0848
5.610957 97.810 -128.4708
5.651616 97.853 -128.8751
5.692570 97.893 -129.2935
5.733821 97.929 -129.7215
5.775370 97.961 -130.1550
5.817221 97.990 -130.5912
5.859375 98.014 -131.0284
5.901834 98.033 -131.4662
5.944602 98.048 -131.9042
5.987679 98.059 -132.3410
6.031068 98.066 -132.7740
6.074771 98.069 -133.1995
6.118792 98.068 -133.6134
6.163131 98.065 -134.0117
6.207792 98.059 -134.3911
6.252776 98.050 -134.7500
6.298086 98.039 -135.0875
6.343725 98.025 -135.4036
6.389694 98.009 -135.6981
6.435996 97.992 -135.9705
6.482634 97.974 -136.2200
6.529610 97.957 -136.4456
6.576926 97.940 -136.6461
6.624585 97.925 -136.8209
6.672590 97.910 -136.9702
6.720942 97.897 -137.0955
6.769645 97.887 -137.1997
6.818700 97.878 -137.2862
6.868111 97.873 -137.3586
6.917881 97.871 -137.4201
6.968010 97.872 -137.4729
7.018504 97.878 -137.5187
7.069362 97.887 -137.5597
7.120590 97.900 -137.5991
7.172189 97.917 -137.6409
7.224161 97.936 -137.6897
7.276511 97.959 -137.7496
7.329239 97.985 -137.8237
7.382350 98.013 -137.9140
7.435845 98.043 -138.0215
7.489729 98.075 -138.1469
7.544002 98.108 -138.2909
7.598669 98.142 -138.4545
7.653732 98.175 -138.6386
7.709194 98.208 -138.8434
7.765058 98.239 -139.0688
7.821327 98.270 -139.3133
7.878004 98.299 -139.5745
7.935091 98.325 -139.8498
7.992592 98.350 -140.1364
8.050510 98.371 -140.4318
8.108847 98.390 -140.7344
8.167607 98.405 -141.0420
8.226793 98.418 -141.3520
8.286408 98.427 -141.6610
8.346454 98.434 -141.9656
8.406936 98.438 -142.2626
8.467856 98.440 -142.5498
8.529218 98.440 -142.8256
8.591024 98.437 -143.0887
8.653278 98.434 -143.3379
8.715983 98.429 -143.5719
8.779143 98.424 -143.7896
8.842760 98.419 -143.9907
8.906839 98.414 -144.1755
8.971381 98.410 -144.3450
9.036392 98.407 -144.5012
9.101873 98.405 -144.6457
9.167829 98.405 -144.7805
9.234263 98.407 -144.9072
9.301178 98.411 -145.0280
9.368578 98.417 -145.1455
9.436467 98.425 -145.2625
9.504847 98.434 -145.3818
9.573723 98.445 -145.5054
9.643099 98.458 -145.6348
9.712976 98.472 -145.7713
9.783361 98.486 -145.9159
9.854255 98.501 -146.0695
9.925663 98.516 -146.2327
9.997588 98.531 -146.4051
10.070035 98.545 -146.5860
10.143007 98.558 -146.7744
10.216507 98.571 -146.9686
10.290540 98.582 -147.1675
10.365109 98.591 -147.3695
10.440219 98.599 -147.5730
10.515873 98.606 -147.7761
10.592076 98.612 -147.9770
10.668830 98.616 -148.1743
10.746141 98.619 -148.3669
10.824012 98.622 -148.5539
10.902447 98.623 -148.7348
10.981451 98.625 -148.9094
11.061027 98.626 -149.0775
11.141180 98.628 -149.2395
11.221913 98.630 -149.3964
11.303232 98.632 -149.5490
11.385140 98.634 -149.6986
11.467641 98.637 -149.8460
11.550741 98.641 -149.9924
11.634442 98.645 -150.1390
11.718750 98.649 -150.2867
11.803669 98.653 -150.4361
11.889203 98.658 -150.5878
11.975357 98.662 -150.7417
12.062136 98.666 -150.8977
12.149543 98.669 -151.0554
12.237583 98.672 -151.2142
12.326262 98.674 -151.3733
12.415583 98.676 -151.5316
12.505552 98.676 -151.6881
12.596172 98.676 -151.8421
12.687449 98.676 -151.9927
12.779387 98.675 -152.1392
12.871992 98.674 -152.2813
12.965268 98.673 -152.4187
13.059220 98.672 -152.5517
13.153852 98.672 -152.6807
13.249170 98.671 -152.8061
13.345179 98.672 -152.9287
13.441884 98.673 -153.0495
13.539289 98.674 -153.1692
13.637401 98.676 -153.2887
13.736223 98.679 -153.4088
13.835761 98.682 -153.5299
13.936021 98.685 -153.6527
14.037007 98.689 -153.7772
14.138725 98.693 -153.9036
14.241180 98.697 -154.0318
14.344377 98.701 -154.1618
14.448323 98.706 -154.2935
14.553021 98.711 -154.4269
14.658478 98.716 -154.5620
14.764700 98.721 -154.6992
14.871691 98.727 -154.8389
14.979457 98.733 -154.9817
15.088005 98.740 -155.1282
15.197339 98.747 -155.2791
15.307465 98.754 -155.4352
15.418389 98.761 -155.5969
15.530117 98.767 -155.7644
15.642655 98.774 -155.9377
15.756008 98.780 -156.1162
15.870182 98.785 -156.2990
15.985184 98.789 -156.4849
16.101019 98.792 -156.6721
16.217694 98.793 -156.8589
16.335214 98.794 -157.0433
16.453586 98.794 -157.2236
16.572815 98.792 -157.3981
16.692909 98.791 -157.5658
16.813872 98.789 -157.7260
16.935713 98.787 -157.8786
17.058436 98.786 -158.0243
17.182048 98.785 -158.1642
17.306556 98.786 -158.2996
17.431967 98.787 -158.4323
17.558286 98.789 -158.5643
17.685521 98.792 -158.6970
17.813677 98.796 -158.8319
17.942762 98.800 -158.9698
18.072783 98.805 -159.1111
18.203746 98.809 -159.2555
18.335658 98.813 -159.4024
18.468526 98.817 -159.5506
18.602356 98.820 -159.6990
18.737156 98.823 -159.8462
18.872934 98.825 -159.9910
19.009695 98.827 -160.1324
19.147447 98.829 -160.2700
19.286197 98.830 -160.4034
19.425953 98.833 -160.5329
19.566721 98.835 -160.6588
19.708510 98.838 -160.7818
19.851326 98.841 -160.9026
19.995177 98.845 -161.0222
20.140070 98.850 -161.1414
20.286013 98.855 -161.2610
20.433014 98.861 -161.3818
20.581080 98.868 -161.5048
20.730219 98.875 -161.6310
20.880439 98.883 -161.7616
21.031747 98.891 -161.8977
21.184152 98.900 -162.0405
21.337661 98.909 -162.1911
21.492282 98.918 -162.3501
21.648024 98.926 -162.5178
21.804895 98.934 -162.6938
21.962902 98.941 -162.8772
22.122054 98.946 -163.0663
22.282360 98.950 -163.2591
22.443827 98.953 -163.4534
22.606464 98.954 -163.6469
22.770280 98.954 -163.8376
22.935283 98.953 -164.0242
23.101481 98.952 -164.2058
23.268884 98.950 -164.3825
23.437500 98.948 -164.5546
23.607338 98.946 -164.7233
23.778406 98.944 -164.8894
23.950714 98.943 -165.0540
24.124271 98.942 -165.2177
24.299086 98.940 -165.3806
24.475167 98.939 -165.5427
24.652524 98.937 -165.7033
24.831166 98.936 -165.8619
25.011103 98.934 -166.0180
25.192344 98.933 -166.1714
25.374898 98.931 -166.3224
25.558775 98.931 -166.4713
25.743984 98.931 -166.6192
25.930536 98.931 -166.7669
26.118439 98.932 -166.9153
26.307704 98.933 -167.0649
26.498341 98.934 -167.2159
26.690359 98.935 -167.3682
26.883768 98.936 -167.5214
27.078579 98.937 -167.6749
27.274801 98.937 -167.8280
27.472446 98.938 -167.9804
27.671522 98.939 -168.1317
27.872042 98.939 -168.2818
28.074014 98.940 -168.4310
28.277450 98.940 -168.5794
28.482360 98.941 -168.7274
28.688755 98.942 -168.8752
28.896645 98.943 -169.0233
29.106042 98.944 -169.1716
29.316957 98.945 -169.3204
29.529400 98.945 -169.4695
29.743382 98.946 -169.6189
29.958915 98.947 -169.7681
30.176009 98.947 -169.9168
30.394677 98.948 -170.0650
30.614929 98.948 -170.2125
30.836778 98.949 -170.3594
31.060234 98.950 -170.5062
31.285309 98.951 -170.6532
31.512015 98.952 -170.8011
31.740364 98.953 -170.9500
31.970368 98.955 -171.1002
32.202039 98.956 -171.2518
32.435388 98.958 -171.4046
32.670428 98.959 -171.5588
32.907171 98.961 -171.7145
33.145630 98.962 -171.8719
33.385817 98.964 -172.0315
33.627745 98.965 -172.1933
33.871425 98.966 -172.3568
34.116871 98.966 -172.5211
34.364096 98.965 -172.6848
34.613113 98.964 -172.8463
34.863934 98.963 -173.0043
35.116572 98.961 -173.1583
35.371041 98.959 -173.3084
35.627354 98.957 -173.4554
35.885525 98.956 -173.6009
36.145566 98.954 -173.7460
36.407492 98.953 -173.8918
36.671316 98.952 -174.0385
36.937051 98.950 -174.1861
37.204712 98.949 -174.3339
37.474313 98.947 -174.4814
37.745867 98.944 -174.6281
38.019389 98.942 -174.7738
38.294893 98.939 -174.9185
38.572394 98.936 -175.0621
38.851905 98.934 -175.2048
39.133442 98.931 -175.3468
39.417019 98.929 -175.4885
39.702651 98.926 -175.6301
39.990353 98.924 -175.7718
40.280140 98.921 -175.9139
40.572026 98.919 -176.0560
40.866028 98.916 -176.1974
41.162160 98.914 -176.3374
41.460438 98.911 -176.4748
41.760877 98.908 -176.6087
42.063494 98.905 -176.7383
42.368303 98.902 -176.8633
42.675322 98.900 -176.9836
42.984565 98.898 -177.0994
43.296048 98.897 -177.2115
43.609789 98.897 -177.3209
43.925804 98.898 -177.4290
44.244108 98.900 -177.5376
44.564719 98.903 -177.6486
44.887654 98.907 -177.7637
45.212928 98.912 -177.8848
45.540560 98.917 -178.0127
45.870565 98.922 -178.1482
46.202962 98.927 -178.2912
46.537768 98.931 -178.4411
46.875000 98.935 -178.5970
47.214676 98.938 -178.7575
47.556813 98.940 -178.9212
47.901429 98.941 -179.0870
48.248542 98.942 -179.2540
48.598171 98.942 -179.4218
48.950334 98.941 -179.5900
49.305048 98.940 -179.7585
49.662333 98.938 -179.9268
50.022206 98.936 179.9062
50.384688 98.933 179.7415
50.749796 98.930 179.5801
51.117550 98.926 179.4224
51.487969 98.923 179.2682
51.861072 98.919 179.1168
52.236879 98.915 178.9675
52.615409 98.912 178.8201
52.996681 98.908 178.6747
53.380717 98.905 178.5312
53.767536 98.901 178.3895
54.157158 98.898 178.2490
54.549603 98.894 178.1092
54.944892 98.891 177.9697
55.343045 98.888 177.8301
55.744084 98.885 177.6900
56.148028 98.883 177.5486
56.554900 98.881 177.4049
56.964720 98.880 177.2574
57.377510 98.878 177.1052
57.793291 98.877 176.9475
58.212085 98.875 176.7848
58.633914 98.873 176.6187
59.058799 98.870 176.4515
59.486764 98.867 176.2859
59.917829 98.864 176.1231
60.352019 98.862 175.9623
60.789354 98.859 175.8011
61.229859 98.858 175.6366
61.673556 98.856 175.4677
62.120468 98.854 175.2950
62.570618 98.851 175.1213
63.024031 98.848 174.9489
63.480729 98.844 174.7790
63.940736 98.840 174.6111
64.404077 98.836 174.4438
64.870776 98.832 174.2763
65.340856 98.827 174.1081
65.814343 98.821 173.9394
66.291261 98.815 173.7709
66.771635 98.809 173.6035
67.255489 98.801 173.4385
67.742850 98.793 173.2767
68.233743 98.786 173.1176
68.728193 98.778 172.9593
69.226226 98.771 172.7993
69.727867 98.764 172.6358
70.233144 98.757 172.4689
70.742083 98.750 172.3000
71.254709 98.743 172.1305
71.771050 98.735 171.9612
72.291132 98.728 171.7920
72.814984 98.721 171.6229
73.342631 98.713 171.4540
73.874102 98.706 171.2856
74.409424 98.700 171.1177
74.948626 98.693 170.9501
75.491734 98.686 170.7826
76.038779 98.680 170.6152
76.589787 98.673 170.4478
77.144788 98.666 170.2801
77.703811 98.660 170.1116
78.266885 98.653 169.9416
78.834039 98.646 169.7688
79.405303 98.639 169.5918
79.980706 98.633 169.4090
80.560280 98.625 169.2191
81.144053 98.618 169.0219
81.732056 98.609 168.8174
82.324320 98.600 168.6064
82.920876 98.589 168.3905
83.521755 98.576 168.1725
84.126988 98.561 167.9563
84.736607 98.545 167.7454
85.350643 98.527 167.5427
85.969129 98.508 167.3495
86.592097 98.489 167.1664
87.219579 98.468 166.9930
87.851608 98.448 166.8280
88.488217 98.428 166.6705
89.129439 98.408 166.5195
89.775308 98.389 166.3745
90.425856 98.370 166.2331
91.081119 98.353 166.0921
91.741131 98.338 165.9490
92.405925 98.323 165.8028
93.075536 98.308 165.6537
93.750000 98.295 165.5019
94.429351 98.282 165.3469
95.113625 98.270 165.1885
95.802858 98.257 165.0273
96.497085 98.244 164.8641
97.196342 98.230 164.7000
97.900667 98.215 164.5362
98.610096 98.200 164.3746
99.324665 98.184 164.2161
100.044413 98.167 164.0612
100.769376 98.149 163.9091
101.499592 98.132 163.7589
102.235100 98.114 163.6096
102.975938 98.097 163.4607
103.722144 98.079 163.3110
104.473757 98.062 163.1596
105.230817 98.044 163.0057
105.993363 98.027 162.8482
106.761435 98.009 162.6861
107.535072 97.991 162.5189
108.314315 97.973 162.3470
109.099206 97.954 162.1714
109.889783 97.934 161.9928
110.686090 97.913 161.8115
111.488167 97.892 161.6280
112.296056 97.869 161.4431
113.109800 97.846 161.2584
113.929440 97.820 161.0760
114.755020 97.793 160.8995
115.586582 97.764 160.7330
116.424170 97.734 160.5801
117.267827 97.703 160.4427
118.117598 97.673 160.3204
118.973527 97.644 160.2103
119.835658 97.616 160.1077
120.704037 97.589 160.0078
121.578708 97.565 159.9069
122.459718 97.541 159.8029
123.347111 97.517 159.6950
124.240935 97.495 159.5834
125.141236 97.472 159.4683
126.048061 97.449 159.3505
126.961458 97.426 159.2303
127.881473 97.403 159.1082
128.808154 97.380 158.9841
129.741551 97.356 158.8575
130.681712 97.332 158.7279
131.628686 97.308 158.5945
132.582521 97.283 158.4568
133.543269 97.258 158.3148
134.510979 97.231 158.1695
135.485701 97.204 158.0223
136.467486 97.175 157.8749
137.456386 97.146 157.7286
138.452451 97.115 157.5842
139.455735 97.084 157.4416
140.466288 97.051 157.3007
141.484165 97.018 157.1611
142.509418 96.984 157.0225
143.542100 96.949 156.8846
144.582265 96.913 156.7473
145.629968 96.876 156.6108
146.685262 96.839 156.4760
147.748204 96.801 156.3442
148.818849 96.761 156.2177
149.897251 96.720 156.0991
150.983469 96.679 155.9916
152.077557 96.636 155.8974
153.179574 96.593 155.8176
154.289576 96.549 155.7514
155.407622 96.506 155.6961
156.533770 96.465 155.6468
157.668078 96.424 155.5976
158.810606 96.385 155.5436
159.961413 96.345 155.4825
161.120559 96.306 155.4149
162.288105 96.266 155.3430
163.464112 96.225 155.2704
164.648640 96.183 155.2012
165.841752 96.138 155.1390
167.043510 96.091 155.0874
168.253976 96.043 155.0496
169.473213 95.993 155.0277
170.701286 95.943 155.0222
171.938258 95.893 155.0319
173.184194 95.843 155.0545
174.439158 95.793 155.0876
175.703216 95.745 155.1301
176.976434 95.698 155.1817
178.258878 95.651 155.2424
179.550615 95.605 155.3126
180.851713 95.561 155.3919
182.162239 95.518 155.4798
183.482262 95.476 155.5753
184.811850 95.437 155.6763
186.151073 95.399 155.7796
187.500000 95.364 155.8813
188.858702 95.330 155.9774
190.227250 95.299 156.0637
191.605715 95.268 156.1370
192.994169 95.238 156.1954
194.392685 95.207 156.2386
195.801334 95.176 156.2682
197.220191 95.143 156.2879
198.649330 95.108 156.3018
200.088825 95.072 156.3134
201.538751 95.033 156.3250
202.999184 94.993 156.3372
204.470200 94.952 156.3487
205.951875 94.909 156.3580
207.444287 94.865 156.3644
208.947514 94.818 156.3701
210.461634 94.769 156.3793
211.986726 94.718 156.3981
213.522869 94.665 156.4330
215.070144 94.610 156.4899
216.628631 94.554 156.5729
218.198411 94.498 156.6823
219.779567 94.443 156.8147
221.372180 94.389 156.9634
222.976334 94.337 157.1213
224.592112 94.287 157.2836
226.219600 94.237 157.4491
227.858880 94.187 157.6189
229.510039 94.138 157.7946
231.173164 94.088 157.9771
232.848340 94.040 158.1660
234.535655 93.991 158.3606
236.235197 93.944 158.5597
237.947054 93.896 158.7625
239.671317 93.849 158.9692
241.408074 93.802 159.1815
243.157416 93.754 159.4024
244.919435 93.705 159.6351
246.694223 93.656 159.8817
248.481871 93.606 160.1438
250.282473 93.557 160.4231
252.096123 93.509 160.7211
253.922915 93.463 161.0369
255.762945 93.421 161.3651
257.616309 93.382 161.6963
259.483103 93.346 162.0204
261.363424 93.312 162.3318
263.257372 93.278 162.6318
265.165043 93.244 162.9271
267.086538 93.208 163.2264
269.021957 93.172 163.5372
270.971401 93.137 163.8630
272.934972 93.102 164.2038
274.912771 93.069 164.5562
276.904902 93.037 164.9165
278.911469 93.008 165.2821
280.932577 92.981 165.6507
282.968330 92.958 166.0190
285.018835 92.937 166.3820
287.084199 92.918 166.7333
289.164530 92.901 167.0675
291.259935 92.884 167.3829
293.370525 92.867 167.6847
295.496408 92.847 167.9821
297.637697 92.826 168.2843
299.794503 92.804 168.5970
301.966937 92.782 168.9212
304.155114 92.761 169.2546
306.359147 92.740 169.5936
308.579152 92.721 169.9341
310.815244 92.703 170.2731
313.067539 92.685 170.6095
315.336156 92.669 170.9449
317.621211 92.652 171.2835
319.922826 92.636 171.6296
322.241118 92.620 171.9853
324.576210 92.606 172.3496
326.928223 92.594 172.7195
329.297280 92.584 173.0909
331.683504 92.575 173.4602
334.087019 92.568 173.8237
336.507952 92.563 174.1788
338.946427 92.558 174.5244
341.402572 92.553 174.8615
343.876516 92.548 175.1936
346.368387 92.544 175.5240
348.878315 92.539 175.8549
351.406431 92.536 176.1867
353.952867 92.533 176.5189
356.517756 92.531 176.8504
359.101230 92.530 177.1802
361.703426 92.529 177.5070
364.324478 92.529 177.8300
366.964523 92.529 178.1492
369.623699 92.529 178.4656
372.302145 92.531 178.7804
375.000000 92.533 179.0937
377.717405 92.536 179.4052
380.454501 92.539 179.7138
383.211431 92.543 -179.9810
385.988339 92.547 -179.6794
388.785369 92.552 -179.3810
391.602668 92.557 -179.0853
394.440383 92.563 -178.7923
397.298660 92.569 -178.5026
400.177650 92.576 -178.2177
403.077502 92.583 -177.9394
405.998368 92.591 -177.6692
408.940400 92.598 -177.4069
411.903750 92.605 -177.1500
414.888575 92.611 -176.8945
417.895028 92.617 -176.6362
420.923268 92.622 -176.3725
423.973452 92.628 -176.1024
427.045738 92.636 -175.8280
430.140287 92.644 -175.5535
433.257261 92.654 -175.2839
436.396822 92.665 -175.0226
439.559133 92.677 -174.7702
442.744360 92.691 -174.5266
445.952668 92.705 -174.2936
449.184225 92.720 -174.0762
452.439199 92.736 -173.8808
455.717760 92.750 -173.7104
459.020079 92.762 -173.5609
462.346327 92.770 -173.4209
465.696680 92.775 -173.2775
469.071310 92.778 -173.1226
472.470394 92.779 -172.9539
475.894109 92.780 -172.7741
479.342634 92.782 -172.5886
482.816148 92.783 -172.4033
486.314833 92.784 -172.2205
489.838871 92.784 -172.0363
493.388445 92.782 -171.8433
496.963741 92.781 -171.6379
500.564945 92.780 -171.4238
504.192245 92.780 -171.2090
507.845830 92.782 -171.0002
511.525890 92.784 -170.8005
515.232618 92.786 -170.6083
518.966206 92.786 -170.4193
522.726849 92.786 -170.2280
526.514743 92.784 -170.0294
530.330086 92.782 -169.8214
534.173076 92.780 -169.6064
538.043915 92.779 -169.3889
541.942803 92.778 -169.1713
545.869944 92.777 -168.9527
549.825542 92.776 -168.7323
553.809805 92.776 -168.5119
557.822939 92.776 -168.2948
561.865154 92.776 -168.0836
565.936660 92.775 -167.8779
570.037671 92.773 -167.6750
574.168399 92.771 -167.4714
578.329060 92.768 -167.2648
582.519870 92.764 -167.0552
586.741049 92.760 -166.8421
590.992817 92.755 -166.6227
595.275394 92.749 -166.3942
599.589005 92.744 -166.1575
603.933874 92.739 -165.9165
608.310228 92.734 -165.6750
612.718295 92.729 -165.4342
617.158304 92.724 -165.1923
621.630488 92.717 -164.9445
626.135079 92.710 -164.6855
630.672311 92.702 -164.4135
635.242423 92.696 -164.1319
639.845651 92.691 -163.8457
644.482237 92.686 -163.5555
649.152421 92.682 -163.2592
653.856447 92.680 -162.9579
658.594560 92.680 -162.6587
663.367008 92.681 -162.3727
668.174039 92.684 -162.1086
673.015903 92.685 -161.8664
677.892854 92.685 -161.6382
682.805145 92.683 -161.4146
687.753032 92.679 -161.1876
692.736774 92.673 -160.9509
697.756631 92.667 -160.6991
702.812863 92.660 -160.4304
707.905735 92.654 -160.1471
713.035511 92.648 -159.8541
718.202461 92.643 -159.5553
723.406852 92.638 -159.2511
728.648956 92.632 -158.9404
733.929047 92.627 -158.6220
739.247399 92.621 -158.2957
744.604290 92.616 -157.9615
750.000000 92.611 -157.6192
755.434809 92.606 -157.2688
760.909001 92.602 -156.9107
766.422861 92.598 -156.5452
771.976677 92.596 -156.1731
777.570739 92.595 -155.7957
783.205337 92.594 -155.4134
788.880766 92.594 -155.0248
794.597321 92.595 -154.6258
800.355301 92.597 -154.2133
806.155005 92.602 -153.7881
811.996736 92.609 -153.3561
817.880799 92.620 -152.9263
823.807501 92.634 -152.5089
829.777150 92.650 -152.1126
835.790057 92.666 -151.7403
841.846536 92.680 -151.3860
847.946903 92.692 -151.0390
854.091476 92.703 -150.6908
860.280575 92.712 -150.3369
866.514523 92.721 -149.9738
872.793644 92.730 -149.5979
879.118267 92.739 -149.2093
885.488720 92.750 -148.8123
891.905336 92.761 -148.4107
898.368450 92.773 -148.0052
904.878398 92.786 -147.5937
911.435520 92.800 -147.1751
918.040157 92.816 -146.7510
924.692655 92.833 -146.3240
931.393359 92.852 -145.8974
938.142619 92.872 -145.4751
944.940787 92.894 -145.0590
951.788218 92.915 -144.6478
958.685268 92.937 -144.2387
965.632296 92.959 -143.8292
972.629666 92.981 -143.4175
979.677741 93.004 -143.0034
986.776890 93.027 -142.5876
993.927482 93.051 -142.1693
1001.129891 93.075 -141.7446
1008.384491 93.101 -141.3096
1015.691660 93.129 -140.8646
1023.051781 93.161 -140.4144
1030.465236 93.196 -139.9667
1037.932411 93.236 -139.5329
1045.453698 93.278 -139.1252
1053.029486 93.322 -138.7494
1060.660172 93.364 -138.4018
1068.346153 93.405 -138.0736
1076.087829 93.443 -137.7549
1083.885605 93.480 -137.4391
1091.739887 93.515 -137.1238
1099.651084 93.549 -136.8091
1107.619609 93.582 -136.4946
1115.645878 93.615 -136.1799
1123.730308 93.647 -135.8639
1131.873321 93.679 -135.5452
1140.075341 93.710 -135.2224
1148.336797 93.742 -134.8945
1156.658119 93.773 -134.5605
1165.039741 93.806 -134.2190
1173.482099 93.839 -133.8685
1181.985634 93.873 -133.5091
1190.550789 93.910 -133.1463
1199.178011 93.949 -132.7901
1207.867749 93.991 -132.4515
1216.620457 94.032 -132.1359
1225.436590 94.072 -131.8399
1234.316609 94.109 -131.5556
1243.260976 94.144 -131.2745
1252.270157 94.177 -130.9889
1261.344623 94.209 -130.6945
1270.484846 94.241 -130.3902
1279.691303 94.272 -130.0750
1288.964474 94.304 -129.7484
1298.304842 94.337 -129.4123
1307.712894 94.371 -129.0714
1317.189120 94.406 -128.7310
1326.734016 94.441 -128.3946
1336.348077 94.476 -128.0617
1346.031806 94.510 -127.7287
1355.785708 94.543 -127.3907
1365.610290 94.574 -127.0422
1375.506065 94.606 -126.6774
1385.473549 94.637 -126.2907
1395.513261 94.671 -125.8807
1405.625726 94.708 -125.4526
1415.811469 94.750 -125.0181
1426.071023 94.796 -124.5916
1436.404921 94.845 -124.1822
1446.813703 94.895 -123.7903
1457.297912 94.945 -123.4104
1467.858093 94.995 -123.0368
1478.494798 95.045 -122.6653
1489.208581 95.094 -122.2931
1500.000000 95.143 -121.9173
1510.869618 95.192 -121.5348
1521.818002 95.243 -121.1430
1532.845723 95.294 -120.7397
1543.953355 95.347 -120.3236
1555.141477 95.404 -119.8948
1566.410674 95.465 -119.4583
1577.761531 95.530 -119.0255
1589.194642 95.600 -118.6110
1600.710601 95.673 -118.2243
1612.310010 95.747 -117.8662
1623.993473 95.820 -117.5314
1635.761599 95.893 -117.2127
1647.615002 95.966 -116.9039
1659.554299 96.038 -116.6004
1671.580114 96.110 -116.2992
1683.693072 96.183 -115.9999
1695.893807 96.256 -115.7043
1708.182952 96.331 -115.4148
1720.561150 96.405 -115.1314
1733.029045 96.480 -114.8517
1745.587288 96.555 -114.5712
1758.236533 96.631 -114.2838
1770.977440 96.709 -113.9846
1783.810673 96.790 -113.6750
1796.736900 96.876 -113.3646
1809.756796 96.966 -113.0681
1822.871040 97.059 -112.7968
1836.080315 97.154 -112.5552
1849.385310 97.251 -112.3424
1862.786718 97.347 -112.1555
1876.285239 97.443 -111.9901
1889.881575 97.540 -111.8411
1903.576436 97.637 -111.7025
1917.370535 97.734 -111.5692
1931.264593 97.833 -111.4379
1945.259332 97.936 -111.3103
1959.355483 98.043 -111.1961
1973.553781 98.154 -111.1097
1987.854965 98.268 -111.0635
2002.259781 98.384 -111.0634
2016.768981 98.500 -111.1103
2031.383320 98.617 -111.2033
2046.103561 98.734 -111.3417
2060.930471 98.850 -111.5269
2075.864823 98.966 -111.7624
2090.907395 99.080 -112.0523
2106.058972 99.190 -112.3969
2121.320344 99.297 -112.7917
2136.692305 99.398 -113.2274
2152.175658 99.495 -113.6930
2167.771210 99.589 -114.1819
2183.479774 99.680 -114.6957
2199.302169 99.769 -115.2410
2215.239219 99.857 -115.8242
2231.291755 99.941 -116.4492
2247.460615 100.023 -117.1173
2263.746641 100.100 -117.8286
2280.150683 100.175 -118.5816
2296.673595 100.246 -119.3748
2313.316238 100.315 -120.2073
2330.079481 100.380 -121.0821
2346.964198 100.443 -122.0068
2363.971268 100.502 -122.9903
2381.101578 100.554 -124.0367
2398.356022 100.600 -125.1424
2415.735498 100.636 -126.2974
2433.240913 100.662 -127.4878
2450.873180 100.678 -128.6983
2468.633217 100.684 -129.9147
2486.521951 100.680 -131.1235
2504.540314 100.667 -132.3097
2522.689246 100.644 -133.4571
2540.969692 100.613 -134.5500
2559.382606 100.578 -135.5794
2577.928947 100.539 -136.5450
2596.609683 100.498 -137.4516
2615.425787 100.456 -138.3048
2634.378241 100.412 -139.1091
2653.468031 100.368 -139.8669
2672.696154 100.323 -140.5787
2692.063613 100.280 -141.2449
2711.571415 100.239 -141.8701
2731.220579 100.203 -142.4663
2751.012130 100.171 -143.0514
2770.947098 100.142 -143.6429
2791.026522 100.116 -144.2535
2811.251451 100.090 -144.8891
2831.622938 100.063 -145.5501
2852.142045 100.035 -146.2341
2872.809842 100.003 -146.9357
2893.627406 99.968 -147.6465
2914.595823 99.928 -148.3548
2935.716186 99.886 -149.0505
2956.989596 99.843 -149.7317
2978.417161 99.801 -150.4049
3000.000000 99.759 -151.0812
3021.739237 99.716 -151.7710
3043.636005 99.673 -152.4810
3065.691446 99.627 -153.2119
3087.906710 99.578 -153.9596
3110.282955 99.525 -154.7205
3132.821347 99.469 -155.4932
3155.523062 99.408 -156.2765
3178.389283 99.342 -157.0665
3201.421202 99.269 -157.8553
3224.620020 99.190 -158.6324
3247.986946 99.103 -159.3862
3271.523198 99.009 -160.1038
3295.230004 98.909 -160.7702
3319.108599 98.803 -161.3708
3343.160228 98.695 -161.8977
3367.386145 98.587 -162.3519
3391.787613 98.481 -162.7411
3416.365904 98.378 -163.0757
3441.122300 98.279 -163.3640
3466.058091 98.184 -163.6107
3491.174576 98.097 -163.8206
3516.473066 98.017 -164.0052
3541.954880 97.946 -164.1820
3567.621345 97.883 -164.3706
3593.473800 97.829 -164.5889
3619.513592 97.779 -164.8519
3645.742080 97.734 -165.1698
3672.160630 97.690 -165.5452
3698.770620 97.645 -165.9732
3725.573436 97.599 -166.4473
3752.570477 97.552 -166.9652
3779.763150 97.502 -167.5291
3807.152872 97.450 -168.1419
3834.741071 97.392 -168.8023
3862.529185 97.328 -169.5031
3890.518664 97.257 -170.2361
3918.710966 97.180 -170.9973
3947.107561 97.095 -171.7858
3975.709929 97.001 -172.6017
4004.519563 96.897 -173.4434
4033.537962 96.781 -174.3048
4062.766641 96.648 -175.1708
4092.207123 96.499 -176.0162
4121.860942 96.332 -176.8122
4151.729646 96.147 -177.5317
4181.814790 95.947 -178.1515
4212.117944 95.732 -178.6482
4242.640687 95.505 -178.9955
4273.384610 95.270 -179.1675
4304.351317 95.031 -179.1470
4335.542421 94.795 -178.9298
4366.959549 94.568 -178.5266
4398.604338 94.356 -177.9611
4430.478438 94.163 -177.2669
4462.583511 93.992 -176.4794
4494.921231 93.844 -175.6330
4527.493283 93.722 -174.7643
4560.301365 93.625 -173.9125
4593.347189 93.549 -173.1150
4626.632476 93.493 -172.3996
4660.158962 93.452 -171.7818
4693.928395 93.422 -171.2704
4727.942535 93.401 -170.8718
4762.203156 93.386 -170.5919
4796.712043 93.374 -170.4354
4831.470996 93.360 -170.4010
4866.481826 93.341 -170.4767
4901.746360 93.313 -170.6429
4937.266434 93.274 -170.8783
4973.043902 93.222 -171.1622
5009.080628 93.156 -171.4709
5045.378492 93.075 -171.7749
5081.939384 92.980 -172.0443
5118.765212 92.874 -172.2546
5155.857894 92.760 -172.3912
5193.219366 92.641 -172.4507
5230.851574 92.521 -172.4353
5268.756481 92.400 -172.3485
5306.936062 92.281 -172.1945
5345.392309 92.165 -171.9816
5384.127225 92.053 -171.7186
5423.142830 91.945 -171.4097
5462.441159 91.842 -171.0535
5502.024259 91.744 -170.6472
5541.894195 91.653 -170.1923
5582.053045 91.571 -169.6978
5622.502902 91.498 -169.1777
5663.245876 91.435 -168.6455
5704.284090 91.382 -168.1139
5745.619684 91.337 -167.5953
5787.254813 91.298 -167.0980
5829.191647 91.264 -166.6216
5871.432373 91.231 -166.1566
5913.979192 91.200 -165.6897
5956.834323 91.171 -165.2110
6000.000000 91.143 -164.7175
6043.478473 91.119 -164.2107
6087.272010 91.096 -163.6926
6131.382892 91.075 -163.1628
6175.813420 91.055 -162.6112
6220.565910 91.036 -162.0134
6265.642695 91.021 -161.3395
6311.046124 91.016 -160.5761
6356.778566 91.032 -159.7457
6402.842404 91.071 -158.9026
6449.240040 91.133 -158.1073
6495.973891 91.214 -157.4027
6543.046396 91.308 -156.8046
6590.460007 91.407 -156.3017
6638.217197 91.507 -155.8622
6686.320456 91.608 -155.4449
6734.772290 91.710 -155.0115
6783.575226 91.819 -154.5361
6832.731809 91.940 -154.0084
6882.244600 92.079 -153.4342
6932.116181 92.242 -152.8355
6982.349153 92.433 -152.2458
7032.946133 92.651 -151.7023
7083.909760 92.899 -151.2411
7135.242690 93.175 -150.8979
7186.947600 93.477 -150.7087
7239.027185 93.802 -150.7089
7291.484160 94.149 -150.9337
7344.321260 94.510 -151.4159
7397.541239 94.882 -152.1810
7451.146872 95.256 -153.2428
7505.140954 95.628 -154.6047
7559.526299 95.992 -156.2651
7614.305743 96.345 -158.2201
7669.482141 96.681 -160.4668
7725.058371 96.998 -163.0056
7781.037328 97.289 -165.8372
7837.421932 97.550 -168.9564
7894.215122 97.775 -172.3464
7951.419859 97.956 -175.9805
8009.039125 98.090 -179.8215
8067.075924 98.171 176.1758
8125.533282 98.196 172.0622
8184.414245 98.162 167.8935
8243.721885 98.067 163.7344
8303.459292 97.909 159.6583
8363.629581 97.690 155.7424
8424.235888 97.413 152.0624
8485.281374 97.085 148.6828
8546.769221 96.713 145.6500
8608.702634 96.305 142.9906
8671.084842 95.872 140.7173
8733.919097 95.420 138.8329
8797.208675 94.958 137.3336
8860.956876 94.493 136.2096
8925.167022 94.033 135.4412
8989.842461 93.585 134.9974
9054.986566 93.155 134.8410
9120.602731 92.745 134.9349
9186.694378 92.360 135.2476
9253.264952 92.000 135.7538
9320.317925 91.668 136.4299
9387.856790 91.366 137.2468
9455.885071 91.095 138.1708
9524.406312 90.856 139.1676
9593.424086 90.649 140.2079
9662.941992 90.474 141.2704
9732.963653 90.328 142.3353
9803.492719 90.213 143.3767
9874.532869 90.127 144.3619
9946.087805 90.070 145.2549
10018.161257 90.036 146.0246
10090.756983 90.024 146.6466
10163.878768 90.030 147.0968
10237.530423 90.048 147.3484
10311.715789 90.073 147.3745
10386.438732 90.098 147.1577
10461.703149 90.114 146.6974
10537.512962 90.111 146.0090
10613.872125 90.083 145.1177
10690.784618 90.020 144.0586
10768.254450 89.915 142.8804
10846.285661 89.762 141.6523
10924.882318 89.556 140.4610
11004.048518 89.298 139.3998
11083.788390 88.992 138.5565
11164.106090 88.644 138.0037
11245.005805 88.267 137.7971
11326.491752 87.871 137.9714
11408.568180 87.472 138.5349
11491.239368 87.083 139.4633
11574.509626 86.717 140.7033
11658.383294 86.381 142.1865
11742.864745 86.082 143.8434
11827.958384 85.821 145.6064
11913.668646 85.599 147.4078
12000.000000 85.414 149.1807
12086.956947 85.262 150.8684
12174.544019 85.136 152.4293
12262.765784 85.029 153.8342
12351.626840 84.934 155.0612
12441.131819 84.844 156.0989
12531.285389 84.749 156.9515
12622.092249 84.643 157.6398
12713.557132 84.520 158.1942
12805.684808 84.376 158.6490
12898.480079 84.206 159.0436
12991.947783 84.009 159.4243
13086.092792 83.784 159.8391
13180.920015 83.533 160.3299
13276.434395 83.258 160.9297
13372.640911 82.963 161.6662
13469.544580 82.650 162.5624
13567.150452 82.325 163.6313
13665.463617 81.992 164.8735
13764.489200 81.657 166.2823
13864.232362 81.323 167.8511
13964.698305 80.992 169.5711
14065.892266 80.668 171.4288
14167.819519 80.352 173.4088
14270.485380 80.044 175.5013
14373.895200 79.745 177.7010
14478.054370 79.456 -179.9960
14582.968320 79.176 -177.5884
14688.642520 78.906 -175.0633
14795.082478 78.647 -172.3971
14902.293745 78.401 -169.5587
15010.281908 78.175 -166.5091
15119.052599 77.976 -163.2052
15228.611486 77.817 -159.6172
15338.964283 77.715 -155.7520
15450.116741 77.688 -151.6740
15562.074656 77.754 -147.5212
15674.843864 77.920 -143.5009
15788.430244 78.183 -139.8509
15902.839718 78.525 -136.7743
16018.078250 78.920 -134.3847
16134.151848 79.342 -132.6964
16251.066563 79.773 -131.6532
16368.828491 80.201 -131.1741
16487.443769 80.625 -131.1951
16606.918584 81.045 -131.6934
16727.259161 81.461 -132.6884
16848.471777 81.868 -134.2292
16970.562748 82.257 -136.3789
17093.538442 82.611 -139.1937
17217.405268 82.906 -142.6999
17342.169684 83.113 -146.8766
17467.838194 83.201 -151.6417
17594.417350 83.142 -156.8412
17721.913751 82.910 -162.2465
17850.334044 82.491 -167.5689
17979.684923 81.882 -172.4825
18109.973131 81.093 -176.6583
18241.205462 80.155 -179.8186
18373.388756 79.112 178.1917
18506.529905 78.022 177.3312
18640.635849 76.944 177.3481
18775.713581 75.922 177.8940
18911.770141 74.974 178.6867
19048.812624 74.106 179.5430
19186.848172 73.317 -179.7033
19325.883983 72.595 -179.2218
19465.927305 71.920 -179.0896
19606.985439 71.280 -179.2262
19749.065738 70.694 -179.4615
19892.175609 70.224 -179.6516
20036.322514 69.957 -179.7420
