* Measurement data measured by REW V5.31
* Source: EXCL: Microphone (USB Sound Device        ), MICROPHONE (Master Volume), L, volume: 0.390
* Format: 256k Log Swept Sine, 1 sweep at -10.0 dBFS with no timing reference
* Dated: Aug 28, 2024 1:03:43 PM
* REW Settings:
*  C-weighting compensation: Off
*  Target level: 75.0 dB
* Note: KZ Carol L
* Measurement: L KZ Carol
* Smoothing: 1/12 octave
* Frequency Step: 96 ppo
* Start Frequency: 0.36621094 Hz
*
* Freq(Hz) SPL(dB) Phase(degrees)
0.366211 85.103 156.6615
0.368865 85.097 156.6373
0.371538 85.087 156.6011
0.374230 85.076 156.5557
0.376942 85.063 156.5032
0.379673 85.049 156.4455
0.382424 85.035 156.3838
0.385196 85.020 156.3186
0.387987 85.005 156.2504
0.390798 84.989 156.1794
0.393630 84.974 156.1057
0.396483 84.958 156.0293
0.399356 84.943 155.9502
0.402250 84.927 155.8685
0.405165 84.911 155.7840
0.408101 84.895 155.6969
0.411058 84.879 155.6070
0.414037 84.862 155.5144
0.417037 84.846 155.4189
0.420059 84.830 155.3206
0.423103 84.813 155.2195
0.426169 84.796 155.1155
0.429257 84.779 155.0086
0.432368 84.762 154.8988
0.435501 84.745 154.7860
0.438656 84.728 154.6703
0.441835 84.710 154.5515
0.445037 84.693 154.4297
0.448262 84.675 154.3049
0.451510 84.658 154.1770
0.454782 84.640 154.0460
0.458077 84.622 153.9119
0.461397 84.603 153.7746
0.464740 84.585 153.6342
0.468108 84.567 153.4906
0.471500 84.548 153.3438
0.474917 84.530 153.1938
0.478358 84.511 153.0405
0.481825 84.492 152.8840
0.485316 84.473 152.7243
0.488833 84.453 152.5613
0.492375 84.434 152.3950
0.495943 84.415 152.2253
0.499537 84.395 152.0524
0.503157 84.375 151.8762
0.506803 84.355 151.6967
0.510475 84.335 151.5138
0.514175 84.315 151.3276
0.517900 84.294 151.1381
0.521653 84.274 150.9453
0.525434 84.253 150.7492
0.529241 84.232 150.5497
0.533076 84.211 150.3470
0.536939 84.190 150.1410
0.540830 84.169 149.9317
0.544749 84.148 149.7191
0.548696 84.126 149.5033
0.552673 84.104 149.2843
0.556677 84.082 149.0621
0.560711 84.060 148.8368
0.564774 84.038 148.6084
0.568867 84.016 148.3768
0.572989 83.993 148.1423
0.577141 83.970 147.9047
0.581324 83.948 147.6642
0.585536 83.925 147.4208
0.589779 83.901 147.1746
0.594053 83.878 146.9256
0.598358 83.854 146.6740
0.602694 83.831 146.4197
0.607061 83.807 146.1629
0.611460 83.783 145.9036
0.615891 83.759 145.6420
0.620354 83.734 145.3782
0.624849 83.710 145.1122
0.629377 83.685 144.8441
0.633938 83.660 144.5742
0.638532 83.635 144.3024
0.643159 83.609 144.0291
0.647819 83.584 143.7542
0.652514 83.558 143.4780
0.657242 83.532 143.2005
0.662005 83.506 142.9221
0.666802 83.480 142.6428
0.671634 83.454 142.3629
0.676501 83.427 142.0826
0.681403 83.400 141.8020
0.686341 83.373 141.5213
0.691314 83.346 141.2409
0.696324 83.318 140.9609
0.701370 83.291 140.6815
0.706452 83.262 140.4028
0.711571 83.234 140.1250
0.716728 83.204 139.8481
0.721921 83.173 139.5717
0.727153 83.141 139.2954
0.732422 83.106 139.0182
0.737729 83.069 138.7393
0.743075 83.030 138.4574
0.748460 82.989 138.1714
0.753883 82.947 137.8807
0.759346 82.903 137.5847
0.764849 82.859 137.2829
0.770391 82.814 136.9752
0.775974 82.769 136.6613
0.781597 82.723 136.3411
0.787261 82.677 136.0145
0.792966 82.630 135.6814
0.798712 82.582 135.3417
0.804500 82.534 134.9954
0.810329 82.485 134.6423
0.816201 82.435 134.2825
0.822116 82.385 133.9158
0.828073 82.334 133.5422
0.834074 82.283 133.1616
0.840118 82.230 132.7741
0.846206 82.177 132.3796
0.852338 82.123 131.9780
0.858514 82.068 131.5693
0.864735 82.011 131.1536
0.871001 81.954 130.7308
0.877313 81.896 130.3009
0.883670 81.837 129.8641
0.890074 81.777 129.4202
0.896524 81.715 128.9693
0.903020 81.652 128.5116
0.909564 81.588 128.0471
0.916155 81.523 127.5760
0.922794 81.456 127.0983
0.929481 81.387 126.6142
0.936216 81.317 126.1238
0.943000 81.246 125.6274
0.949834 81.173 125.1252
0.956717 81.098 124.6174
0.963649 81.021 124.1043
0.970632 80.942 123.5863
0.977666 80.862 123.0636
0.984750 80.779 122.5367
0.991886 80.694 122.0061
0.999074 80.608 121.4721
1.006314 80.518 120.9353
1.013606 80.427 120.3963
1.020951 80.333 119.8556
1.028349 80.237 119.3140
1.035801 80.137 118.7722
1.043307 80.036 118.2309
1.050867 79.931 117.6910
1.058482 79.824 117.1532
1.066152 79.713 116.6184
1.073878 79.599 116.0874
1.081660 79.482 115.5606
1.089498 79.362 115.0383
1.097393 79.238 114.5205
1.105345 79.110 114.0066
1.113355 78.979 113.4957
1.121423 78.843 112.9871
1.129549 78.704 112.4797
1.137734 78.561 111.9729
1.145979 78.413 111.4659
1.154283 78.262 110.9581
1.162647 78.106 110.4488
1.171072 77.947 109.9376
1.179558 77.784 109.4238
1.188106 77.617 108.9068
1.196715 77.446 108.3861
1.205387 77.271 107.8608
1.214122 77.093 107.3304
1.222920 76.911 106.7942
1.231782 76.726 106.2512
1.240708 76.537 105.7008
1.249699 76.344 105.1421
1.258754 76.149 104.5740
1.267876 75.950 103.9957
1.277063 75.748 103.4060
1.286318 75.543 102.8040
1.295639 75.336 102.1884
1.305027 75.125 101.5579
1.314484 74.912 100.9112
1.324009 74.696 100.2469
1.333604 74.478 99.5635
1.343268 74.258 98.8595
1.353002 74.036 98.1332
1.362806 73.812 97.3829
1.372681 73.586 96.6068
1.382628 73.358 95.8031
1.392647 73.129 94.9700
1.402739 72.898 94.1055
1.412904 72.666 93.2080
1.423142 72.433 92.2757
1.433455 72.198 91.3071
1.443843 71.961 90.3010
1.454305 71.721 89.2560
1.464844 71.476 88.1709
1.475459 71.225 87.0437
1.486150 70.965 85.8715
1.496920 70.695 84.6498
1.507767 70.415 83.3722
1.518693 70.123 82.0306
1.529698 69.821 80.6149
1.540783 69.509 79.1125
1.551948 69.187 77.5081
1.563194 68.858 75.7832
1.574521 68.521 73.9151
1.585931 68.179 71.8756
1.597423 67.833 69.6304
1.608999 67.485 67.1362
1.620658 67.136 64.3395
1.632402 66.787 61.1732
1.644232 66.442 57.5542
1.656146 66.101 53.3808
1.668147 65.767 48.5319
1.680235 65.442 42.8729
1.692411 65.129 36.2715
1.704675 64.829 28.6344
1.717028 64.546 19.9679
1.729470 64.282 10.4482
1.742003 64.040 0.4540
1.754626 63.823 -9.4974
1.767341 63.635 -18.9019
1.780147 63.479 -27.4129
1.793047 63.358 -34.8892
1.806040 63.276 -41.3544
1.819128 63.237 -46.9251
1.832310 63.244 -51.7518
1.845587 63.298 -55.9828
1.858961 63.401 -59.7444
1.872432 63.553 -63.1352
1.886001 63.753 -66.2280
1.899667 63.997 -69.0755
1.913433 64.283 -71.7165
1.927299 64.607 -74.1792
1.941265 64.965 -76.4852
1.955332 65.353 -78.6511
1.969501 65.766 -80.6901
1.983773 66.200 -82.6126
1.998148 66.650 -84.4274
2.012627 67.112 -86.1414
2.027212 67.581 -87.7607
2.041902 68.052 -89.2901
2.056698 68.521 -90.7339
2.071602 68.982 -92.0955
2.086614 69.431 -93.3783
2.101734 69.863 -94.5851
2.116964 70.274 -95.7192
2.132304 70.661 -96.7840
2.147756 71.018 -97.7844
2.163320 71.346 -98.7267
2.178996 71.642 -99.6197
2.194786 71.907 -100.4747
2.210690 72.143 -101.3049
2.226710 72.354 -102.1231
2.242845 72.542 -102.9391
2.259098 72.710 -103.7592
2.275468 72.860 -104.5864
2.291957 72.992 -105.4209
2.308566 73.109 -106.2614
2.325295 73.211 -107.1054
2.342145 73.300 -107.9495
2.359117 73.376 -108.7899
2.376212 73.440 -109.6224
2.393431 73.494 -110.4426
2.410775 73.538 -111.2456
2.428244 73.573 -112.0265
2.445840 73.602 -112.7803
2.463564 73.623 -113.5020
2.481416 73.640 -114.1870
2.499397 73.652 -114.8311
2.517509 73.660 -115.4317
2.535752 73.664 -115.9880
2.554127 73.663 -116.5019
2.572635 73.658 -116.9779
2.591277 73.645 -117.4223
2.610055 73.625 -117.8413
2.628968 73.595 -118.2392
2.648019 73.557 -118.6188
2.667208 73.509 -118.9806
2.686535 73.453 -119.3239
2.706003 73.388 -119.6465
2.725612 73.315 -119.9454
2.745363 73.237 -120.2169
2.765257 73.152 -120.4562
2.785295 73.063 -120.6582
2.805478 72.970 -120.8168
2.825808 72.874 -120.9255
2.846285 72.777 -120.9775
2.866910 72.678 -120.9653
2.887685 72.577 -120.8817
2.908611 72.475 -120.7196
2.929688 72.371 -120.4728
2.950917 72.262 -120.1359
2.972301 72.148 -119.7045
2.993839 72.028 -119.1755
3.015534 71.902 -118.5462
3.037386 71.771 -117.8151
3.059396 71.636 -116.9812
3.081565 71.501 -116.0446
3.103896 71.367 -115.0066
3.126388 71.237 -113.8698
3.149043 71.114 -112.6384
3.171862 71.001 -111.3182
3.194847 70.902 -109.9166
3.217998 70.821 -108.4417
3.241317 70.759 -106.9018
3.264805 70.721 -105.3039
3.288463 70.707 -103.6527
3.312293 70.718 -101.9512
3.336295 70.756 -100.2023
3.360471 70.818 -98.4129
3.384822 70.903 -96.5955
3.409350 71.010 -94.7674
3.434056 71.135 -92.9493
3.458940 71.276 -91.1638
3.484005 71.431 -89.4332
3.509252 71.597 -87.7784
3.534681 71.772 -86.2179
3.560295 71.953 -84.7669
3.586094 72.138 -83.4365
3.612081 72.327 -82.2338
3.638255 72.518 -81.1610
3.664620 72.714 -80.2159
3.691175 72.914 -79.3923
3.717923 73.120 -78.6824
3.744864 73.332 -78.0774
3.772001 73.549 -77.5693
3.799335 73.771 -77.1503
3.826866 73.995 -76.8132
3.854597 74.219 -76.5516
3.882529 74.441 -76.3596
3.910664 74.658 -76.2320
3.939002 74.869 -76.1647
3.967546 75.070 -76.1550
3.996296 75.262 -76.2013
4.025255 75.444 -76.3031
4.054423 75.615 -76.4607
4.083804 75.776 -76.6731
4.113396 75.928 -76.9373
4.143204 76.071 -77.2482
4.173227 76.205 -77.5990
4.203468 76.332 -77.9817
4.233928 76.450 -78.3883
4.264609 76.560 -78.8111
4.295512 76.663 -79.2438
4.326639 76.757 -79.6817
4.357992 76.844 -80.1224
4.389572 76.921 -80.5666
4.421380 76.991 -81.0166
4.453419 77.051 -81.4754
4.485691 77.102 -81.9437
4.518196 77.144 -82.4201
4.550936 77.179 -82.9002
4.583914 77.205 -83.3779
4.617131 77.224 -83.8458
4.650589 77.237 -84.2965
4.684289 77.244 -84.7229
4.718233 77.245 -85.1196
4.752424 77.240 -85.4834
4.786862 77.229 -85.8135
4.821549 77.212 -86.1108
4.856488 77.189 -86.3764
4.891680 77.160 -86.6109
4.927127 77.126 -86.8135
4.962831 77.089 -86.9824
4.998794 77.050 -87.1149
5.035017 77.010 -87.2076
5.071503 76.970 -87.2569
5.108253 76.931 -87.2591
5.145270 76.893 -87.2114
5.182555 76.857 -87.1124
5.220110 76.822 -86.9631
5.257937 76.788 -86.7667
5.296038 76.757 -86.5285
5.334415 76.731 -86.2552
5.373071 76.709 -85.9538
5.412006 76.694 -85.6310
5.451224 76.687 -85.2918
5.490725 76.689 -84.9398
5.530514 76.699 -84.5768
5.570590 76.719 -84.2053
5.610957 76.747 -83.8297
5.651616 76.783 -83.4573
5.692570 76.827 -83.0977
5.733821 76.878 -82.7611
5.775370 76.935 -82.4573
5.817221 76.998 -82.1945
5.859375 77.066 -81.9778
5.901834 77.141 -81.8094
5.944602 77.221 -81.6901
5.987679 77.306 -81.6197
6.031068 77.394 -81.5986
6.074771 77.485 -81.6281
6.118792 77.576 -81.7094
6.163131 77.667 -81.8441
6.207792 77.756 -82.0337
6.252776 77.843 -82.2783
6.298086 77.928 -82.5766
6.343725 78.010 -82.9252
6.389694 78.089 -83.3190
6.435996 78.165 -83.7520
6.482634 78.236 -84.2185
6.529610 78.302 -84.7135
6.576926 78.364 -85.2340
6.624585 78.420 -85.7782
6.672590 78.470 -86.3443
6.720942 78.514 -86.9293
6.769645 78.554 -87.5282
6.818700 78.588 -88.1345
6.868111 78.618 -88.7415
6.917881 78.643 -89.3433
6.968010 78.664 -89.9361
7.018504 78.681 -90.5178
7.069362 78.694 -91.0868
7.120590 78.704 -91.6413
7.172189 78.712 -92.1784
7.224161 78.719 -92.6944
7.276511 78.725 -93.1859
7.329239 78.731 -93.6499
7.382350 78.738 -94.0852
7.435845 78.746 -94.4922
7.489729 78.756 -94.8724
7.544002 78.769 -95.2283
7.598669 78.786 -95.5623
7.653732 78.807 -95.8763
7.709194 78.834 -96.1721
7.765058 78.866 -96.4517
7.821327 78.904 -96.7183
7.878004 78.948 -96.9763
7.935091 78.997 -97.2315
7.992592 79.053 -97.4894
8.050510 79.115 -97.7544
8.108847 79.182 -98.0297
8.167607 79.256 -98.3177
8.226793 79.334 -98.6206
8.286408 79.416 -98.9411
8.346454 79.503 -99.2820
8.406936 79.592 -99.6452
8.467856 79.683 -100.0318
8.529218 79.776 -100.4413
8.591024 79.870 -100.8723
8.653278 79.965 -101.3227
8.715983 80.060 -101.7904
8.779143 80.154 -102.2734
8.842760 80.246 -102.7696
8.906839 80.338 -103.2765
8.971381 80.427 -103.7906
9.036392 80.515 -104.3078
9.101873 80.601 -104.8243
9.167829 80.685 -105.3367
9.234263 80.768 -105.8423
9.301178 80.848 -106.3389
9.368578 80.927 -106.8238
9.436467 81.004 -107.2946
9.504847 81.080 -107.7490
9.573723 81.156 -108.1855
9.643099 81.231 -108.6035
9.712976 81.304 -109.0031
9.783361 81.377 -109.3846
9.854255 81.448 -109.7484
9.925663 81.518 -110.0954
9.997588 81.587 -110.4267
10.070035 81.654 -110.7440
10.143007 81.721 -111.0494
10.216507 81.788 -111.3450
10.290540 81.854 -111.6328
10.365109 81.921 -111.9144
10.440219 81.987 -112.1913
10.515873 82.054 -112.4651
10.592076 82.120 -112.7371
10.668830 82.186 -113.0084
10.746141 82.252 -113.2794
10.824012 82.318 -113.5503
10.902447 82.382 -113.8209
10.981451 82.446 -114.0911
11.061027 82.508 -114.3604
11.141180 82.569 -114.6283
11.221913 82.629 -114.8939
11.303232 82.687 -115.1566
11.385140 82.744 -115.4157
11.467641 82.799 -115.6707
11.550741 82.854 -115.9215
11.634442 82.907 -116.1678
11.718750 82.959 -116.4098
11.803669 83.011 -116.6478
11.889203 83.062 -116.8824
11.975357 83.113 -117.1143
12.062136 83.163 -117.3446
12.149543 83.212 -117.5742
12.237583 83.262 -117.8040
12.326262 83.310 -118.0350
12.415583 83.358 -118.2680
12.505552 83.405 -118.5039
12.596172 83.450 -118.7431
12.687449 83.495 -118.9859
12.779387 83.538 -119.2325
12.871992 83.579 -119.4827
12.965268 83.620 -119.7364
13.059220 83.659 -119.9934
13.153852 83.697 -120.2533
13.249170 83.734 -120.5157
13.345179 83.770 -120.7806
13.441884 83.806 -121.0481
13.539289 83.842 -121.3183
13.637401 83.877 -121.5917
13.736223 83.912 -121.8691
13.835761 83.947 -122.1516
13.936021 83.983 -122.4404
14.037007 84.018 -122.7368
14.138725 84.054 -123.0421
14.241180 84.090 -123.3578
14.344377 84.126 -123.6851
14.448323 84.161 -124.0248
14.553021 84.197 -124.3776
14.658478 84.233 -124.7438
14.764700 84.268 -125.1232
14.871691 84.303 -125.5151
14.979457 84.338 -125.9187
15.088005 84.372 -126.3327
15.197339 84.406 -126.7558
15.307465 84.439 -127.1862
15.418389 84.472 -127.6225
15.530117 84.504 -128.0633
15.642655 84.537 -128.5075
15.756008 84.570 -128.9541
15.870182 84.603 -129.4027
15.985184 84.638 -129.8531
16.101019 84.673 -130.3055
16.217694 84.709 -130.7603
16.335214 84.747 -131.2182
16.453586 84.786 -131.6796
16.572815 84.826 -132.1454
16.692909 84.868 -132.6157
16.813872 84.911 -133.0907
16.935713 84.955 -133.5700
17.058436 85.000 -134.0529
17.182048 85.046 -134.5383
17.306556 85.092 -135.0248
17.431967 85.138 -135.5105
17.558286 85.184 -135.9936
17.685521 85.229 -136.4721
17.813677 85.275 -136.9443
17.942762 85.320 -137.4085
18.072783 85.366 -137.8635
18.203746 85.412 -138.3085
18.335658 85.458 -138.7431
18.468526 85.505 -139.1675
18.602356 85.553 -139.5823
18.737156 85.602 -139.9885
18.872934 85.653 -140.3875
19.009695 85.704 -140.7809
19.147447 85.757 -141.1706
19.286197 85.810 -141.5583
19.425953 85.864 -141.9457
19.566721 85.918 -142.3341
19.708510 85.972 -142.7249
19.851326 86.025 -143.1187
19.995177 86.078 -143.5161
20.140070 86.130 -143.9170
20.286013 86.180 -144.3210
20.433014 86.228 -144.7274
20.581080 86.275 -145.1355
20.730219 86.320 -145.5440
20.880439 86.363 -145.9522
21.031747 86.405 -146.3592
21.184152 86.445 -146.7646
21.337661 86.484 -147.1685
21.492282 86.523 -147.5713
21.648024 86.561 -147.9739
21.804895 86.598 -148.3776
21.962902 86.635 -148.7841
22.122054 86.672 -149.1948
22.282360 86.708 -149.6113
22.443827 86.743 -150.0347
22.606464 86.778 -150.4658
22.770280 86.813 -150.9048
22.935283 86.846 -151.3514
23.101481 86.879 -151.8051
23.268884 86.911 -152.2652
23.437500 86.942 -152.7308
23.607338 86.973 -153.2012
23.778406 87.004 -153.6762
23.950714 87.035 -154.1555
24.124271 87.065 -154.6393
24.299086 87.096 -155.1280
24.475167 87.128 -155.6218
24.652524 87.159 -156.1208
24.831166 87.191 -156.6246
25.011103 87.224 -157.1326
25.192344 87.256 -157.6437
25.374898 87.289 -158.1567
25.558775 87.321 -158.6702
25.743984 87.354 -159.1830
25.930536 87.388 -159.6942
26.118439 87.422 -160.2034
26.307704 87.456 -160.7104
26.498341 87.491 -161.2156
26.690359 87.527 -161.7193
26.883768 87.563 -162.2220
27.078579 87.599 -162.7238
27.274801 87.635 -163.2249
27.472446 87.671 -163.7252
27.671522 87.707 -164.2243
27.872042 87.742 -164.7222
28.074014 87.777 -165.2186
28.277450 87.811 -165.7137
28.482360 87.845 -166.2078
28.688755 87.877 -166.7010
28.896645 87.909 -167.1938
29.106042 87.940 -167.6860
29.316957 87.970 -168.1777
29.529400 87.998 -168.6686
29.743382 88.027 -169.1586
29.958915 88.054 -169.6477
30.176009 88.081 -170.1364
30.394677 88.108 -170.6257
30.614929 88.135 -171.1170
30.836778 88.161 -171.6120
31.060234 88.188 -172.1124
31.285309 88.215 -172.6197
31.512015 88.241 -173.1345
31.740364 88.267 -173.6571
31.970368 88.292 -174.1867
32.202039 88.317 -174.7220
32.435388 88.341 -175.2617
32.670428 88.365 -175.8043
32.907171 88.388 -176.3484
33.145630 88.411 -176.8934
33.385817 88.434 -177.4388
33.627745 88.458 -177.9849
33.871425 88.482 -178.5319
34.116871 88.506 -179.0800
34.364096 88.531 -179.6295
34.613113 88.555 179.8199
34.863934 88.580 179.2684
35.116572 88.605 178.7166
35.371041 88.630 178.1650
35.627354 88.654 177.6140
35.885525 88.678 177.0639
36.145566 88.702 176.5147
36.407492 88.726 175.9663
36.671316 88.749 175.4187
36.937051 88.771 174.8719
37.204712 88.793 174.3262
37.474313 88.815 173.7818
37.745867 88.835 173.2387
38.019389 88.856 172.6964
38.294893 88.876 172.1542
38.572394 88.897 171.6108
38.851905 88.916 171.0652
39.133442 88.936 170.5164
39.417019 88.955 169.9643
39.702651 88.973 169.4098
39.990353 88.990 168.8542
40.280140 89.007 168.2993
40.572026 89.024 167.7462
40.866028 89.041 167.1952
41.162160 89.058 166.6458
41.460438 89.075 166.0963
41.760877 89.094 165.5444
42.063494 89.113 164.9883
42.368303 89.132 164.4269
42.675322 89.151 163.8597
42.984565 89.170 163.2877
43.296048 89.188 162.7120
43.609789 89.205 162.1343
43.925804 89.222 161.5554
44.244108 89.238 160.9761
44.564719 89.254 160.3962
44.887654 89.270 159.8154
45.212928 89.285 159.2332
45.540560 89.300 158.6493
45.870565 89.315 158.0635
46.202962 89.329 157.4760
46.537768 89.343 156.8867
46.875000 89.357 156.2961
47.214676 89.371 155.7041
47.556813 89.384 155.1108
47.901429 89.398 154.5162
48.248542 89.413 153.9201
48.598171 89.427 153.3223
48.950334 89.441 152.7227
49.305048 89.456 152.1215
49.662333 89.471 151.5186
50.022206 89.486 150.9143
50.384688 89.501 150.3085
50.749796 89.515 149.7008
51.117550 89.530 149.0913
51.487969 89.543 148.4801
51.861072 89.556 147.8681
52.236879 89.569 147.2565
52.615409 89.581 146.6462
52.996681 89.592 146.0376
53.380717 89.603 145.4299
53.767536 89.614 144.8216
54.157158 89.625 144.2110
54.549603 89.635 143.5967
54.944892 89.646 142.9781
55.343045 89.655 142.3557
55.744084 89.665 141.7300
56.148028 89.673 141.1022
56.554900 89.682 140.4729
56.964720 89.690 139.8419
57.377510 89.699 139.2087
57.793291 89.708 138.5728
58.212085 89.717 137.9340
58.633914 89.726 137.2933
59.058799 89.735 136.6519
59.486764 89.744 136.0110
59.917829 89.753 135.3706
60.352019 89.763 134.7296
60.789354 89.773 134.0862
61.229859 89.784 133.4389
61.673556 89.794 132.7875
62.120468 89.804 132.1328
62.570618 89.814 131.4760
63.024031 89.824 130.8182
63.480729 89.833 130.1601
63.940736 89.843 129.5016
64.404077 89.852 128.8424
64.870776 89.861 128.1823
65.340856 89.869 127.5208
65.814343 89.878 126.8578
66.291261 89.886 126.1937
66.771635 89.894 125.5291
67.255489 89.901 124.8645
67.742850 89.908 124.1998
68.233743 89.915 123.5340
68.728193 89.923 122.8652
69.226226 89.931 122.1910
69.727867 89.938 121.5097
70.233144 89.946 120.8204
70.742083 89.954 120.1230
71.254709 89.962 119.4180
71.771050 89.971 118.7059
72.291132 89.979 117.9871
72.814984 89.988 117.2617
73.342631 89.997 116.5299
73.874102 90.007 115.7927
74.409424 90.017 115.0520
74.948626 90.027 114.3108
75.491734 90.038 113.5710
76.038779 90.049 112.8325
76.589787 90.062 112.0928
77.144788 90.076 111.3486
77.703811 90.090 110.5975
78.266885 90.104 109.8383
78.834039 90.118 109.0703
79.405303 90.131 108.2920
79.980706 90.144 107.4998
80.560280 90.157 106.6901
81.144053 90.168 105.8620
81.732056 90.177 105.0180
82.324320 90.184 104.1632
82.920876 90.189 103.3016
83.521755 90.193 102.4348
84.126988 90.198 101.5622
84.736607 90.201 100.6832
85.350643 90.205 99.7979
85.969129 90.208 98.9073
86.592097 90.211 98.0119
87.219579 90.214 97.1121
87.851608 90.216 96.2081
88.488217 90.217 95.3004
89.129439 90.217 94.3898
89.775308 90.216 93.4764
90.425856 90.214 92.5593
91.081119 90.212 91.6370
91.741131 90.210 90.7077
92.405925 90.206 89.7696
93.075536 90.201 88.8223
93.750000 90.194 87.8663
94.429351 90.186 86.9025
95.113625 90.176 85.9315
95.802858 90.165 84.9530
96.497085 90.152 83.9661
97.196342 90.138 82.9705
97.900667 90.122 81.9660
98.610096 90.105 80.9535
99.324665 90.086 79.9350
100.044413 90.065 78.9138
100.769376 90.041 77.8943
101.499592 90.014 76.8820
102.235100 89.985 75.8831
102.975938 89.953 74.9030
103.722144 89.919 73.9431
104.473757 89.884 72.9996
105.230817 89.849 72.0664
105.993363 89.814 71.1390
106.761435 89.779 70.2135
107.535072 89.746 69.2827
108.314315 89.714 68.3369
109.099206 89.682 67.3711
109.889783 89.649 66.3897
110.686090 89.614 65.4015
111.488167 89.579 64.4133
112.296056 89.544 63.4279
113.109800 89.508 62.4446
113.929440 89.472 61.4598
114.755020 89.436 60.4701
115.586582 89.400 59.4737
116.424170 89.363 58.4704
117.267827 89.325 57.4621
118.117598 89.285 56.4533
118.973527 89.244 55.4522
119.835658 89.202 54.4702
120.704037 89.158 53.5135
121.578708 89.116 52.5764
122.459718 89.074 51.6481
123.347111 89.032 50.7196
124.240935 88.990 49.7845
125.141236 88.946 48.8382
126.048061 88.902 47.8781
126.961458 88.856 46.9033
127.881473 88.810 45.9147
128.808154 88.762 44.9162
129.741551 88.714 43.9127
130.681712 88.665 42.9073
131.628686 88.616 41.9002
132.582521 88.566 40.8896
133.543269 88.516 39.8743
134.510979 88.465 38.8529
135.485701 88.414 37.8240
136.467486 88.362 36.7858
137.456386 88.310 35.7376
138.452451 88.256 34.6809
139.455735 88.201 33.6178
140.466288 88.144 32.5509
141.484165 88.085 31.4816
142.509418 88.025 30.4107
143.542100 87.962 29.3394
144.582265 87.898 28.2696
145.629968 87.832 27.2036
146.685262 87.764 26.1429
147.748204 87.694 25.0893
148.818849 87.622 24.0437
149.897251 87.547 23.0077
150.983469 87.468 21.9834
152.077557 87.386 20.9739
153.179574 87.299 19.9825
154.289576 87.211 19.0109
155.407622 87.121 18.0582
156.533770 87.033 17.1222
157.668078 86.948 16.1996
158.810606 86.868 15.2860
159.961413 86.792 14.3751
161.120559 86.721 13.4613
162.288105 86.653 12.5410
163.464112 86.587 11.6095
164.648640 86.522 10.6583
165.841752 86.457 9.6764
167.043510 86.390 8.6544
168.253976 86.321 7.5895
169.473213 86.246 6.4879
170.701286 86.166 5.3604
171.938258 86.080 4.2179
173.184194 85.988 3.0696
174.439158 85.888 1.9224
175.703216 85.783 0.7817
176.976434 85.670 -0.3482
178.258878 85.551 -1.4623
179.550615 85.426 -2.5544
180.851713 85.294 -3.6183
182.162239 85.158 -4.6489
183.482262 85.016 -5.6417
184.811850 84.869 -6.5931
186.151073 84.718 -7.4993
187.500000 84.563 -8.3568
188.858702 84.406 -9.1618
190.227250 84.247 -9.9106
191.605715 84.088 -10.6000
192.994169 83.930 -11.2272
194.392685 83.772 -11.7908
195.801334 83.617 -12.2902
197.220191 83.465 -12.7249
198.649330 83.317 -13.0944
200.088825 83.175 -13.4001
201.538751 83.040 -13.6449
202.999184 82.913 -13.8330
204.470200 82.796 -13.9719
205.951875 82.690 -14.0714
207.444287 82.597 -14.1432
208.947514 82.517 -14.1985
210.461634 82.450 -14.2462
211.986726 82.396 -14.2935
213.522869 82.352 -14.3456
215.070144 82.319 -14.4075
216.628631 82.294 -14.4867
218.198411 82.280 -14.5963
219.779567 82.274 -14.7512
221.372180 82.277 -14.9640
222.976334 82.287 -15.2426
224.592112 82.304 -15.5903
226.219600 82.327 -16.0085
227.858880 82.353 -16.4965
229.510039 82.383 -17.0527
231.173164 82.414 -17.6744
232.848340 82.445 -18.3572
234.535655 82.474 -19.0967
236.235197 82.500 -19.8888
237.947054 82.523 -20.7296
239.671317 82.542 -21.6141
241.408074 82.558 -22.5372
243.157416 82.570 -23.4930
244.919435 82.578 -24.4760
246.694223 82.581 -25.4811
248.481871 82.579 -26.5054
250.282473 82.573 -27.5461
252.096123 82.562 -28.6005
253.922915 82.546 -29.6652
255.762945 82.526 -30.7373
257.616309 82.502 -31.8137
259.483103 82.473 -32.8913
261.363424 82.440 -33.9673
263.257372 82.404 -35.0393
265.165043 82.365 -36.1051
267.086538 82.322 -37.1633
269.021957 82.277 -38.2124
270.971401 82.230 -39.2512
272.934972 82.181 -40.2782
274.912771 82.130 -41.2922
276.904902 82.078 -42.2924
278.911469 82.025 -43.2784
280.932577 81.971 -44.2495
282.968330 81.916 -45.2050
285.018835 81.861 -46.1442
287.084199 81.805 -47.0658
289.164530 81.750 -47.9689
291.259935 81.695 -48.8530
293.370525 81.641 -49.7186
295.496408 81.588 -50.5674
297.637697 81.536 -51.4014
299.794503 81.485 -52.2228
301.966937 81.437 -53.0336
304.155114 81.391 -53.8345
306.359147 81.347 -54.6253
308.579152 81.305 -55.4050
310.815244 81.266 -56.1732
313.067539 81.230 -56.9304
315.336156 81.196 -57.6788
317.621211 81.167 -58.4220
319.922826 81.141 -59.1638
322.241118 81.119 -59.9072
324.576210 81.101 -60.6533
326.928223 81.088 -61.4022
329.297280 81.077 -62.1548
331.683504 81.071 -62.9130
334.087019 81.067 -63.6790
336.507952 81.066 -64.4550
338.946427 81.069 -65.2428
341.402572 81.074 -66.0436
343.876516 81.081 -66.8581
346.368387 81.090 -67.6878
348.878315 81.102 -68.5347
351.406431 81.116 -69.4010
353.952867 81.132 -70.2887
356.517756 81.150 -71.1989
359.101230 81.169 -72.1323
361.703426 81.189 -73.0892
364.324478 81.211 -74.0696
366.964523 81.233 -75.0729
369.623699 81.256 -76.0981
372.302145 81.280 -77.1444
375.000000 81.304 -78.2116
377.717405 81.329 -79.2999
380.454501 81.353 -80.4098
383.211431 81.377 -81.5411
385.988339 81.401 -82.6934
388.785369 81.424 -83.8655
391.602668 81.447 -85.0560
394.440383 81.469 -86.2639
397.298660 81.492 -87.4887
400.177650 81.513 -88.7306
403.077502 81.534 -89.9897
405.998368 81.555 -91.2655
408.940400 81.574 -92.5566
411.903750 81.592 -93.8621
414.888575 81.610 -95.1813
417.895028 81.627 -96.5143
420.923268 81.643 -97.8613
423.973452 81.658 -99.2215
427.045738 81.672 -100.5937
430.140287 81.684 -101.9760
433.257261 81.696 -103.3669
436.396822 81.706 -104.7655
439.559133 81.715 -106.1724
442.744360 81.723 -107.5887
445.952668 81.730 -109.0154
449.184225 81.737 -110.4523
452.439199 81.741 -111.8990
455.717760 81.745 -113.3547
459.020079 81.747 -114.8179
462.346327 81.749 -116.2876
465.696680 81.750 -117.7626
469.071310 81.750 -119.2428
472.470394 81.749 -120.7284
475.894109 81.747 -122.2195
479.342634 81.744 -123.7158
482.816148 81.740 -125.2175
486.314833 81.735 -126.7249
489.838871 81.729 -128.2385
493.388445 81.722 -129.7581
496.963741 81.714 -131.2831
500.564945 81.706 -132.8136
504.192245 81.697 -134.3484
507.845830 81.687 -135.8866
511.525890 81.677 -137.4270
515.232618 81.667 -138.9698
518.966206 81.656 -140.5158
522.726849 81.644 -142.0663
526.514743 81.632 -143.6226
530.330086 81.620 -145.1849
534.173076 81.607 -146.7523
538.043915 81.594 -148.3232
541.942803 81.580 -149.8961
545.869944 81.566 -151.4702
549.825542 81.551 -153.0453
553.809805 81.536 -154.6217
557.822939 81.520 -156.1999
561.865154 81.504 -157.7806
565.936660 81.487 -159.3645
570.037671 81.470 -160.9515
574.168399 81.453 -162.5416
578.329060 81.435 -164.1340
582.519870 81.418 -165.7280
586.741049 81.401 -167.3234
590.992817 81.384 -168.9203
595.275394 81.368 -170.5201
599.589005 81.351 -172.1239
603.933874 81.334 -173.7322
608.310228 81.317 -175.3448
612.718295 81.300 -176.9611
617.158304 81.283 -178.5806
621.630488 81.266 179.7968
626.135079 81.249 178.1712
630.672311 81.232 176.5430
635.242423 81.216 174.9127
639.845651 81.200 173.2811
644.482237 81.184 171.6490
649.152421 81.169 170.0166
653.856447 81.153 168.3833
658.594560 81.138 166.7482
663.367008 81.122 165.1101
668.174039 81.107 163.4691
673.015903 81.091 161.8260
677.892854 81.076 160.1816
682.805145 81.061 158.5358
687.753032 81.046 156.8879
692.736774 81.032 155.2374
697.756631 81.018 153.5844
702.812863 81.005 151.9291
707.905735 80.992 150.2716
713.035511 80.980 148.6113
718.202461 80.969 146.9472
723.406852 80.958 145.2780
728.648956 80.949 143.6028
733.929047 80.940 141.9211
739.247399 80.931 140.2324
744.604290 80.923 138.5358
750.000000 80.915 136.8309
755.434809 80.906 135.1185
760.909001 80.895 133.4010
766.422861 80.883 131.6833
771.976677 80.870 129.9713
777.570739 80.857 128.2682
783.205337 80.846 126.5726
788.880766 80.837 124.8787
794.597321 80.831 123.1810
800.355301 80.827 121.4767
806.155005 80.825 119.7657
811.996736 80.824 118.0488
817.880799 80.824 116.3265
823.807501 80.826 114.5989
829.777150 80.828 112.8660
835.790057 80.832 111.1281
841.846536 80.836 109.3853
847.946903 80.841 107.6376
854.091476 80.847 105.8840
860.280575 80.854 104.1237
866.514523 80.862 102.3563
872.793644 80.871 100.5815
879.118267 80.881 98.7995
885.488720 80.892 97.0104
891.905336 80.904 95.2137
898.368450 80.918 93.4080
904.878398 80.933 91.5908
911.435520 80.950 89.7596
918.040157 80.969 87.9122
924.692655 80.989 86.0471
931.393359 81.010 84.1631
938.142619 81.031 82.2590
944.940787 81.054 80.3334
951.788218 81.077 78.3857
958.685268 81.100 76.4160
965.632296 81.125 74.4253
972.629666 81.151 72.4150
979.677741 81.179 70.3865
986.776890 81.208 68.3405
993.927482 81.239 66.2772
1001.129891 81.271 64.1967
1008.384491 81.303 62.0991
1015.691660 81.337 59.9860
1023.051781 81.371 57.8580
1030.465236 81.406 55.7151
1037.932411 81.441 53.5574
1045.453698 81.477 51.3849
1053.029486 81.514 49.1977
1060.660172 81.551 46.9954
1068.346153 81.588 44.7778
1076.087829 81.626 42.5446
1083.885605 81.664 40.2964
1091.739887 81.702 38.0333
1099.651084 81.741 35.7556
1107.619609 81.780 33.4628
1115.645878 81.819 31.1548
1123.730308 81.857 28.8314
1131.873321 81.896 26.4922
1140.075341 81.934 24.1372
1148.336797 81.972 21.7665
1156.658119 82.010 19.3804
1165.039741 82.048 16.9792
1173.482099 82.085 14.5636
1181.985634 82.122 12.1349
1190.550789 82.158 9.6943
1199.178011 82.196 7.2433
1207.867749 82.233 4.7829
1216.620457 82.270 2.3137
1225.436590 82.308 -0.1642
1234.316609 82.345 -2.6519
1243.260976 82.381 -5.1499
1252.270157 82.418 -7.6581
1261.344623 82.454 -10.1761
1270.484846 82.490 -12.7034
1279.691303 82.525 -15.2400
1288.964474 82.560 -17.7856
1298.304842 82.595 -20.3408
1307.712894 82.630 -22.9053
1317.189120 82.664 -25.4785
1326.734016 82.699 -28.0594
1336.348077 82.735 -30.6469
1346.031806 82.772 -33.2405
1355.785708 82.810 -35.8402
1365.610290 82.851 -38.4454
1375.506065 82.893 -41.0555
1385.473549 82.936 -43.6707
1395.513261 82.981 -46.2915
1405.625726 83.027 -48.9182
1415.811469 83.073 -51.5507
1426.071023 83.120 -54.1885
1436.404921 83.167 -56.8313
1446.813703 83.214 -59.4790
1457.297912 83.261 -62.1315
1467.858093 83.308 -64.7886
1478.494798 83.354 -67.4501
1489.208581 83.399 -70.1159
1500.000000 83.442 -72.7864
1510.869618 83.482 -75.4619
1521.818002 83.519 -78.1425
1532.845723 83.553 -80.8286
1543.953355 83.583 -83.5201
1555.141477 83.610 -86.2169
1566.410674 83.635 -88.9189
1577.761531 83.660 -91.6266
1589.194642 83.684 -94.3397
1600.710601 83.709 -97.0577
1612.310010 83.734 -99.7803
1623.993473 83.760 -102.5071
1635.761599 83.788 -105.2382
1647.615002 83.817 -107.9738
1659.554299 83.848 -110.7143
1671.580114 83.880 -113.4610
1683.693072 83.915 -116.2154
1695.893807 83.952 -118.9791
1708.182952 83.989 -121.7540
1720.561150 84.028 -124.5415
1733.029045 84.067 -127.3425
1745.587288 84.105 -130.1566
1758.236533 84.144 -132.9825
1770.977440 84.182 -135.8182
1783.810673 84.220 -138.6617
1796.736900 84.259 -141.5117
1809.756796 84.297 -144.3671
1822.871040 84.337 -147.2278
1836.080315 84.378 -150.0940
1849.385310 84.420 -152.9661
1862.786718 84.464 -155.8450
1876.285239 84.510 -158.7313
1889.881575 84.559 -161.6262
1903.576436 84.613 -164.5305
1917.370535 84.670 -167.4451
1931.264593 84.733 -170.3702
1945.259332 84.801 -173.3058
1959.355483 84.874 -176.2515
1973.553781 84.950 -179.2065
1987.854965 85.030 177.8285
2002.259781 85.112 174.8528
2016.768981 85.196 171.8650
2031.383320 85.282 168.8638
2046.103561 85.370 165.8489
2060.930471 85.459 162.8203
2075.864823 85.551 159.7791
2090.907395 85.645 156.7260
2106.058972 85.741 153.6617
2121.320344 85.838 150.5864
2136.692305 85.937 147.4988
2152.175658 86.037 144.3967
2167.771210 86.138 141.2782
2183.479774 86.239 138.1420
2199.302169 86.340 134.9877
2215.239219 86.442 131.8153
2231.291755 86.544 128.6252
2247.460615 86.647 125.4177
2263.746641 86.751 122.1929
2280.150683 86.855 118.9517
2296.673595 86.960 115.6946
2313.316238 87.066 112.4232
2330.079481 87.173 109.1393
2346.964198 87.280 105.8438
2363.971268 87.390 102.5359
2381.101578 87.503 99.2130
2398.356022 87.620 95.8705
2415.735498 87.741 92.5023
2433.240913 87.865 89.1039
2450.873180 87.993 85.6731
2468.633217 88.122 82.2103
2486.521951 88.254 78.7188
2504.540314 88.386 75.2034
2522.689246 88.521 71.6698
2540.969692 88.656 68.1222
2559.382606 88.792 64.5621
2577.928947 88.929 60.9883
2596.609683 89.065 57.3958
2615.425787 89.199 53.7778
2634.378241 89.330 50.1277
2653.468031 89.457 46.4398
2672.696154 89.581 42.7111
2692.063613 89.699 38.9398
2711.571415 89.812 35.1254
2731.220579 89.919 31.2682
2751.012130 90.018 27.3702
2770.947098 90.108 23.4352
2791.026522 90.189 19.4684
2811.251451 90.259 15.4768
2831.622938 90.318 11.4684
2852.142045 90.366 7.4528
2872.809842 90.402 3.4401
2893.627406 90.428 -0.5592
2914.595823 90.444 -4.5353
2935.716186 90.452 -8.4802
2956.989596 90.454 -12.3890
2978.417161 90.449 -16.2598
3000.000000 90.441 -20.0933
3021.739237 90.429 -23.8927
3043.636005 90.414 -27.6621
3065.691446 90.398 -31.4071
3087.906710 90.380 -35.1339
3110.282955 90.360 -38.8486
3132.821347 90.337 -42.5573
3155.523062 90.311 -46.2637
3178.389283 90.279 -49.9697
3201.421202 90.240 -53.6733
3224.620020 90.191 -57.3669
3247.986946 90.130 -61.0366
3271.523198 90.055 -64.6602
3295.230004 89.967 -68.2072
3319.108599 89.869 -71.6415
3343.160228 89.766 -74.9307
3367.386145 89.672 -78.0675
3391.787613 89.598 -81.0958
3416.365904 89.550 -84.1106
3441.122300 89.519 -87.2017
3466.058091 89.489 -90.3898
3491.174576 89.449 -93.6362
3516.473066 89.394 -96.8864
3541.954880 89.327 -100.0979
3567.621345 89.250 -103.2468
3593.473800 89.167 -106.3250
3619.513592 89.082 -109.3330
3645.742080 88.996 -112.2759
3672.160630 88.910 -115.1591
3698.770620 88.824 -117.9875
3725.573436 88.739 -120.7649
3752.570477 88.656 -123.4939
3779.763150 88.573 -126.1764
3807.152872 88.491 -128.8141
3834.741071 88.409 -131.4082
3862.529185 88.328 -133.9590
3890.518664 88.246 -136.4670
3918.710966 88.164 -138.9321
3947.107561 88.082 -141.3545
3975.709929 88.000 -143.7332
4004.519563 87.919 -146.0670
4033.537962 87.840 -148.3551
4062.766641 87.762 -150.5959
4092.207123 87.687 -152.7888
4121.860942 87.615 -154.9333
4151.729646 87.545 -157.0300
4181.814790 87.478 -159.0801
4212.117944 87.415 -161.0844
4242.640687 87.355 -163.0447
4273.384610 87.299 -164.9631
4304.351317 87.247 -166.8420
4335.542421 87.198 -168.6843
4366.959549 87.152 -170.4926
4398.604338 87.110 -172.2689
4430.478438 87.072 -174.0156
4462.583511 87.037 -175.7336
4494.921231 87.007 -177.4237
4527.493283 86.980 -179.0853
4560.301365 86.957 179.2826
4593.347189 86.938 177.6812
4626.632476 86.924 176.1113
4660.158962 86.913 174.5726
4693.928395 86.907 173.0637
4727.942535 86.904 171.5824
4762.203156 86.906 170.1273
4796.712043 86.912 168.6973
4831.470996 86.922 167.2911
4866.481826 86.936 165.9072
4901.746360 86.955 164.5437
4937.266434 86.977 163.1990
4973.043902 87.003 161.8721
5009.080628 87.033 160.5620
5045.378492 87.065 159.2686
5081.939384 87.101 157.9917
5118.765212 87.140 156.7313
5155.857894 87.181 155.4875
5193.219366 87.225 154.2592
5230.851574 87.271 153.0448
5268.756481 87.318 151.8425
5306.936062 87.366 150.6512
5345.392309 87.415 149.4697
5384.127225 87.464 148.2965
5423.142830 87.512 147.1304
5462.441159 87.559 145.9698
5502.024259 87.604 144.8146
5541.894195 87.648 143.6644
5582.053045 87.689 142.5193
5622.502902 87.727 141.3792
5663.245876 87.761 140.2448
5704.284090 87.790 139.1178
5745.619684 87.813 138.0017
5787.254813 87.829 136.9017
5829.191647 87.838 135.8245
5871.432373 87.838 134.7783
5913.979192 87.828 133.7727
5956.834323 87.809 132.8187
6000.000000 87.779 131.9290
6043.478473 87.739 131.1171
6087.272010 87.689 130.3976
6131.382892 87.630 129.7849
6175.813420 87.565 129.2926
6220.565910 87.495 128.9326
6265.642695 87.424 128.7139
6311.046124 87.354 128.6420
6356.778566 87.290 128.7174
6402.842404 87.235 128.9342
6449.240040 87.192 129.2786
6495.973891 87.164 129.7292
6543.046396 87.151 130.2604
6590.460007 87.154 130.8442
6638.217197 87.171 131.4548
6686.320456 87.199 132.0708
6734.772290 87.236 132.6772
6783.575226 87.278 133.2662
6832.731809 87.321 133.8369
6882.244600 87.362 134.3938
6932.116181 87.397 134.9454
6982.349153 87.426 135.5018
7032.946133 87.446 136.0726
7083.909760 87.459 136.6649
7135.242690 87.464 137.2811
7186.947600 87.463 137.9178
7239.027185 87.455 138.5649
7291.484160 87.441 139.2090
7344.321260 87.421 139.8383
7397.541239 87.396 140.4510
7451.146872 87.367 141.0583
7505.140954 87.336 141.6805
7559.526299 87.306 142.3397
7614.305743 87.276 143.0537
7669.482141 87.250 143.8336
7725.058371 87.227 144.6835
7781.037328 87.209 145.6030
7837.421932 87.197 146.5892
7894.215122 87.190 147.6392
7951.419859 87.189 148.7499
8009.039125 87.194 149.9176
8067.075924 87.204 151.1365
8125.533282 87.221 152.3981
8184.414245 87.242 153.6926
8243.721885 87.266 155.0094
8303.459292 87.293 156.3385
8363.629581 87.322 157.6709
8424.235888 87.351 158.9991
8485.281374 87.378 160.3181
8546.769221 87.401 161.6256
8608.702634 87.419 162.9233
8671.084842 87.427 164.2168
8733.919097 87.424 165.5149
8797.208675 87.407 166.8284
8860.956876 87.373 168.1694
8925.167022 87.321 169.5527
8989.842461 87.248 170.9966
9054.986566 87.154 172.5234
9120.602731 87.039 174.1589
9186.694378 86.905 175.9294
9253.264952 86.754 177.8594
9320.317925 86.588 179.9703
9387.856790 86.410 -177.7217
9455.885071 86.224 -175.2075
9524.406312 86.034 -172.4877
9593.424086 85.843 -169.5739
9662.941992 85.656 -166.4913
9732.963653 85.473 -163.2795
9803.492719 85.294 -159.9910
9874.532869 85.114 -156.6821
9946.087805 84.924 -153.3888
10018.161257 84.712 -150.0929
10090.756983 84.467 -146.7131
10163.878768 84.184 -143.1304
10237.530423 83.864 -139.2184
10311.715789 83.514 -134.8665
10386.438732 83.145 -129.9945
10461.703149 82.769 -124.5620
10537.512962 82.401 -118.5686
10613.872125 82.052 -112.0471
10690.784618 81.732 -105.0525
10768.254450 81.446 -97.6484
10846.285661 81.199 -89.8982
10924.882318 80.994 -81.8601
11004.048518 80.831 -73.5886
11083.788390 80.710 -65.1353
11164.106090 80.632 -56.5503
11245.005805 80.594 -47.8816
11326.491752 80.594 -39.1736
11408.568180 80.630 -30.4673
11491.239368 80.698 -21.8036
11574.509626 80.793 -13.2284
11658.383294 80.910 -4.7963
11742.864745 81.042 3.4293
11827.958384 81.179 11.3801
11913.668646 81.309 18.9928
12000.000000 81.417 26.2246
12086.956947 81.484 33.0787
12174.544019 81.491 39.6417
12262.765784 81.420 46.1334
12351.626840 81.263 52.9645
12441.131819 81.031 60.7789
12531.285389 80.768 70.4258
12622.092249 80.550 82.7256
12713.557132 80.469 97.8843
12805.684808 80.593 114.8490
12898.480079 80.935 131.6786
12991.947783 81.459 146.9216
13086.092792 82.109 160.2039
13180.920015 82.834 171.7374
13276.434395 83.593 -178.1887
13372.640911 84.356 -169.3799
13469.544580 85.097 -161.7388
13567.150452 85.791 -155.2434
13665.463617 86.409 -149.9128
13764.489200 86.914 -145.7205
13864.232362 87.265 -142.4897
13964.698305 87.430 -139.8762
14065.892266 87.388 -137.4268
14167.819519 87.140 -134.6571
14270.485380 86.702 -131.1119
14373.895200 86.102 -126.3997
14478.054370 85.378 -120.2092
14582.968320 84.570 -112.3166
14688.642520 83.719 -102.5933
14795.082478 82.865 -91.0183
14902.293745 82.042 -77.6870
15010.281908 81.280 -62.8041
15119.052599 80.603 -46.6508
15228.611486 80.030 -29.5292
15338.964283 79.574 -11.7076
15450.116741 79.244 6.6053
15562.074656 79.046 25.2354
15674.843864 78.976 43.9755
15788.430244 79.029 62.5099
15902.839718 79.189 80.3894
16018.078250 79.436 97.0988
16134.151848 79.736 112.1890
16251.066563 80.051 125.3937
16368.828491 80.334 136.6733
16487.443769 80.536 146.1932
16606.918584 80.609 154.2769
16727.259161 80.513 161.3621
16848.471777 80.219 167.9606
16970.562748 79.717 174.6154
17093.538442 79.010 -178.1420
17217.405268 78.120 -169.8218
17342.169684 77.075 -159.9820
17467.838194 75.908 -148.2213
17594.417350 74.655 -134.1714
17721.913751 73.350 -117.5142
17850.334044 72.025 -98.0400
17979.684923 70.709 -75.7490
18109.973131 69.426 -50.9397
18241.205462 68.197 -24.1828
18373.388756 67.035 3.8215
18506.529905 65.952 32.3961
18640.635849 64.952 60.9948
18775.713581 64.036 89.3019
18911.770141 63.202 117.3456
19048.812624 62.448 145.6635
19186.848172 61.779 175.5057
19325.883983 61.207 -151.3700
19465.927305 60.752 -114.9491
19606.985439 60.431 -80.5507
19749.065738 60.244 -54.4289
19892.175609 60.163 -37.8115
20036.322514 60.140 -29.7638
