* Measurement data measured by REW V5.31
* Source: EXCL: Microphone (USB Sound Device        ), MICROPHONE (Master Volume), R, volume: 0.390
* Format: 256k Log Swept Sine, 1 sweep at -15.0 dBFS with no timing reference
* Dated: Dec 6, 2024 12:53:21 AM
* REW Settings:
*  C-weighting compensation: Off
*  Target level: 75.0 dB
* Note: 
* Measurement: L KZ Sonata 0000
* Smoothing: 1/12 octave
* Frequency Step: 96 ppo
* Start Frequency: 0.36621094 Hz
*
* Freq(Hz) SPL(dB) Phase(degrees)
0.366211 95.904 157.3426
0.368865 95.896 157.3203
0.371538 95.885 157.2868
0.374230 95.872 157.2447
0.376942 95.856 157.1960
0.379673 95.840 157.1425
0.382424 95.823 157.0851
0.385196 95.805 157.0244
0.387987 95.787 156.9608
0.390798 95.769 156.8944
0.393630 95.750 156.8255
0.396483 95.732 156.7539
0.399356 95.713 156.6798
0.402250 95.694 156.6031
0.405165 95.675 156.5237
0.408101 95.656 156.4418
0.411058 95.637 156.3571
0.414037 95.618 156.2698
0.417037 95.598 156.1797
0.420059 95.578 156.0869
0.423103 95.558 155.9913
0.426169 95.538 155.8929
0.429257 95.518 155.7917
0.432368 95.498 155.6877
0.435501 95.478 155.5808
0.438656 95.457 155.4710
0.441835 95.436 155.3582
0.445037 95.416 155.2425
0.448262 95.395 155.1239
0.451510 95.373 155.0022
0.454782 95.352 154.8775
0.458077 95.331 154.7498
0.461397 95.309 154.6191
0.464740 95.287 154.4852
0.468108 95.265 154.3483
0.471500 95.243 154.2082
0.474917 95.221 154.0650
0.478358 95.198 153.9187
0.481825 95.176 153.7691
0.485316 95.153 153.6164
0.488833 95.130 153.4605
0.492375 95.107 153.3014
0.495943 95.084 153.1391
0.499537 95.060 152.9736
0.503157 95.037 152.8048
0.506803 95.013 152.6328
0.510475 94.989 152.4575
0.514175 94.965 152.2790
0.517900 94.941 152.0972
0.521653 94.916 151.9122
0.525434 94.892 151.7240
0.529241 94.867 151.5325
0.533076 94.842 151.3378
0.536939 94.817 151.1399
0.540830 94.791 150.9388
0.544749 94.766 150.7345
0.548696 94.740 150.5271
0.552673 94.714 150.3165
0.556677 94.688 150.1028
0.560711 94.662 149.8861
0.564774 94.635 149.6663
0.568867 94.609 149.4436
0.572989 94.582 149.2178
0.577141 94.555 148.9892
0.581324 94.528 148.7577
0.585536 94.500 148.5234
0.589779 94.473 148.2864
0.594053 94.445 148.0467
0.598358 94.417 147.8045
0.602694 94.388 147.5597
0.607061 94.360 147.3125
0.611460 94.331 147.0630
0.615891 94.303 146.8113
0.620354 94.273 146.5574
0.624849 94.244 146.3016
0.629377 94.215 146.0438
0.633938 94.185 145.7843
0.638532 94.155 145.5232
0.643159 94.125 145.2607
0.647819 94.095 144.9968
0.652514 94.064 144.7318
0.657242 94.033 144.4658
0.662005 94.002 144.1991
0.666802 93.971 143.9318
0.671634 93.939 143.6641
0.676501 93.908 143.3963
0.681403 93.876 143.1286
0.686341 93.844 142.8612
0.691314 93.811 142.5945
0.696324 93.778 142.3285
0.701370 93.745 142.0636
0.706452 93.711 141.8000
0.711571 93.677 141.5377
0.716728 93.641 141.2768
0.721921 93.604 141.0170
0.727153 93.565 140.7579
0.732422 93.524 140.4984
0.737729 93.479 140.2376
0.743075 93.432 139.9742
0.748460 93.384 139.7072
0.753883 93.334 139.4356
0.759346 93.283 139.1590
0.764849 93.233 138.8770
0.770391 93.182 138.5891
0.775974 93.132 138.2953
0.781597 93.081 137.9953
0.787261 93.030 137.6890
0.792966 92.980 137.3764
0.798712 92.929 137.0573
0.804500 92.879 136.7316
0.810329 92.828 136.3993
0.816201 92.776 136.0602
0.822116 92.724 135.7142
0.828073 92.672 135.3613
0.834074 92.619 135.0014
0.840118 92.565 134.6344
0.846206 92.511 134.2603
0.852338 92.455 133.8789
0.858514 92.398 133.4903
0.864735 92.340 133.0944
0.871001 92.281 132.6912
0.877313 92.220 132.2806
0.883670 92.157 131.8626
0.890074 92.093 131.4373
0.896524 92.026 131.0046
0.903020 91.957 130.5646
0.909564 91.886 130.1173
0.916155 91.813 129.6628
0.922794 91.737 129.2011
0.929481 91.657 128.7325
0.936216 91.575 128.2570
0.943000 91.489 127.7748
0.949834 91.400 127.2862
0.956717 91.308 126.7912
0.963649 91.211 126.2903
0.970632 91.110 125.7837
0.977666 91.004 125.2718
0.984750 90.894 124.7550
0.991886 90.779 124.2337
0.999074 90.659 123.7085
1.006314 90.533 123.1800
1.013606 90.402 122.6487
1.020951 90.264 122.1155
1.028349 90.121 121.5811
1.035801 89.970 121.0463
1.043307 89.813 120.5122
1.050867 89.648 119.9797
1.058482 89.475 119.4499
1.066152 89.294 118.9239
1.073878 89.104 118.4027
1.081660 88.904 117.8871
1.089498 88.692 117.3779
1.097393 88.469 116.8750
1.105345 88.231 116.3782
1.113355 87.976 115.8868
1.121423 87.705 115.3999
1.129549 87.414 114.9166
1.137734 87.105 114.4363
1.145979 86.777 113.9581
1.154283 86.431 113.4815
1.162647 86.066 113.0058
1.171072 85.684 112.5305
1.179558 85.286 112.0548
1.188106 84.872 111.5782
1.196715 84.443 111.0999
1.205387 84.000 110.6191
1.214122 83.545 110.1350
1.222920 83.079 109.6467
1.231782 82.603 109.1531
1.240708 82.118 108.6531
1.249699 81.625 108.1455
1.258754 81.127 107.6286
1.267876 80.624 107.1010
1.277063 80.119 106.5608
1.286318 79.612 106.0058
1.295639 79.106 105.4335
1.305027 78.603 104.8412
1.314484 78.105 104.2254
1.324009 77.614 103.5822
1.333604 77.132 102.9069
1.343268 76.661 102.1940
1.353002 76.204 101.4365
1.362806 75.765 100.6262
1.372681 75.344 99.7529
1.382628 74.947 98.8037
1.392647 74.575 97.7625
1.402739 74.232 96.6085
1.412904 73.922 95.3147
1.423142 73.648 93.8452
1.433455 73.413 92.1509
1.443843 73.222 90.1630
1.454305 73.076 87.7798
1.464844 72.978 84.8438
1.475459 72.929 81.0945
1.486150 72.930 76.0737
1.496920 72.980 68.9252
1.507767 73.077 57.9933
1.518693 73.220 40.3533
1.529698 73.407 13.8053
1.540783 73.636 -14.9352
1.551948 73.903 -35.7954
1.563194 74.208 -48.7263
1.574521 74.546 -56.9515
1.585931 74.915 -62.5620
1.597423 75.313 -66.6499
1.608999 75.735 -69.7933
1.620658 76.179 -72.3162
1.632402 76.642 -74.4113
1.644232 77.121 -76.1993
1.656146 77.611 -77.7591
1.668147 78.110 -79.1448
1.680235 78.614 -80.3941
1.692411 79.119 -81.5345
1.704675 79.622 -82.5862
1.717028 80.120 -83.5647
1.729470 80.608 -84.4820
1.742003 81.082 -85.3477
1.754626 81.541 -86.1698
1.767341 81.979 -86.9550
1.780147 82.396 -87.7097
1.793047 82.788 -88.4404
1.806040 83.156 -89.1538
1.819128 83.499 -89.8577
1.832310 83.819 -90.5602
1.845587 84.121 -91.2695
1.858961 84.407 -91.9917
1.872432 84.680 -92.7306
1.886001 84.942 -93.4872
1.899667 85.195 -94.2604
1.913433 85.439 -95.0481
1.927299 85.676 -95.8473
1.941265 85.905 -96.6549
1.955332 86.127 -97.4678
1.969501 86.343 -98.2827
1.983773 86.551 -99.0969
1.998148 86.753 -99.9075
2.012627 86.949 -100.7119
2.027212 87.138 -101.5077
2.041902 87.322 -102.2927
2.056698 87.500 -103.0648
2.071602 87.673 -103.8220
2.086614 87.841 -104.5628
2.101734 88.004 -105.2856
2.116964 88.163 -105.9894
2.132304 88.317 -106.6737
2.147756 88.467 -107.3390
2.163320 88.612 -107.9869
2.178996 88.752 -108.6206
2.194786 88.888 -109.2450
2.210690 89.017 -109.8663
2.226710 89.139 -110.4906
2.242845 89.254 -111.1226
2.259098 89.361 -111.7653
2.275468 89.460 -112.4195
2.291957 89.552 -113.0848
2.308566 89.635 -113.7599
2.325295 89.712 -114.4429
2.342145 89.782 -115.1311
2.359117 89.845 -115.8220
2.376212 89.902 -116.5128
2.393431 89.954 -117.2003
2.410775 90.000 -117.8814
2.428244 90.041 -118.5531
2.445840 90.078 -119.2120
2.463564 90.112 -119.8551
2.481416 90.142 -120.4795
2.499397 90.169 -121.0829
2.517509 90.194 -121.6636
2.535752 90.215 -122.2216
2.554127 90.234 -122.7583
2.572635 90.250 -123.2768
2.591277 90.261 -123.7815
2.610055 90.268 -124.2762
2.628968 90.269 -124.7642
2.648019 90.265 -125.2470
2.667208 90.256 -125.7253
2.686535 90.242 -126.1985
2.706003 90.223 -126.6657
2.725612 90.199 -127.1250
2.745363 90.171 -127.5743
2.765257 90.139 -128.0111
2.785295 90.104 -128.4325
2.805478 90.066 -128.8353
2.825808 90.025 -129.2160
2.846285 89.981 -129.5711
2.866910 89.936 -129.8971
2.887685 89.889 -130.1907
2.908611 89.839 -130.4492
2.929688 89.787 -130.6707
2.950917 89.731 -130.8545
2.972301 89.672 -131.0004
2.993839 89.609 -131.1089
3.015534 89.541 -131.1805
3.037386 89.470 -131.2159
3.059396 89.396 -131.2154
3.081565 89.319 -131.1796
3.103896 89.241 -131.1089
3.126388 89.162 -131.0037
3.149043 89.083 -130.8644
3.171862 89.006 -130.6914
3.194847 88.932 -130.4847
3.217998 88.861 -130.2443
3.241317 88.795 -129.9693
3.264805 88.733 -129.6579
3.288463 88.677 -129.3073
3.312293 88.625 -128.9137
3.336295 88.579 -128.4738
3.360471 88.536 -127.9857
3.384822 88.498 -127.4499
3.409350 88.464 -126.8693
3.434056 88.434 -126.2490
3.458940 88.409 -125.5955
3.484005 88.388 -124.9169
3.509252 88.373 -124.2217
3.534681 88.364 -123.5192
3.560295 88.361 -122.8183
3.586094 88.366 -122.1274
3.612081 88.377 -121.4531
3.638255 88.398 -120.7997
3.664620 88.427 -120.1689
3.691175 88.465 -119.5602
3.717923 88.513 -118.9724
3.744864 88.571 -118.4056
3.772001 88.636 -117.8614
3.799335 88.709 -117.3430
3.826866 88.789 -116.8546
3.854597 88.873 -116.4007
3.882529 88.961 -115.9862
3.910664 89.051 -115.6157
3.939002 89.141 -115.2933
3.967546 89.232 -115.0225
3.996296 89.322 -114.8058
4.025255 89.411 -114.6445
4.054423 89.499 -114.5387
4.083804 89.588 -114.4870
4.113396 89.676 -114.4868
4.143204 89.764 -114.5348
4.173227 89.852 -114.6273
4.203468 89.938 -114.7605
4.233928 90.023 -114.9306
4.264609 90.104 -115.1343
4.295512 90.182 -115.3690
4.326639 90.254 -115.6332
4.357992 90.321 -115.9267
4.389572 90.383 -116.2505
4.421380 90.438 -116.6065
4.453419 90.488 -116.9960
4.485691 90.531 -117.4183
4.518196 90.569 -117.8707
4.550936 90.602 -118.3486
4.583914 90.629 -118.8460
4.617131 90.650 -119.3564
4.650589 90.665 -119.8735
4.684289 90.675 -120.3921
4.718233 90.678 -120.9087
4.752424 90.675 -121.4221
4.786862 90.666 -121.9332
4.821549 90.650 -122.4438
4.856488 90.627 -122.9548
4.891680 90.598 -123.4652
4.927127 90.563 -123.9722
4.962831 90.523 -124.4712
4.998794 90.477 -124.9565
5.035017 90.428 -125.4222
5.071503 90.374 -125.8627
5.108253 90.316 -126.2736
5.145270 90.255 -126.6524
5.182555 90.189 -126.9981
5.220110 90.120 -127.3111
5.257937 90.047 -127.5919
5.296038 89.971 -127.8408
5.334415 89.895 -128.0576
5.373071 89.818 -128.2416
5.412006 89.742 -128.3913
5.451224 89.669 -128.5048
5.490725 89.598 -128.5797
5.530514 89.530 -128.6140
5.570590 89.465 -128.6076
5.610957 89.404 -128.5623
5.651616 89.346 -128.4830
5.692570 89.294 -128.3759
5.733821 89.247 -128.2487
5.775370 89.207 -128.1085
5.817221 89.175 -127.9614
5.859375 89.151 -127.8114
5.901834 89.135 -127.6609
5.944602 89.129 -127.5122
5.987679 89.130 -127.3692
6.031068 89.139 -127.2380
6.074771 89.156 -127.1264
6.118792 89.178 -127.0427
6.163131 89.206 -126.9947
6.207792 89.239 -126.9881
6.252776 89.278 -127.0264
6.298086 89.321 -127.1105
6.343725 89.368 -127.2403
6.389694 89.418 -127.4148
6.435996 89.471 -127.6334
6.482634 89.525 -127.8959
6.529610 89.578 -128.2024
6.576926 89.630 -128.5532
6.624585 89.680 -128.9483
6.672590 89.728 -129.3862
6.720942 89.774 -129.8636
6.769645 89.817 -130.3750
6.818700 89.856 -130.9143
6.868111 89.892 -131.4753
6.917881 89.924 -132.0532
6.968010 89.950 -132.6447
7.018504 89.973 -133.2476
7.069362 89.990 -133.8593
7.120590 90.003 -134.4754
7.172189 90.011 -135.0899
7.224161 90.016 -135.6960
7.276511 90.018 -136.2874
7.329239 90.015 -136.8594
7.382350 90.010 -137.4090
7.435845 90.002 -137.9343
7.489729 89.993 -138.4336
7.544002 89.982 -138.9046
7.598669 89.970 -139.3444
7.653732 89.960 -139.7504
7.709194 89.951 -140.1203
7.765058 89.943 -140.4538
7.821327 89.938 -140.7516
7.878004 89.936 -141.0164
7.935091 89.938 -141.2516
7.992592 89.945 -141.4603
8.050510 89.957 -141.6457
8.108847 89.974 -141.8103
8.167607 89.998 -141.9573
8.226793 90.027 -142.0910
8.286408 90.061 -142.2170
8.346454 90.101 -142.3410
8.406936 90.146 -142.4681
8.467856 90.196 -142.6019
8.529218 90.251 -142.7450
8.591024 90.309 -142.8992
8.653278 90.370 -143.0667
8.715983 90.433 -143.2493
8.779143 90.497 -143.4483
8.842760 90.562 -143.6641
8.906839 90.627 -143.8959
8.971381 90.692 -144.1415
9.036392 90.755 -144.3983
9.101873 90.816 -144.6634
9.167829 90.875 -144.9343
9.234263 90.931 -145.2083
9.301178 90.985 -145.4825
9.368578 91.035 -145.7530
9.436467 91.083 -146.0160
9.504847 91.128 -146.2678
9.573723 91.170 -146.5054
9.643099 91.209 -146.7269
9.712976 91.244 -146.9302
9.783361 91.277 -147.1138
9.854255 91.306 -147.2763
9.925663 91.332 -147.4167
9.997588 91.356 -147.5352
10.070035 91.377 -147.6327
10.143007 91.396 -147.7106
10.216507 91.414 -147.7706
10.290540 91.432 -147.8146
10.365109 91.449 -147.8446
10.440219 91.466 -147.8630
10.515873 91.483 -147.8725
10.592076 91.501 -147.8758
10.668830 91.518 -147.8751
10.746141 91.536 -147.8722
10.824012 91.555 -147.8684
10.902447 91.572 -147.8652
10.981451 91.589 -147.8633
11.061027 91.606 -147.8633
11.141180 91.621 -147.8651
11.221913 91.634 -147.8685
11.303232 91.646 -147.8726
11.385140 91.657 -147.8770
11.467641 91.666 -147.8809
11.550741 91.673 -147.8836
11.634442 91.678 -147.8845
11.718750 91.683 -147.8832
11.803669 91.686 -147.8794
11.889203 91.688 -147.8732
11.975357 91.690 -147.8652
12.062136 91.691 -147.8561
12.149543 91.691 -147.8466
12.237583 91.690 -147.8379
12.326262 91.689 -147.8311
12.415583 91.688 -147.8274
12.505552 91.685 -147.8280
12.596172 91.681 -147.8338
12.687449 91.676 -147.8453
12.779387 91.670 -147.8629
12.871992 91.662 -147.8869
12.965268 91.654 -147.9169
13.059220 91.643 -147.9525
13.153852 91.632 -147.9930
13.249170 91.619 -148.0377
13.345179 91.605 -148.0858
13.441884 91.591 -148.1367
13.539289 91.576 -148.1899
13.637401 91.560 -148.2453
13.736223 91.545 -148.3033
13.835761 91.530 -148.3646
13.936021 91.515 -148.4302
14.037007 91.501 -148.5015
14.138725 91.488 -148.5803
14.241180 91.475 -148.6684
14.344377 91.464 -148.7676
14.448323 91.453 -148.8795
14.553021 91.444 -149.0053
14.658478 91.435 -149.1458
14.764700 91.426 -149.3011
14.871691 91.418 -149.4708
14.979457 91.410 -149.6537
15.088005 91.401 -149.8482
15.197339 91.393 -150.0522
15.307465 91.385 -150.2633
15.418389 91.376 -150.4789
15.530117 91.368 -150.6966
15.642655 91.360 -150.9143
15.756008 91.353 -151.1302
15.870182 91.347 -151.3432
15.985184 91.342 -151.5528
16.101019 91.340 -151.7590
16.217694 91.340 -151.9624
16.335214 91.342 -152.1640
16.453586 91.346 -152.3650
16.572815 91.354 -152.5664
16.692909 91.363 -152.7692
16.813872 91.375 -152.9738
16.935713 91.389 -153.1803
17.058436 91.405 -153.3879
17.182048 91.422 -153.5955
17.306556 91.439 -153.8013
17.431967 91.457 -154.0033
17.558286 91.476 -154.1994
17.685521 91.494 -154.3874
17.813677 91.513 -154.5654
17.942762 91.532 -154.7320
18.072783 91.552 -154.8864
18.203746 91.571 -155.0280
18.335658 91.592 -155.1570
18.468526 91.613 -155.2741
18.602356 91.635 -155.3800
18.737156 91.657 -155.4758
18.872934 91.680 -155.5625
19.009695 91.703 -155.6407
19.147447 91.725 -155.7113
19.286197 91.748 -155.7746
19.425953 91.770 -155.8308
19.566721 91.791 -155.8802
19.708510 91.812 -155.9230
19.851326 91.831 -155.9593
19.995177 91.849 -155.9898
20.140070 91.866 -156.0152
20.286013 91.882 -156.0363
20.433014 91.897 -156.0541
20.581080 91.910 -156.0698
20.730219 91.922 -156.0842
20.880439 91.933 -156.0982
21.031747 91.942 -156.1124
21.184152 91.950 -156.1273
21.337661 91.957 -156.1430
21.492282 91.962 -156.1600
21.648024 91.966 -156.1787
21.804895 91.970 -156.1998
21.962902 91.972 -156.2241
22.122054 91.974 -156.2528
22.282360 91.976 -156.2874
22.443827 91.977 -156.3291
22.606464 91.977 -156.3792
22.770280 91.977 -156.4387
22.935283 91.977 -156.5079
23.101481 91.976 -156.5867
23.268884 91.975 -156.6748
23.437500 91.973 -156.7711
23.607338 91.972 -156.8746
23.778406 91.970 -156.9845
23.950714 91.969 -157.0997
24.124271 91.968 -157.2199
24.299086 91.968 -157.3448
24.475167 91.969 -157.4743
24.652524 91.972 -157.6086
24.831166 91.975 -157.7474
25.011103 91.980 -157.8904
25.192344 91.986 -158.0368
25.374898 91.994 -158.1855
25.558775 92.002 -158.3349
25.743984 92.011 -158.4834
25.930536 92.021 -158.6295
26.118439 92.033 -158.7714
26.307704 92.044 -158.9077
26.498341 92.057 -159.0374
26.690359 92.071 -159.1592
26.883768 92.085 -159.2725
27.078579 92.099 -159.3765
27.274801 92.115 -159.4709
27.472446 92.130 -159.5557
27.671522 92.146 -159.6313
27.872042 92.163 -159.6985
28.074014 92.180 -159.7586
28.277450 92.196 -159.8132
28.482360 92.213 -159.8639
28.688755 92.229 -159.9118
28.896645 92.245 -159.9580
29.106042 92.259 -160.0026
29.316957 92.272 -160.0455
29.529400 92.283 -160.0863
29.743382 92.293 -160.1244
29.958915 92.302 -160.1599
30.176009 92.310 -160.1931
30.394677 92.317 -160.2252
30.614929 92.324 -160.2577
30.836778 92.330 -160.2924
31.060234 92.336 -160.3312
31.285309 92.342 -160.3752
31.512015 92.347 -160.4255
31.740364 92.353 -160.4825
31.970368 92.357 -160.5464
32.202039 92.362 -160.6171
32.435388 92.367 -160.6944
32.670428 92.372 -160.7781
32.907171 92.378 -160.8678
33.145630 92.384 -160.9632
33.385817 92.390 -161.0633
33.627745 92.397 -161.1673
33.871425 92.404 -161.2740
34.116871 92.412 -161.3824
34.364096 92.421 -161.4913
34.613113 92.430 -161.5996
34.863934 92.440 -161.7063
35.116572 92.451 -161.8105
35.371041 92.461 -161.9113
35.627354 92.473 -162.0079
35.885525 92.484 -162.0998
36.145566 92.496 -162.1865
36.407492 92.508 -162.2680
36.671316 92.519 -162.3443
36.937051 92.531 -162.4158
37.204712 92.543 -162.4823
37.474313 92.554 -162.5441
37.745867 92.564 -162.6014
38.019389 92.574 -162.6543
38.294893 92.584 -162.7035
38.572394 92.594 -162.7501
38.851905 92.603 -162.7953
39.133442 92.612 -162.8405
39.417019 92.621 -162.8868
39.702651 92.629 -162.9355
39.990353 92.637 -162.9872
40.280140 92.646 -163.0427
40.572026 92.653 -163.1026
40.866028 92.661 -163.1673
41.162160 92.668 -163.2367
41.460438 92.675 -163.3104
41.760877 92.682 -163.3870
42.063494 92.688 -163.4644
42.368303 92.694 -163.5401
42.675322 92.699 -163.6119
42.984565 92.705 -163.6786
43.296048 92.711 -163.7402
43.609789 92.719 -163.7983
43.925804 92.727 -163.8555
44.244108 92.737 -163.9143
44.564719 92.748 -163.9769
44.887654 92.758 -164.0437
45.212928 92.769 -164.1141
45.540560 92.779 -164.1865
45.870565 92.789 -164.2592
46.202962 92.798 -164.3309
46.537768 92.807 -164.4012
46.875000 92.816 -164.4702
47.214676 92.825 -164.5382
47.556813 92.834 -164.6055
47.901429 92.843 -164.6721
48.248542 92.852 -164.7378
48.598171 92.862 -164.8026
48.950334 92.871 -164.8666
49.305048 92.881 -164.9300
49.662333 92.890 -164.9928
50.022206 92.900 -165.0550
50.384688 92.910 -165.1162
50.749796 92.920 -165.1761
51.117550 92.930 -165.2345
51.487969 92.940 -165.2912
51.861072 92.950 -165.3461
52.236879 92.960 -165.3995
52.615409 92.970 -165.4515
52.996681 92.980 -165.5024
53.380717 92.990 -165.5523
53.767536 93.000 -165.6014
54.157158 93.010 -165.6504
54.549603 93.021 -165.7002
54.944892 93.032 -165.7517
55.343045 93.043 -165.8059
55.744084 93.055 -165.8634
56.148028 93.067 -165.9243
56.554900 93.080 -165.9888
56.964720 93.093 -166.0571
57.377510 93.106 -166.1294
57.793291 93.120 -166.2054
58.212085 93.133 -166.2844
58.633914 93.147 -166.3649
59.058799 93.161 -166.4459
59.486764 93.175 -166.5269
59.917829 93.188 -166.6082
60.352019 93.202 -166.6908
60.789354 93.215 -166.7751
61.229859 93.227 -166.8609
61.673556 93.239 -166.9471
62.120468 93.249 -167.0327
62.570618 93.259 -167.1167
63.024031 93.269 -167.1983
63.480729 93.278 -167.2778
63.940736 93.287 -167.3561
64.404077 93.296 -167.4354
64.870776 93.306 -167.5180
65.340856 93.316 -167.6054
65.814343 93.326 -167.6972
66.291261 93.335 -167.7913
66.771635 93.343 -167.8852
67.255489 93.352 -167.9769
67.742850 93.360 -168.0657
68.233743 93.369 -168.1517
68.728193 93.377 -168.2349
69.226226 93.386 -168.3155
69.727867 93.395 -168.3937
70.233144 93.404 -168.4701
70.742083 93.413 -168.5461
71.254709 93.423 -168.6236
71.771050 93.433 -168.7036
72.291132 93.442 -168.7864
72.814984 93.452 -168.8711
73.342631 93.461 -168.9567
73.874102 93.470 -169.0419
74.409424 93.479 -169.1258
74.948626 93.489 -169.2081
75.491734 93.500 -169.2897
76.038779 93.511 -169.3731
76.589787 93.524 -169.4610
77.144788 93.536 -169.5549
77.703811 93.550 -169.6545
78.266885 93.563 -169.7589
78.834039 93.576 -169.8676
79.405303 93.590 -169.9812
79.980706 93.603 -170.1004
80.560280 93.616 -170.2259
81.144053 93.629 -170.3580
81.732056 93.641 -170.4966
82.324320 93.651 -170.6413
82.920876 93.661 -170.7905
83.521755 93.668 -170.9412
84.126988 93.673 -171.0898
84.736607 93.677 -171.2326
85.350643 93.679 -171.3670
85.969129 93.681 -171.4924
86.592097 93.683 -171.6101
87.219579 93.686 -171.7238
87.851608 93.690 -171.8379
88.488217 93.694 -171.9553
89.129439 93.698 -172.0758
89.775308 93.703 -172.1970
90.425856 93.708 -172.3167
91.081119 93.712 -172.4339
91.741131 93.718 -172.5487
92.405925 93.723 -172.6605
93.075536 93.728 -172.7692
93.750000 93.734 -172.8758
94.429351 93.739 -172.9819
95.113625 93.744 -173.0892
95.802858 93.749 -173.1985
96.497085 93.754 -173.3104
97.196342 93.758 -173.4249
97.900667 93.762 -173.5415
98.610096 93.765 -173.6592
99.324665 93.768 -173.7762
100.044413 93.770 -173.8909
100.769376 93.773 -174.0023
101.499592 93.776 -174.1105
102.235100 93.780 -174.2165
102.975938 93.784 -174.3214
103.722144 93.788 -174.4268
104.473757 93.793 -174.5347
105.230817 93.799 -174.6470
105.993363 93.804 -174.7648
106.761435 93.810 -174.8886
107.535072 93.815 -175.0188
108.314315 93.820 -175.1555
109.099206 93.826 -175.2990
109.889783 93.830 -175.4496
110.686090 93.835 -175.6074
111.488167 93.838 -175.7723
112.296056 93.840 -175.9429
113.109800 93.840 -176.1159
113.929440 93.838 -176.2860
114.755020 93.833 -176.4475
115.586582 93.826 -176.5951
116.424170 93.818 -176.7253
117.267827 93.809 -176.8373
118.117598 93.800 -176.9339
118.973527 93.794 -177.0207
119.835658 93.789 -177.1054
120.704037 93.786 -177.1951
121.578708 93.784 -177.2932
122.459718 93.783 -177.3999
123.347111 93.782 -177.5132
124.240935 93.782 -177.6316
125.141236 93.782 -177.7537
126.048061 93.782 -177.8788
126.961458 93.782 -178.0068
127.881473 93.781 -178.1373
128.808154 93.780 -178.2704
129.741551 93.779 -178.4060
130.681712 93.777 -178.5442
131.628686 93.775 -178.6855
132.582521 93.772 -178.8301
133.543269 93.768 -178.9779
134.510979 93.763 -179.1280
135.485701 93.758 -179.2785
136.467486 93.751 -179.4277
137.456386 93.743 -179.5740
138.452451 93.735 -179.7166
139.455735 93.727 -179.8554
140.466288 93.719 -179.9915
141.484165 93.712 179.8735
142.509418 93.704 179.7379
143.542100 93.695 179.6008
144.582265 93.685 179.4626
145.629968 93.674 179.3243
146.685262 93.662 179.1869
147.748204 93.649 179.0507
148.818849 93.634 178.9161
149.897251 93.619 178.7838
150.983469 93.602 178.6550
152.077557 93.585 178.5326
153.179574 93.568 178.4194
154.289576 93.550 178.3167
155.407622 93.533 178.2227
156.533770 93.518 178.1327
157.668078 93.503 178.0414
158.810606 93.490 177.9439
159.961413 93.476 177.8374
161.120559 93.462 177.7213
162.288105 93.448 177.5967
163.464112 93.431 177.4660
164.648640 93.414 177.3319
165.841752 93.394 177.1979
167.043510 93.373 177.0679
168.253976 93.350 176.9461
169.473213 93.327 176.8354
170.701286 93.304 176.7369
171.938258 93.280 176.6496
173.184194 93.258 176.5704
174.439158 93.236 176.4957
175.703216 93.214 176.4224
176.976434 93.193 176.3480
178.258878 93.172 176.2713
179.550615 93.150 176.1923
180.851713 93.128 176.1123
182.162239 93.105 176.0329
183.482262 93.081 175.9554
184.811850 93.056 175.8806
186.151073 93.031 175.8089
187.500000 93.005 175.7404
188.858702 92.979 175.6750
190.227250 92.952 175.6123
191.605715 92.926 175.5523
192.994169 92.899 175.4958
194.392685 92.873 175.4442
195.801334 92.846 175.3999
197.220191 92.820 175.3650
198.649330 92.794 175.3410
200.088825 92.768 175.3286
201.538751 92.742 175.3271
202.999184 92.718 175.3334
204.470200 92.695 175.3425
205.951875 92.673 175.3488
207.444287 92.651 175.3480
208.947514 92.629 175.3388
210.461634 92.605 175.3228
211.986726 92.579 175.3036
213.522869 92.552 175.2856
215.070144 92.522 175.2743
216.628631 92.492 175.2755
218.198411 92.461 175.2932
219.779567 92.431 175.3270
221.372180 92.401 175.3722
222.976334 92.374 175.4223
224.592112 92.347 175.4723
226.219600 92.321 175.5201
227.858880 92.295 175.5660
229.510039 92.269 175.6114
231.173164 92.243 175.6572
232.848340 92.217 175.7034
234.535655 92.191 175.7488
236.235197 92.165 175.7926
237.947054 92.139 175.8341
239.671317 92.113 175.8735
241.408074 92.085 175.9126
243.157416 92.056 175.9548
244.919435 92.026 176.0040
246.694223 91.994 176.0629
248.481871 91.962 176.1347
250.282473 91.929 176.2228
252.096123 91.896 176.3295
253.922915 91.865 176.4537
255.762945 91.836 176.5899
257.616309 91.810 176.7280
259.483103 91.786 176.8578
261.363424 91.763 176.9735
263.257372 91.740 177.0760
265.165043 91.716 177.1721
267.086538 91.690 177.2710
269.021957 91.664 177.3815
270.971401 91.637 177.5097
272.934972 91.610 177.6573
274.912771 91.585 177.8223
276.904902 91.562 178.0000
278.911469 91.540 178.1859
280.932577 91.520 178.3762
282.968330 91.503 178.5670
285.018835 91.489 178.7528
287.084199 91.476 178.9263
289.164530 91.465 179.0809
291.259935 91.453 179.2149
293.370525 91.440 179.3337
295.496408 91.424 179.4473
297.637697 91.405 179.5657
299.794503 91.385 179.6953
301.966937 91.364 179.8380
304.155114 91.343 179.9929
306.359147 91.322 -179.8429
308.579152 91.302 -179.6726
310.815244 91.283 -179.4993
313.067539 91.264 -179.3246
315.336156 91.244 -179.1478
317.621211 91.225 -178.9657
319.922826 91.206 -178.7742
322.241118 91.187 -178.5715
324.576210 91.169 -178.3592
326.928223 91.153 -178.1408
329.297280 91.139 -177.9202
331.683504 91.126 -177.7006
334.087019 91.115 -177.4847
336.507952 91.104 -177.2742
338.946427 91.095 -177.0695
341.402572 91.085 -176.8698
343.876516 91.075 -176.6725
346.368387 91.065 -176.4749
348.878315 91.055 -176.2753
351.406431 91.045 -176.0733
353.952867 91.035 -175.8695
356.517756 91.026 -175.6650
359.101230 91.018 -175.4604
361.703426 91.010 -175.2561
364.324478 91.003 -175.0524
366.964523 90.996 -174.8495
369.623699 90.989 -174.6474
372.302145 90.983 -174.4458
375.000000 90.978 -174.2449
377.717405 90.973 -174.0449
380.454501 90.968 -173.8465
383.211431 90.964 -173.6498
385.988339 90.960 -173.4550
388.785369 90.957 -173.2618
391.602668 90.954 -173.0696
394.440383 90.951 -172.8784
397.298660 90.950 -172.6882
400.177650 90.948 -172.5000
403.077502 90.947 -172.3152
405.998368 90.947 -172.1351
408.940400 90.947 -171.9602
411.903750 90.946 -171.7891
414.888575 90.944 -171.6185
417.895028 90.942 -171.4450
420.923268 90.940 -171.2655
423.973452 90.939 -171.0790
427.045738 90.939 -170.8870
430.140287 90.940 -170.6935
433.257261 90.942 -170.5039
436.396822 90.946 -170.3218
439.559133 90.951 -170.1478
442.744360 90.957 -169.9812
445.952668 90.964 -169.8235
449.184225 90.971 -169.6790
452.439199 90.979 -169.5535
455.717760 90.986 -169.4500
459.020079 90.990 -169.3648
462.346327 90.991 -169.2875
465.696680 90.988 -169.2062
469.071310 90.983 -169.1132
472.470394 90.977 -169.0065
475.894109 90.970 -168.8889
479.342634 90.964 -168.7658
482.816148 90.958 -168.6432
486.314833 90.951 -168.5230
489.838871 90.943 -168.4008
493.388445 90.933 -168.2687
496.963741 90.923 -168.1223
500.564945 90.914 -167.9648
504.192245 90.907 -167.8040
507.845830 90.901 -167.6471
511.525890 90.895 -167.4974
515.232618 90.888 -167.3544
518.966206 90.880 -167.2143
522.726849 90.872 -167.0723
526.514743 90.862 -166.9234
530.330086 90.852 -166.7650
534.173076 90.843 -166.5992
538.043915 90.834 -166.4306
541.942803 90.826 -166.2615
545.869944 90.818 -166.0911
549.825542 90.811 -165.9182
553.809805 90.803 -165.7445
557.822939 90.797 -165.5727
561.865154 90.790 -165.4050
565.936660 90.782 -165.2411
570.037671 90.774 -165.0781
574.168399 90.765 -164.9120
578.329060 90.754 -164.7403
582.519870 90.744 -164.5627
586.741049 90.732 -164.3794
590.992817 90.720 -164.1888
595.275394 90.709 -163.9887
599.589005 90.697 -163.7806
603.933874 90.686 -163.5685
608.310228 90.676 -163.3560
612.718295 90.665 -163.1440
617.158304 90.654 -162.9295
621.630488 90.642 -162.7062
626.135079 90.630 -162.4675
630.672311 90.618 -162.2112
635.242423 90.607 -161.9417
639.845651 90.599 -161.6655
644.482237 90.592 -161.3856
649.152421 90.586 -161.1012
653.856447 90.583 -160.8142
658.594560 90.582 -160.5311
663.367008 90.583 -160.2622
668.174039 90.585 -160.0151
673.015903 90.587 -159.7891
677.892854 90.586 -159.5759
682.805145 90.583 -159.3658
687.753032 90.578 -159.1514
692.736774 90.570 -158.9271
697.756631 90.561 -158.6885
702.812863 90.551 -158.4339
707.905735 90.542 -158.1657
713.035511 90.533 -157.8884
718.202461 90.525 -157.6056
723.406852 90.517 -157.3182
728.648956 90.509 -157.0256
733.929047 90.502 -156.7266
739.247399 90.495 -156.4204
744.604290 90.488 -156.1067
750.000000 90.481 -155.7849
755.434809 90.475 -155.4548
760.909001 90.469 -155.1168
766.422861 90.465 -154.7713
771.976677 90.461 -154.4188
777.570739 90.458 -154.0603
783.205337 90.456 -153.6962
788.880766 90.455 -153.3258
794.597321 90.454 -152.9462
800.355301 90.456 -152.5548
806.155005 90.460 -152.1530
811.996736 90.467 -151.7465
817.880799 90.478 -151.3441
823.807501 90.492 -150.9554
829.777150 90.508 -150.5884
835.790057 90.524 -150.2451
841.846536 90.538 -149.9188
847.946903 90.551 -149.5985
854.091476 90.561 -149.2762
860.280575 90.571 -148.9478
866.514523 90.579 -148.6106
872.793644 90.587 -148.2613
879.118267 90.596 -147.9005
885.488720 90.606 -147.5325
891.905336 90.617 -147.1611
898.368450 90.628 -146.7867
904.878398 90.641 -146.4070
911.435520 90.654 -146.0209
918.040157 90.670 -145.6304
924.692655 90.687 -145.2387
931.393359 90.706 -144.8495
938.142619 90.727 -144.4668
944.940787 90.749 -144.0922
951.788218 90.772 -143.7244
958.685268 90.795 -143.3608
965.632296 90.819 -142.9986
972.629666 90.844 -142.6355
979.677741 90.869 -142.2706
986.776890 90.895 -141.9045
993.927482 90.921 -141.5360
1001.129891 90.949 -141.1606
1008.384491 90.977 -140.7743
1015.691660 91.009 -140.3782
1023.051781 91.043 -139.9776
1030.465236 91.082 -139.5806
1037.932411 91.125 -139.1993
1045.453698 91.170 -138.8459
1053.029486 91.217 -138.5259
1060.660172 91.263 -138.2359
1068.346153 91.308 -137.9667
1076.087829 91.350 -137.7085
1083.885605 91.391 -137.4545
1091.739887 91.430 -137.2020
1099.651084 91.469 -136.9509
1107.619609 91.507 -136.7005
1115.645878 91.545 -136.4500
1123.730308 91.582 -136.1982
1131.873321 91.618 -135.9441
1140.075341 91.653 -135.6865
1148.336797 91.689 -135.4244
1156.658119 91.725 -135.1571
1165.039741 91.761 -134.8833
1173.482099 91.799 -134.6018
1181.985634 91.839 -134.3130
1190.550789 91.882 -134.0231
1199.178011 91.929 -133.7432
1207.867749 91.978 -133.4851
1216.620457 92.028 -133.2546
1225.436590 92.077 -133.0480
1234.316609 92.123 -132.8565
1243.260976 92.167 -132.6707
1252.270157 92.209 -132.4825
1261.344623 92.248 -132.2877
1270.484846 92.287 -132.0850
1279.691303 92.324 -131.8732
1288.964474 92.362 -131.6508
1298.304842 92.399 -131.4182
1307.712894 92.437 -131.1783
1317.189120 92.476 -130.9351
1326.734016 92.516 -130.6909
1336.348077 92.557 -130.4449
1346.031806 92.599 -130.1942
1355.785708 92.642 -129.9350
1365.610290 92.687 -129.6636
1375.506065 92.734 -129.3756
1385.473549 92.783 -129.0664
1395.513261 92.837 -128.7354
1405.625726 92.896 -128.3886
1415.811469 92.960 -128.0388
1426.071023 93.029 -127.7014
1436.404921 93.101 -127.3863
1446.813703 93.174 -127.0942
1457.297912 93.248 -126.8198
1467.858093 93.321 -126.5567
1478.494798 93.394 -126.3003
1489.208581 93.464 -126.0474
1500.000000 93.533 -125.7952
1510.869618 93.600 -125.5411
1521.818002 93.663 -125.2827
1532.845723 93.724 -125.0183
1543.953355 93.783 -124.7469
1555.141477 93.842 -124.4689
1566.410674 93.902 -124.1895
1577.761531 93.966 -123.9205
1589.194642 94.033 -123.6767
1600.710601 94.102 -123.4680
1612.310010 94.171 -123.2952
1623.993473 94.240 -123.1536
1635.761599 94.309 -123.0358
1647.615002 94.376 -122.9359
1659.554299 94.442 -122.8494
1671.580114 94.508 -122.7738
1683.693072 94.574 -122.7091
1695.893807 94.640 -122.6584
1708.182952 94.705 -122.6247
1720.561150 94.769 -122.6086
1733.029045 94.831 -122.6075
1745.587288 94.891 -122.6168
1758.236533 94.948 -122.6303
1770.977440 95.003 -122.6432
1783.810673 95.060 -122.6570
1796.736900 95.118 -122.6814
1809.756796 95.177 -122.7305
1822.871040 95.237 -122.8144
1836.080315 95.295 -122.9352
1849.385310 95.351 -123.0889
1862.786718 95.402 -123.2688
1876.285239 95.450 -123.4663
1889.881575 95.494 -123.6715
1903.576436 95.534 -123.8738
1917.370535 95.573 -124.0630
1931.264593 95.612 -124.2308
1945.259332 95.652 -124.3731
1959.355483 95.694 -124.4933
1973.553781 95.738 -124.6000
1987.854965 95.783 -124.6988
2002.259781 95.826 -124.7886
2016.768981 95.867 -124.8630
2031.383320 95.907 -124.9132
2046.103561 95.944 -124.9307
2060.930471 95.981 -124.9091
2075.864823 96.019 -124.8459
2090.907395 96.057 -124.7415
2106.058972 96.098 -124.5960
2121.320344 96.141 -124.4075
2136.692305 96.187 -124.1729
2152.175658 96.239 -123.8898
2167.771210 96.298 -123.5634
2183.479774 96.368 -123.2087
2199.302169 96.448 -122.8470
2215.239219 96.538 -122.4975
2231.291755 96.638 -122.1742
2247.460615 96.747 -121.8861
2263.746641 96.863 -121.6380
2280.150683 96.987 -121.4313
2296.673595 97.117 -121.2662
2313.316238 97.254 -121.1439
2330.079481 97.400 -121.0709
2346.964198 97.553 -121.0612
2363.971268 97.712 -121.1326
2381.101578 97.877 -121.2994
2398.356022 98.043 -121.5696
2415.735498 98.210 -121.9459
2433.240913 98.375 -122.4267
2450.873180 98.536 -123.0095
2468.633217 98.693 -123.6914
2486.521951 98.843 -124.4683
2504.540314 98.985 -125.3328
2522.689246 99.118 -126.2738
2540.969692 99.243 -127.2802
2559.382606 99.359 -128.3456
2577.928947 99.467 -129.4704
2596.609683 99.567 -130.6569
2615.425787 99.657 -131.9051
2634.378241 99.735 -133.2109
2653.468031 99.801 -134.5652
2672.696154 99.854 -135.9540
2692.063613 99.894 -137.3612
2711.571415 99.923 -138.7725
2731.220579 99.942 -140.1805
2751.012130 99.951 -141.5839
2770.947098 99.952 -142.9828
2791.026522 99.943 -144.3757
2811.251451 99.925 -145.7584
2831.622938 99.898 -147.1252
2852.142045 99.862 -148.4696
2872.809842 99.816 -149.7845
2893.627406 99.762 -151.0602
2914.595823 99.699 -152.2845
2935.716186 99.630 -153.4471
2956.989596 99.556 -154.5447
2978.417161 99.480 -155.5815
3000.000000 99.402 -156.5646
3021.739237 99.322 -157.5010
3043.636005 99.241 -158.3938
3065.691446 99.157 -159.2415
3087.906710 99.073 -160.0399
3110.282955 98.989 -160.7885
3132.821347 98.907 -161.4938
3155.523062 98.828 -162.1671
3178.389283 98.751 -162.8200
3201.421202 98.675 -163.4618
3224.620020 98.601 -164.0987
3247.986946 98.526 -164.7340
3271.523198 98.449 -165.3659
3295.230004 98.370 -165.9864
3319.108599 98.289 -166.5841
3343.160228 98.206 -167.1515
3367.386145 98.124 -167.6876
3391.787613 98.044 -168.1961
3416.365904 97.964 -168.6816
3441.122300 97.887 -169.1460
3466.058091 97.812 -169.5875
3491.174576 97.740 -170.0049
3516.473066 97.673 -170.4039
3541.954880 97.612 -170.7979
3567.621345 97.556 -171.2040
3593.473800 97.505 -171.6395
3619.513592 97.456 -172.1195
3645.742080 97.409 -172.6543
3672.160630 97.358 -173.2453
3698.770620 97.303 -173.8843
3725.573436 97.241 -174.5596
3752.570477 97.171 -175.2611
3779.763150 97.093 -175.9810
3807.152872 97.005 -176.7106
3834.741071 96.906 -177.4360
3862.529185 96.794 -178.1377
3890.518664 96.671 -178.7963
3918.710966 96.540 -179.3991
3947.107561 96.402 -179.9409
3975.709929 96.259 179.5773
4004.519563 96.114 179.1505
4033.537962 95.965 178.7730
4062.766641 95.814 178.4434
4092.207123 95.660 178.1664
4121.860942 95.504 177.9480
4151.729646 95.346 177.7899
4181.814790 95.187 177.6906
4212.117944 95.028 177.6500
4242.640687 94.868 177.6740
4273.384610 94.707 177.7722
4304.351317 94.549 177.9502
4335.542421 94.395 178.2057
4366.959549 94.248 178.5280
4398.604338 94.110 178.9003
4430.478438 93.980 179.3038
4462.583511 93.860 179.7245
4494.921231 93.748 -179.8458
4527.493283 93.645 -179.4149
4560.301365 93.550 -178.9933
4593.347189 93.461 -178.5909
4626.632476 93.378 -178.2110
4660.158962 93.298 -177.8500
4693.928395 93.222 -177.5028
4727.942535 93.149 -177.1684
4762.203156 93.079 -176.8506
4796.712043 93.012 -176.5582
4831.470996 92.948 -176.2987
4866.481826 92.883 -176.0731
4901.746360 92.818 -175.8771
4937.266434 92.750 -175.7053
4973.043902 92.678 -175.5533
5009.080628 92.602 -175.4120
5045.378492 92.518 -175.2656
5081.939384 92.427 -175.0941
5118.765212 92.330 -174.8798
5155.857894 92.229 -174.6106
5193.219366 92.124 -174.2815
5230.851574 92.017 -173.8899
5268.756481 91.908 -173.4306
5306.936062 91.799 -172.8975
5345.392309 91.691 -172.2866
5384.127225 91.583 -171.5953
5423.142830 91.478 -170.8170
5462.441159 91.376 -169.9408
5502.024259 91.280 -168.9564
5541.894195 91.194 -167.8600
5582.053045 91.121 -166.6590
5622.502902 91.066 -165.3687
5663.245876 91.031 -164.0074
5704.284090 91.018 -162.5952
5745.619684 91.028 -161.1553
5787.254813 91.062 -159.7110
5829.191647 91.119 -158.2800
5871.432373 91.199 -156.8740
5913.979192 91.302 -155.5029
5956.834323 91.428 -154.1805
6000.000000 91.577 -152.9265
6043.478473 91.750 -151.7634
6087.272010 91.944 -150.7144
6131.382892 92.158 -149.8040
6175.813420 92.388 -149.0563
6220.565910 92.632 -148.4886
6265.642695 92.884 -148.1103
6311.046124 93.140 -147.9249
6356.778566 93.397 -147.9342
6402.842404 93.650 -148.1394
6449.240040 93.896 -148.5383
6495.973891 94.129 -149.1241
6543.046396 94.346 -149.8847
6590.460007 94.541 -150.7983
6638.217197 94.710 -151.8303
6686.320456 94.850 -152.9352
6734.772290 94.962 -154.0616
6783.575226 95.046 -155.1587
6832.731809 95.106 -156.1803
6882.244600 95.147 -157.0898
6932.116181 95.175 -157.8631
6982.349153 95.196 -158.4886
7032.946133 95.217 -158.9632
7083.909760 95.245 -159.2908
7135.242690 95.287 -159.4836
7186.947600 95.350 -159.5643
7239.027185 95.441 -159.5666
7291.484160 95.565 -159.5377
7344.321260 95.726 -159.5379
7397.541239 95.924 -159.6358
7451.146872 96.158 -159.9010
7505.140954 96.423 -160.4003
7559.526299 96.715 -161.1969
7614.305743 97.023 -162.3474
7669.482141 97.340 -163.8988
7725.058371 97.653 -165.8860
7781.037328 97.947 -168.3255
7837.421932 98.210 -171.2079
7894.215122 98.429 -174.4955
7951.419859 98.592 -178.1262
8009.039125 98.691 177.9808
8067.075924 98.723 173.9173
8125.533282 98.685 169.7773
8184.414245 98.577 165.6512
8243.721885 98.402 161.6253
8303.459292 98.161 157.7812
8363.629581 97.861 154.1925
8424.235888 97.506 150.9222
8485.281374 97.107 148.0172
8546.769221 96.672 145.5043
8608.702634 96.210 143.3910
8671.084842 95.731 141.6727
8733.919097 95.243 140.3377
8797.208675 94.752 139.3704
8860.956876 94.266 138.7514
8925.167022 93.790 138.4526
8989.842461 93.332 138.4349
9054.986566 92.896 138.6528
9120.602731 92.485 139.0613
9186.694378 92.098 139.6219
9253.264952 91.736 140.3043
9320.317925 91.400 141.0813
9387.856790 91.089 141.9236
9455.885071 90.801 142.8002
9524.406312 90.534 143.6845
9593.424086 90.286 144.5596
9662.941992 90.053 145.4208
9732.963653 89.832 146.2704
9803.492719 89.621 147.1107
9874.532869 89.417 147.9449
9946.087805 89.217 148.7806
10018.161257 89.019 149.6366
10090.756983 88.822 150.5416
10163.878768 88.625 151.5245
10237.530423 88.433 152.6051
10311.715789 88.249 153.7899
10386.438732 88.077 155.0758
10461.703149 87.921 156.4552
10537.512962 87.784 157.9146
10613.872125 87.670 159.4289
10690.784618 87.581 160.9608
10768.254450 87.518 162.4665
10846.285661 87.479 163.9059
10924.882318 87.461 165.2452
11004.048518 87.463 166.4527
11083.788390 87.478 167.4950
11164.106090 87.502 168.3415
11245.005805 87.525 168.9758
11326.491752 87.539 169.4019
11408.568180 87.536 169.6430
11491.239368 87.506 169.7383
11574.509626 87.443 169.7424
11658.383294 87.341 169.7304
11742.864745 87.199 169.7952
11827.958384 87.020 170.0359
11913.668646 86.811 170.5428
12000.000000 86.586 171.3860
12086.956947 86.359 172.6096
12174.544019 86.150 174.2227
12262.765784 85.978 176.1868
12351.626840 85.861 178.4070
12441.131819 85.812 -179.2596
12531.285389 85.835 -176.9802
12622.092249 85.928 -174.9209
12713.557132 86.079 -173.2289
12805.684808 86.271 -172.0173
12898.480079 86.482 -171.3519
12991.947783 86.689 -171.2459
13086.092792 86.871 -171.6660
13180.920015 87.010 -172.5451
13276.434395 87.090 -173.7903
13372.640911 87.101 -175.2882
13469.544580 87.036 -176.9144
13567.150452 86.896 -178.5478
13665.463617 86.683 179.9178
13764.489200 86.405 178.5713
13864.232362 86.071 177.4828
13964.698305 85.690 176.7011
14065.892266 85.272 176.2526
14167.819519 84.829 176.1492
14270.485380 84.366 176.3996
14373.895200 83.891 177.0143
14478.054370 83.411 178.0034
14582.968320 82.933 179.3753
14688.642520 82.463 -178.8587
14795.082478 82.010 -176.6739
14902.293745 81.585 -174.0197
15010.281908 81.206 -170.8185
15119.052599 80.903 -166.9883
15228.611486 80.718 -162.4983
15338.964283 80.703 -157.4545
15450.116741 80.896 -152.1969
15562.074656 81.302 -147.3320
15674.843864 81.871 -143.5789
15788.430244 82.515 -141.4316
15902.839718 83.144 -140.8882
16018.078250 83.711 -141.5170
16134.151848 84.223 -142.7937
16251.066563 84.718 -144.3724
16368.828491 85.240 -146.1469
16487.443769 85.810 -148.1988
16606.918584 86.414 -150.7119
16727.259161 87.005 -153.8616
16848.471777 87.525 -157.7142
16970.562748 87.936 -162.2392
17093.538442 88.219 -167.3793
17217.405268 88.373 -173.0692
17342.169684 88.396 -179.2301
17467.838194 88.282 174.2379
17594.417350 88.021 167.4664
17721.913751 87.602 160.6259
17850.334044 87.017 153.9198
17979.684923 86.265 147.5702
18109.973131 85.353 141.7970
18241.205462 84.295 136.7945
18373.388756 83.112 132.7152
18506.529905 81.829 129.6637
18640.635849 80.475 127.6930
18775.713581 79.077 126.8040
18911.770141 77.665 126.9485
19048.812624 76.266 128.0332
19186.848172 74.906 129.9235
19325.883983 73.607 132.4499
19465.927305 72.396 135.4103
19606.985439 71.310 138.5565
19749.065738 70.398 141.5620
19892.175609 69.729 143.9997
20036.322514 69.372 145.3923
