* Measurement data measured by REW V5.30.5
* Source: EXCL: Microphone (USB Sound Device        ), no input selected, L, volume: no control
* Format: 256k Log Swept Sine, 1 sweep at -3.0 dBFS with no timing reference
* Dated: Feb 29, 2024 1:00:14 AM
* REW Settings:
*  C-weighting compensation: Off
*  Target level: 75.0 dB
* Note: KZ Symphony 36ohm L
* Measurement: L Feb 29
* Smoothing: 1/12 octave
* Frequency Step: 96 ppo
* Start Frequency: 0.36621094 Hz
*
* Freq(Hz) SPL(dB) Phase(degrees)
0.366211 89.439 156.9739
0.368865 89.432 156.9504
0.371538 89.423 156.9151
0.374230 89.412 156.8708
0.376942 89.399 156.8197
0.379673 89.385 156.7635
0.382424 89.370 156.7033
0.385196 89.355 156.6397
0.387987 89.340 156.5732
0.390798 89.325 156.5040
0.393630 89.310 156.4320
0.396483 89.294 156.3575
0.399356 89.278 156.2804
0.402250 89.262 156.2006
0.405165 89.246 156.1182
0.408101 89.230 156.0332
0.411058 89.214 155.9454
0.414037 89.198 155.8549
0.417037 89.181 155.7618
0.420059 89.165 155.6658
0.423103 89.148 155.5671
0.426169 89.131 155.4655
0.429257 89.114 155.3611
0.432367 89.097 155.2539
0.435501 89.080 155.1437
0.438656 89.063 155.0307
0.441835 89.045 154.9147
0.445037 89.028 154.7957
0.448262 89.010 154.6738
0.451510 88.992 154.5489
0.454782 88.974 154.4209
0.458077 88.956 154.2899
0.461397 88.938 154.1558
0.464740 88.919 154.0187
0.468108 88.901 153.8784
0.471500 88.882 153.7350
0.474917 88.864 153.5885
0.478358 88.845 153.4388
0.481825 88.826 153.2860
0.485316 88.807 153.1300
0.488833 88.787 152.9708
0.492375 88.768 152.8083
0.495943 88.748 152.6427
0.499537 88.729 152.4739
0.503157 88.709 152.3018
0.506803 88.689 152.1265
0.510475 88.669 151.9480
0.514174 88.648 151.7662
0.517900 88.628 151.5812
0.521653 88.607 151.3930
0.525433 88.587 151.2016
0.529241 88.566 151.0069
0.533076 88.545 150.8090
0.536939 88.523 150.6080
0.540830 88.502 150.4037
0.544749 88.481 150.1964
0.548696 88.459 149.9859
0.552673 88.437 149.7722
0.556677 88.415 149.5555
0.560711 88.393 149.3358
0.564774 88.371 149.1130
0.568867 88.348 148.8873
0.572989 88.326 148.6586
0.577141 88.303 148.4271
0.581324 88.280 148.1927
0.585536 88.257 147.9556
0.589779 88.234 147.7157
0.594053 88.210 147.4732
0.598358 88.187 147.2281
0.602694 88.163 146.9806
0.607061 88.139 146.7306
0.611460 88.115 146.4783
0.615891 88.090 146.2238
0.620354 88.066 145.9671
0.624849 88.041 145.7085
0.629377 88.016 145.4479
0.633938 87.991 145.1855
0.638532 87.966 144.9215
0.643159 87.941 144.6560
0.647819 87.915 144.3891
0.652514 87.890 144.1210
0.657242 87.864 143.8519
0.662005 87.837 143.5819
0.666802 87.811 143.3112
0.671634 87.785 143.0400
0.676501 87.758 142.7686
0.681403 87.731 142.4970
0.686341 87.704 142.2256
0.691314 87.677 141.9545
0.696324 87.649 141.6840
0.701369 87.621 141.4144
0.706452 87.593 141.1456
0.711571 87.564 140.8779
0.716727 87.534 140.6112
0.721921 87.503 140.3454
0.727153 87.470 140.0797
0.732422 87.436 139.8136
0.737729 87.399 139.5459
0.743075 87.359 139.2756
0.748460 87.318 139.0015
0.753883 87.276 138.7230
0.759346 87.232 138.4396
0.764849 87.188 138.1508
0.770391 87.143 137.8564
0.775974 87.098 137.5563
0.781597 87.052 137.2502
0.787261 87.006 136.9382
0.792965 86.959 136.6201
0.798712 86.911 136.2958
0.804499 86.863 135.9653
0.810329 86.815 135.6286
0.816201 86.765 135.2855
0.822116 86.715 134.9361
0.828073 86.665 134.5803
0.834073 86.613 134.2180
0.840118 86.561 133.8492
0.846205 86.508 133.4740
0.852337 86.454 133.0922
0.858514 86.399 132.7039
0.864735 86.343 132.3091
0.871001 86.286 131.9078
0.877313 86.229 131.5000
0.883670 86.169 131.0857
0.890074 86.109 130.6651
0.896523 86.048 130.2381
0.903020 85.985 129.8049
0.909564 85.921 129.3656
0.916155 85.855 128.9202
0.922793 85.788 128.4690
0.929480 85.720 128.0120
0.936216 85.650 127.5495
0.943000 85.578 127.0816
0.949833 85.504 126.6087
0.956716 85.429 126.1310
0.963649 85.351 125.6487
0.970632 85.272 125.1622
0.977666 85.190 124.6720
0.984750 85.107 124.1783
0.991886 85.021 123.6816
0.999074 84.933 123.1825
1.006313 84.842 122.6815
1.013605 84.749 122.1791
1.020950 84.653 121.6761
1.028349 84.555 121.1730
1.035801 84.454 120.6708
1.043306 84.349 120.1701
1.050867 84.242 119.6719
1.058482 84.132 119.1769
1.066152 84.018 118.6862
1.073878 83.901 118.2004
1.081659 83.780 117.7202
1.089498 83.656 117.2461
1.097393 83.528 116.7780
1.105345 83.396 116.3158
1.113355 83.260 115.8587
1.121422 83.120 115.4061
1.129549 82.976 114.9574
1.137734 82.827 114.5118
1.145978 82.675 114.0690
1.154283 82.518 113.6284
1.162647 82.357 113.1898
1.171072 82.193 112.7526
1.179558 82.024 112.3166
1.188106 81.851 111.8814
1.196715 81.674 111.4466
1.205387 81.493 111.0117
1.214122 81.308 110.5765
1.222920 81.120 110.1404
1.231781 80.928 109.7030
1.240708 80.732 109.2638
1.249698 80.532 108.8224
1.258754 80.329 108.3782
1.267875 80.122 107.9307
1.277063 79.912 107.4793
1.286317 79.698 107.0234
1.295638 79.481 106.5623
1.305027 79.261 106.0954
1.314484 79.038 105.6220
1.324009 78.812 105.1412
1.333603 78.583 104.6524
1.343267 78.352 104.1546
1.353001 78.118 103.6471
1.362805 77.881 103.1288
1.372681 77.642 102.5991
1.382628 77.401 102.0567
1.392647 77.158 101.5010
1.402739 76.913 100.9311
1.412904 76.665 100.3462
1.423142 76.416 99.7458
1.433455 76.164 99.1299
1.443842 75.909 98.4990
1.454305 75.650 97.8541
1.464843 75.384 97.1971
1.475458 75.111 96.5304
1.486150 74.827 95.8562
1.496919 74.531 95.1762
1.507766 74.221 94.4910
1.518692 73.899 93.8003
1.529697 73.563 93.1031
1.540782 73.215 92.3973
1.551947 72.856 91.6803
1.563193 72.487 90.9482
1.574521 72.109 90.1963
1.585931 71.724 89.4178
1.597423 71.334 88.6041
1.608998 70.941 87.7430
1.620658 70.546 86.8172
1.632402 70.151 85.8016
1.644231 69.760 84.6575
1.656146 69.373 83.3227
1.668147 68.994 81.6899
1.680235 68.626 79.5577
1.692410 68.270 76.4995
1.704674 67.930 71.4380
1.717027 67.609 60.7843
1.729469 67.311 27.0658
1.742002 67.039 -44.1418
1.754625 66.796 -70.6911
1.767340 66.587 -79.7786
1.780147 66.416 -84.3434
1.793046 66.287 -87.2026
1.806040 66.204 -89.2610
1.819127 66.173 -90.8977
1.832309 66.196 -92.3023
1.845587 66.277 -93.5807
1.858961 66.416 -94.7931
1.872431 66.614 -95.9718
1.886000 66.867 -97.1325
1.899666 67.174 -98.2807
1.913432 67.530 -99.4173
1.927298 67.930 -100.5404
1.941264 68.370 -101.6477
1.955331 68.843 -102.7363
1.969500 69.346 -103.8036
1.983772 69.872 -104.8475
1.998147 70.417 -105.8659
2.012626 70.973 -106.8570
2.027211 71.536 -107.8196
2.041901 72.101 -108.7522
2.056697 72.661 -109.6539
2.071601 73.210 -110.5238
2.086613 73.745 -111.3613
2.101733 74.258 -112.1663
2.116963 74.746 -112.9390
2.132303 75.203 -113.6806
2.147755 75.626 -114.3934
2.163318 76.013 -115.0819
2.178995 76.363 -115.7525
2.194785 76.676 -116.4143
2.210689 76.954 -117.0778
2.226709 77.202 -117.7531
2.242844 77.422 -118.4477
2.259097 77.618 -119.1655
2.275467 77.791 -119.9076
2.291956 77.944 -120.6725
2.308565 78.077 -121.4577
2.325294 78.193 -122.2595
2.342144 78.293 -123.0736
2.359116 78.377 -123.8957
2.376211 78.448 -124.7210
2.393430 78.506 -125.5447
2.410774 78.553 -126.3621
2.428243 78.591 -127.1682
2.445839 78.621 -127.9583
2.463562 78.645 -128.7278
2.481415 78.664 -129.4727
2.499396 78.680 -130.1897
2.517508 78.693 -130.8773
2.535750 78.704 -131.5360
2.554126 78.713 -132.1691
2.572634 78.718 -132.7828
2.591276 78.719 -133.3847
2.610054 78.714 -133.9821
2.628967 78.702 -134.5804
2.648018 78.683 -135.1825
2.667206 78.654 -135.7893
2.686534 78.618 -136.4001
2.706002 78.573 -137.0126
2.725610 78.520 -137.6237
2.745361 78.459 -138.2295
2.765255 78.390 -138.8252
2.785294 78.314 -139.4051
2.805477 78.231 -139.9633
2.825807 78.141 -140.4929
2.846284 78.044 -140.9870
2.866909 77.941 -141.4387
2.887684 77.830 -141.8414
2.908609 77.712 -142.1902
2.929686 77.585 -142.4817
2.950916 77.448 -142.7149
2.972299 77.301 -142.8897
2.993838 77.141 -143.0067
3.015532 76.971 -143.0656
3.037384 76.789 -143.0654
3.059394 76.599 -143.0042
3.081564 76.402 -142.8793
3.103894 76.199 -142.6874
3.126386 75.993 -142.4245
3.149041 75.786 -142.0862
3.171861 75.581 -141.6675
3.194845 75.381 -141.1628
3.217996 75.188 -140.5659
3.241315 75.004 -139.8695
3.264803 74.830 -139.0646
3.288461 74.666 -138.1404
3.312291 74.513 -137.0849
3.336293 74.370 -135.8862
3.360469 74.234 -134.5361
3.384820 74.107 -133.0318
3.409348 73.988 -131.3769
3.434054 73.878 -129.5816
3.458938 73.778 -127.6625
3.484003 73.690 -125.6421
3.509250 73.616 -123.5486
3.534679 73.557 -121.4135
3.560293 73.518 -119.2706
3.586092 73.499 -117.1531
3.612079 73.503 -115.0908
3.638253 73.533 -113.1072
3.664618 73.591 -111.2179
3.691173 73.679 -109.4318
3.717921 73.796 -107.7538
3.744862 73.941 -106.1885
3.771999 74.111 -104.7406
3.799332 74.301 -103.4150
3.826864 74.507 -102.2153
3.854595 74.724 -101.1440
3.882527 74.947 -100.2021
3.910661 75.169 -99.3889
3.938999 75.388 -98.7030
3.967543 75.599 -98.1425
3.996294 75.801 -97.7050
4.025252 75.992 -97.3879
4.054421 76.172 -97.1877
4.083801 76.344 -97.0990
4.113394 76.509 -97.1140
4.143201 76.666 -97.2229
4.173225 76.816 -97.4142
4.203466 76.959 -97.6761
4.233926 77.093 -97.9971
4.264606 77.218 -98.3668
4.295509 77.333 -98.7768
4.326636 77.437 -99.2218
4.357989 77.528 -99.6998
4.389569 77.608 -100.2123
4.421378 77.674 -100.7637
4.453417 77.727 -101.3579
4.485688 77.768 -101.9958
4.518193 77.795 -102.6740
4.550934 77.811 -103.3852
4.583912 77.814 -104.1192
4.617129 77.805 -104.8645
4.650587 77.785 -105.6094
4.684287 77.753 -106.3438
4.718231 77.709 -107.0605
4.752421 77.654 -107.7565
4.786859 77.586 -108.4332
4.821547 77.505 -109.0940
4.856485 77.412 -109.7417
4.891677 77.306 -110.3760
4.927125 77.189 -110.9931
4.962829 77.060 -111.5859
4.998791 76.922 -112.1446
5.035015 76.774 -112.6579
5.071500 76.617 -113.1140
5.108251 76.451 -113.5022
5.145267 76.277 -113.8139
5.182552 76.092 -114.0437
5.220107 75.899 -114.1888
5.257934 75.699 -114.2477
5.296035 75.493 -114.2199
5.334412 75.284 -114.1052
5.373067 75.077 -113.9024
5.412003 74.874 -113.6094
5.451221 74.677 -113.2225
5.490722 74.490 -112.7366
5.530510 74.313 -112.1464
5.570587 74.147 -111.4503
5.610953 73.992 -110.6538
5.651613 73.849 -109.7707
5.692567 73.721 -108.8225
5.733818 73.610 -107.8356
5.775367 73.517 -106.8379
5.817218 73.446 -105.8550
5.859372 73.398 -104.9072
5.901831 73.374 -104.0090
5.944598 73.373 -103.1721
5.987675 73.394 -102.4086
6.031065 73.433 -101.7331
6.074768 73.486 -101.1615
6.118788 73.549 -100.7095
6.163127 73.619 -100.3907
6.207788 73.693 -100.2150
6.252772 73.771 -100.1868
6.298082 73.850 -100.3047
6.343721 73.931 -100.5618
6.389690 74.011 -100.9478
6.435992 74.088 -101.4511
6.482630 74.160 -102.0611
6.529606 74.225 -102.7700
6.576922 74.280 -103.5735
6.624581 74.325 -104.4696
6.672585 74.360 -105.4555
6.720938 74.384 -106.5241
6.769640 74.397 -107.6629
6.818696 74.400 -108.8564
6.868107 74.392 -110.0886
6.917876 74.373 -111.3470
6.968006 74.343 -112.6240
7.018499 74.302 -113.9161
7.069358 74.250 -115.2202
7.120586 74.189 -116.5291
7.172184 74.118 -117.8315
7.224157 74.040 -119.1124
7.276506 73.956 -120.3571
7.329235 73.865 -121.5532
7.382345 73.770 -122.6930
7.435841 73.672 -123.7723
7.489724 73.571 -124.7875
7.543997 73.470 -125.7343
7.598664 73.373 -126.6064
7.653728 73.281 -127.3968
7.709189 73.197 -128.0991
7.765053 73.121 -128.7101
7.821322 73.057 -129.2319
7.877998 73.005 -129.6721
7.935086 72.967 -130.0411
7.992587 72.947 -130.3505
8.050504 72.945 -130.6105
8.108841 72.963 -130.8299
8.167601 73.001 -131.0181
8.226787 73.058 -131.1879
8.286402 73.132 -131.3550
8.346449 73.223 -131.5359
8.406931 73.328 -131.7441
8.467851 73.447 -131.9885
8.529212 73.577 -132.2736
8.591018 73.717 -132.6013
8.653272 73.863 -132.9728
8.715977 74.013 -133.3890
8.779137 74.164 -133.8495
8.842754 74.315 -134.3521
8.906833 74.463 -134.8913
8.971375 74.609 -135.4590
9.036386 74.749 -136.0453
9.101867 74.884 -136.6410
9.167823 75.011 -137.2380
9.234257 75.131 -137.8293
9.301172 75.244 -138.4075
9.368572 75.349 -138.9635
9.436460 75.447 -139.4879
9.504841 75.539 -139.9724
9.573717 75.624 -140.4106
9.643092 75.703 -140.7987
9.712970 75.778 -141.1335
9.783354 75.850 -141.4122
9.854248 75.919 -141.6329
9.925656 75.986 -141.7948
9.997581 76.053 -141.8991
10.070028 76.120 -141.9494
10.143000 76.189 -141.9506
10.216500 76.259 -141.9081
10.290533 76.331 -141.8277
10.365103 76.406 -141.7148
10.440212 76.483 -141.5761
10.515866 76.563 -141.4185
10.592069 76.644 -141.2487
10.668823 76.726 -141.0721
10.746134 76.809 -140.8929
10.824005 76.891 -140.7139
10.902440 76.973 -140.5377
10.981443 77.053 -140.3656
11.061020 77.130 -140.1982
11.141172 77.204 -140.0348
11.221906 77.275 -139.8740
11.303225 77.342 -139.7138
11.385133 77.406 -139.5524
11.467634 77.465 -139.3880
11.550734 77.520 -139.2191
11.634435 77.572 -139.0445
11.718742 77.621 -138.8633
11.803661 77.666 -138.6753
11.889195 77.708 -138.4814
11.975349 77.748 -138.2831
12.062128 77.786 -138.0823
12.149535 77.821 -137.8815
12.237576 77.855 -137.6830
12.326254 77.886 -137.4895
12.415575 77.916 -137.3039
12.505544 77.942 -137.1283
12.596164 77.966 -136.9643
12.687441 77.987 -136.8127
12.779379 78.005 -136.6739
12.871984 78.018 -136.5474
12.965260 78.028 -136.4324
13.059211 78.034 -136.3272
13.153843 78.036 -136.2299
13.249161 78.034 -136.1387
13.345170 78.029 -136.0521
13.441875 78.021 -135.9691
13.539280 78.011 -135.8891
13.637391 78.000 -135.8127
13.736214 77.987 -135.7414
13.835752 77.975 -135.6779
13.936011 77.963 -135.6258
14.036998 77.952 -135.5891
14.138716 77.943 -135.5726
14.241171 77.935 -135.5812
14.344368 77.928 -135.6196
14.448313 77.923 -135.6915
14.553011 77.919 -135.7997
14.658468 77.915 -135.9458
14.764689 77.911 -136.1299
14.871680 77.907 -136.3507
14.979446 77.901 -136.6053
15.087994 77.895 -136.8898
15.197328 77.887 -137.1995
15.307454 77.878 -137.5291
15.418378 77.869 -137.8733
15.530106 77.861 -138.2271
15.642643 77.853 -138.5866
15.755996 77.847 -138.9486
15.870171 77.845 -139.3113
15.985172 77.846 -139.6741
16.101007 77.853 -140.0379
16.217682 77.865 -140.4043
16.335201 77.883 -140.7752
16.453573 77.906 -141.1532
16.572803 77.936 -141.5401
16.692898 77.970 -141.9368
16.813862 78.010 -142.3434
16.935701 78.053 -142.7583
17.058424 78.099 -143.1790
17.182035 78.147 -143.6012
17.306543 78.198 -144.0203
17.431953 78.249 -144.4308
17.558273 78.302 -144.8274
17.685509 78.356 -145.2050
17.813665 78.412 -145.5597
17.942751 78.468 -145.8884
18.072771 78.527 -146.1894
18.203733 78.587 -146.4625
18.335646 78.649 -146.7085
18.468513 78.714 -146.9292
18.602345 78.779 -147.1268
18.737144 78.846 -147.3038
18.872921 78.914 -147.4626
19.009682 78.982 -147.6052
19.147434 79.049 -147.7327
19.286184 79.115 -147.8462
19.425940 79.180 -147.9459
19.566708 79.242 -148.0320
19.708496 79.302 -148.1046
19.851313 79.360 -148.1640
19.995163 79.415 -148.2108
20.140057 79.466 -148.2461
20.285999 79.516 -148.2712
20.433001 79.562 -148.2879
20.581066 79.605 -148.2978
20.730206 79.644 -148.3027
20.880424 79.681 -148.3042
21.031733 79.714 -148.3036
21.184137 79.744 -148.3022
21.337646 79.770 -148.3010
21.492268 79.794 -148.3016
21.648010 79.815 -148.3058
21.804880 79.834 -148.3158
21.962887 79.851 -148.3344
22.122040 79.866 -148.3648
22.282345 79.880 -148.4104
22.443811 79.893 -148.4742
22.606449 79.904 -148.5589
22.770266 79.915 -148.6664
22.935268 79.924 -148.7974
23.101467 79.931 -148.9517
23.268869 79.938 -149.1283
23.437485 79.944 -149.3259
23.607323 79.950 -149.5426
23.778391 79.956 -149.7770
23.950699 79.963 -150.0282
24.124256 79.971 -150.2956
24.299070 79.981 -150.5790
24.475151 79.993 -150.8781
24.652508 80.008 -151.1926
24.831150 80.025 -151.5213
25.011087 80.044 -151.8621
25.192327 80.066 -152.2122
25.374882 80.090 -152.5680
25.558758 80.116 -152.9256
25.743967 80.144 -153.2812
25.930519 80.175 -153.6316
26.118422 80.208 -153.9742
26.307686 80.244 -154.3074
26.498322 80.282 -154.6303
26.690340 80.322 -154.9423
26.883749 80.364 -155.2428
27.078560 80.407 -155.5311
27.274782 80.451 -155.8060
27.472427 80.495 -156.0665
27.671503 80.539 -156.3112
27.872023 80.583 -156.5392
28.073996 80.626 -156.7504
28.277431 80.668 -156.9455
28.482342 80.709 -157.1260
28.688736 80.750 -157.2941
28.896626 80.788 -157.4522
29.106022 80.826 -157.6031
29.316936 80.861 -157.7492
29.529379 80.895 -157.8927
29.743361 80.926 -158.0356
29.958893 80.954 -158.1800
30.175987 80.981 -158.3278
30.394655 81.005 -158.4811
30.614908 81.028 -158.6418
30.836756 81.048 -158.8119
31.060211 81.066 -158.9929
31.285286 81.083 -159.1862
31.511992 81.099 -159.3927
31.740341 81.113 -159.6131
31.970345 81.127 -159.8483
32.202015 81.140 -160.0986
32.435364 81.153 -160.3643
32.670403 81.166 -160.6452
32.907146 81.179 -160.9401
33.145607 81.193 -161.2475
33.385796 81.207 -161.5649
33.627724 81.222 -161.8895
33.871403 81.238 -162.2185
34.116848 81.256 -162.5495
34.364071 81.275 -162.8805
34.613087 81.295 -163.2106
34.863907 81.318 -163.5392
35.116547 81.342 -163.8657
35.371017 81.367 -164.1899
35.627331 81.394 -164.5114
35.885502 81.421 -164.8296
36.145542 81.449 -165.1437
36.407467 81.476 -165.4530
36.671291 81.503 -165.7566
36.937027 81.528 -166.0533
37.204689 81.552 -166.3419
37.474289 81.575 -166.6212
37.745842 81.596 -166.8907
38.019363 81.616 -167.1503
38.294868 81.634 -167.4011
38.572369 81.652 -167.6451
38.851879 81.669 -167.8850
39.133415 81.686 -168.1239
39.416992 81.701 -168.3646
39.702625 81.717 -168.6099
39.990326 81.732 -168.8618
40.280113 81.746 -169.1223
40.571999 81.760 -169.3924
40.866001 81.772 -169.6722
41.162132 81.784 -169.9602
41.460411 81.795 -170.2537
41.760849 81.806 -170.5490
42.063465 81.816 -170.8433
42.368275 81.826 -171.1353
42.675293 81.839 -171.4271
42.984535 81.853 -171.7238
43.296021 81.870 -172.0316
43.609760 81.887 -172.3562
43.925774 81.904 -172.6998
44.244080 81.920 -173.0600
44.564690 81.933 -173.4301
44.887623 81.942 -173.8010
45.212898 81.949 -174.1640
45.540531 81.953 -174.5131
45.870537 81.957 -174.8462
46.202934 81.961 -175.1652
46.537739 81.965 -175.4743
46.874969 81.971 -175.7790
47.214645 81.978 -176.0841
47.556782 81.985 -176.3931
47.901398 81.992 -176.7077
48.248512 81.999 -177.0271
48.598141 82.005 -177.3492
48.950302 82.010 -177.6710
49.305016 82.015 -177.9908
49.662300 82.020 -178.3086
50.022175 82.025 -178.6264
50.384655 82.030 -178.9463
50.749763 82.034 -179.2683
51.117516 82.038 -179.5903
51.487934 82.041 -179.9096
51.861038 82.043 179.7747
52.236843 82.046 179.4596
52.615372 82.049 179.1389
52.996643 82.053 178.8070
53.380680 82.055 178.4629
53.767498 82.055 178.1107
54.157120 82.053 177.7571
54.549564 82.050 177.4074
54.944855 82.047 177.0628
55.343006 82.044 176.7216
55.744045 82.040 176.3825
56.147991 82.037 176.0468
56.554863 82.035 175.7184
56.964684 82.033 175.4001
57.377472 82.032 175.0917
57.793251 82.033 174.7889
58.212044 82.036 174.4864
58.633873 82.040 174.1804
59.058758 82.044 173.8699
59.486721 82.047 173.5560
59.917786 82.049 173.2402
60.351974 82.049 172.9238
60.789310 82.048 172.6073
61.229816 82.046 172.2908
61.673512 82.044 171.9728
62.120422 82.041 171.6495
62.570572 82.039 171.3144
63.023983 82.037 170.9605
63.480682 82.034 170.5836
63.940689 82.030 170.1851
64.404030 82.024 169.7725
64.870728 82.015 169.3571
65.340805 82.004 168.9485
65.814293 81.993 168.5514
66.291214 81.983 168.1643
66.771591 81.974 167.7820
67.255447 81.966 167.4000
67.742805 81.958 167.0169
68.233696 81.949 166.6357
68.728142 81.938 166.2610
69.226173 81.925 165.8955
69.727814 81.913 165.5377
70.233093 81.900 165.1822
70.742035 81.887 164.8230
71.254662 81.872 164.4572
71.771004 81.856 164.0868
72.291084 81.839 163.7162
72.814934 81.821 163.3488
73.342583 81.802 162.9849
73.874054 81.784 162.6222
74.409378 81.766 162.2587
74.948578 81.747 161.8937
75.491684 81.729 161.5285
76.038727 81.710 161.1647
76.589737 81.691 160.8031
77.144737 81.671 160.4424
77.703758 81.652 160.0798
78.266830 81.634 159.7115
78.833984 81.615 159.3345
79.405251 81.597 158.9466
79.980652 81.578 158.5468
80.560226 81.559 158.1348
81.143997 81.539 157.7122
81.732002 81.518 157.2820
82.324265 81.495 156.8475
82.920822 81.471 156.4115
83.521698 81.444 155.9761
84.126930 81.415 155.5442
84.736549 81.381 155.1221
85.350586 81.344 154.7191
85.969070 81.304 154.3438
86.592041 81.262 153.9983
87.219521 81.222 153.6753
87.851547 81.183 153.3614
88.488159 81.146 153.0443
89.129379 81.110 152.7169
89.775246 81.074 152.3785
90.425797 81.038 152.0321
91.081062 81.001 151.6822
91.741074 80.963 151.3314
92.405869 80.926 150.9792
93.075478 80.889 150.6229
93.749939 80.851 150.2617
94.429291 80.811 149.8978
95.113564 80.771 149.5353
95.802795 80.729 149.1774
96.497025 80.686 148.8255
97.196281 80.642 148.4805
97.900604 80.596 148.1428
98.610031 80.549 147.8127
99.324600 80.501 147.4896
100.044350 80.452 147.1737
100.769310 80.401 146.8652
101.499527 80.350 146.5640
102.235031 80.299 146.2687
102.975868 80.248 145.9783
103.722076 80.200 145.6923
104.473686 80.153 145.4124
105.230743 80.108 145.1415
105.993286 80.064 144.8827
106.761360 80.020 144.6402
107.534996 79.974 144.4236
108.314240 79.926 144.2433
109.099129 79.876 144.0989
109.889709 79.825 143.9750
110.686012 79.775 143.8510
111.488091 79.726 143.7089
112.295982 79.681 143.5360
113.109726 79.643 143.3244
113.929367 79.615 143.0708
114.754944 79.599 142.7778
115.586502 79.599 142.4525
116.424088 79.613 142.0976
117.267746 79.637 141.7070
118.117516 79.663 141.2715
118.973442 79.677 140.7925
119.835571 79.667 140.3049
120.703949 79.627 139.8728
121.578621 79.561 139.5390
122.459633 79.478 139.2876
123.347023 79.387 139.0687
124.240845 79.293 138.8355
125.141144 79.202 138.5594
126.047966 79.117 138.2322
126.961365 79.039 137.8589
127.881378 78.970 137.4538
128.808060 78.907 137.0408
129.741455 78.848 136.6463
130.681610 78.790 136.2862
131.628586 78.731 135.9642
132.582428 78.670 135.6766
133.543182 78.607 135.4151
134.510895 78.542 135.1700
135.485611 78.475 134.9332
136.467392 78.407 134.7011
137.456284 78.339 134.4737
138.452347 78.269 134.2523
139.455627 78.199 134.0373
140.466187 78.128 133.8264
141.484070 78.058 133.6136
142.509323 77.988 133.3910
143.542007 77.920 133.1521
144.582169 77.852 132.8965
145.629868 77.784 132.6305
146.685165 77.717 132.3627
147.748108 77.649 132.0991
148.818756 77.581 131.8396
149.897156 77.511 131.5807
150.983368 77.441 131.3204
152.077454 77.368 131.0592
153.179474 77.296 130.7993
154.289474 77.222 130.5441
155.407516 77.149 130.2958
156.533661 77.076 130.0529
157.667969 77.003 129.8124
158.810501 76.928 129.5718
159.961304 76.851 129.3298
161.120453 76.771 129.0866
162.287994 76.689 128.8438
163.464005 76.604 128.6032
164.648529 76.516 128.3671
165.841644 76.425 128.1359
167.043396 76.332 127.9082
168.253860 76.236 127.6819
169.473099 76.138 127.4564
170.701172 76.040 127.2367
171.938141 75.941 127.0355
173.184082 75.845 126.8671
174.439041 75.752 126.7354
175.703094 75.663 126.6296
176.976318 75.576 126.5349
178.258759 75.490 126.4421
179.550491 75.402 126.3465
180.851593 75.312 126.2471
182.162125 75.222 126.1445
183.482147 75.131 126.0388
184.811737 75.039 125.9312
186.150955 74.947 125.8252
187.499878 74.852 125.7249
188.858582 74.756 125.6345
190.227127 74.658 125.5575
191.605591 74.559 125.4973
192.994049 74.460 125.4559
194.392563 74.361 125.4330
195.801208 74.263 125.4228
197.220062 74.162 125.4140
198.649200 74.059 125.3933
200.088699 73.950 125.3565
201.538620 73.837 125.3130
202.999054 73.722 125.2752
204.470062 73.608 125.2499
205.951736 73.495 125.2392
207.444153 73.384 125.2432
208.947372 73.275 125.2608
210.461487 73.166 125.2896
211.986572 73.057 125.3282
213.522720 72.947 125.3780
215.069992 72.835 125.4442
216.628479 72.721 125.5325
218.198257 72.606 125.6451
219.779419 72.491 125.7789
221.372025 72.377 125.9270
222.976181 72.264 126.0826
224.591965 72.153 126.2423
226.219452 72.041 126.4058
227.858734 71.930 126.5730
229.509888 71.818 126.7432
231.173004 71.705 126.9149
232.848175 71.591 127.0879
234.535492 71.477 127.2637
236.235031 71.363 127.4454
237.946884 71.250 127.6389
239.671143 71.135 127.8514
241.407898 71.021 128.0883
243.157242 70.905 128.3503
244.919266 70.789 128.6354
246.694046 70.672 128.9418
248.481689 70.556 129.2696
250.282288 70.439 129.6217
252.095932 70.324 130.0036
253.922729 70.211 130.4200
255.762756 70.101 130.8682
257.616119 69.993 131.3344
259.482910 69.886 131.7964
261.363220 69.779 132.2345
263.257172 69.672 132.6439
265.164856 69.563 133.0382
267.086365 69.454 133.4396
269.021790 69.345 133.8663
270.971222 69.239 134.3257
272.934784 69.134 134.8159
274.912567 69.031 135.3318
276.904694 68.931 135.8700
278.911255 68.833 136.4280
280.932373 68.737 137.0024
282.968140 68.644 137.5883
285.018646 68.554 138.1785
287.084015 68.466 138.7641
289.164337 68.380 139.3361
291.259735 68.294 139.8892
293.370331 68.208 140.4263
295.496216 68.122 140.9584
297.637512 68.035 141.5010
299.794312 67.947 142.0670
301.966736 67.859 142.6610
304.154907 67.773 143.2814
306.358948 67.687 143.9246
308.578949 67.603 144.5859
310.815033 67.521 145.2591
313.067322 67.439 145.9382
315.335938 67.359 146.6222
317.621002 67.280 147.3155
319.922607 67.203 148.0242
322.240906 67.129 148.7501
324.575989 67.057 149.4907
326.928009 66.989 150.2435
329.297058 66.926 151.0079
331.683289 66.868 151.7834
334.086792 66.812 152.5682
336.507721 66.760 153.3591
338.946198 66.710 154.1523
341.402344 66.663 154.9436
343.876282 66.617 155.7307
346.368164 66.574 156.5142
348.878082 66.531 157.2975
351.406189 66.490 158.0856
353.952637 66.449 158.8821
356.517517 66.410 159.6871
359.100983 66.374 160.4985
361.703186 66.341 161.3123
364.324249 66.311 162.1220
366.964294 66.284 162.9230
369.623474 66.258 163.7165
372.301910 66.236 164.5077
374.999756 66.217 165.3020
377.717163 66.200 166.1010
380.454254 66.185 166.9030
383.211182 66.172 167.7046
385.988098 66.160 168.5017
388.785126 66.149 169.2907
391.602417 66.141 170.0688
394.440125 66.135 170.8337
397.298401 66.131 171.5844
400.177399 66.131 172.3223
403.077240 66.134 173.0505
405.998108 66.139 173.7714
408.940125 66.146 174.4877
411.903473 66.153 175.2028
414.888306 66.161 175.9155
417.894745 66.170 176.6209
420.922974 66.181 177.3145
423.973145 66.194 177.9953
427.045441 66.209 178.6648
430.139984 66.224 179.3239
433.256958 66.241 179.9737
436.396515 66.258 -179.3816
439.558838 66.276 -178.7363
442.744049 66.296 -178.0892
445.952362 66.318 -177.4471
449.183929 66.343 -176.8221
452.438904 66.370 -176.2277
455.717468 66.397 -175.6712
459.019775 66.422 -175.1466
462.346008 66.445 -174.6362
465.696350 66.465 -174.1234
469.070984 66.484 -173.6001
472.470062 66.502 -173.0667
475.893768 66.520 -172.5301
479.342285 66.538 -172.0002
482.815796 66.557 -171.4860
486.314484 66.575 -170.9882
489.838531 66.594 -170.4965
493.388092 66.612 -169.9973
496.963379 66.632 -169.4833
500.564575 66.654 -168.9582
504.191864 66.676 -168.4326
507.845459 66.698 -167.9158
511.525513 66.719 -167.4099
515.232239 66.739 -166.9103
518.965820 66.759 -166.4115
522.726440 66.777 -165.9104
526.514343 66.795 -165.4072
530.329712 66.814 -164.9048
534.172729 66.834 -164.4083
538.043579 66.854 -163.9218
541.942444 66.876 -163.4454
545.869568 66.899 -162.9762
549.825134 66.924 -162.5125
553.809387 66.949 -162.0547
557.822510 66.975 -161.6045
561.864746 67.001 -161.1637
565.936279 67.027 -160.7309
570.037292 67.053 -160.3008
574.168030 67.077 -159.8681
578.328674 67.100 -159.4314
582.519470 67.122 -158.9941
586.740662 67.144 -158.5589
590.992432 67.165 -158.1224
595.275024 67.186 -157.6787
599.588623 67.209 -157.2266
603.933472 67.233 -156.7712
608.309814 67.257 -156.3192
612.717896 67.282 -155.8740
617.157898 67.305 -155.4324
621.630066 67.328 -154.9857
626.134644 67.350 -154.5258
630.671875 67.373 -154.0499
635.242004 67.397 -153.5635
639.845215 67.424 -153.0747
644.481812 67.452 -152.5877
649.151978 67.482 -152.1026
653.856018 67.514 -151.6207
658.594116 67.549 -151.1494
663.366577 67.586 -150.7015
668.173584 67.623 -150.2861
673.015442 67.660 -149.9003
677.892395 67.695 -149.5318
682.804688 67.728 -149.1666
687.752563 67.759 -148.7954
692.736328 67.787 -148.4135
697.756165 67.813 -148.0206
702.812378 67.838 -147.6190
707.905273 67.863 -147.2123
713.035034 67.889 -146.8036
718.201965 67.917 -146.3947
723.406372 67.945 -145.9867
728.648499 67.974 -145.5790
733.928589 68.003 -145.1703
739.246948 68.031 -144.7590
744.603821 68.058 -144.3431
749.999512 68.085 -143.9199
755.434326 68.112 -143.4890
760.908508 68.140 -143.0520
766.422363 68.169 -142.6109
771.976196 68.198 -142.1676
777.570251 68.228 -141.7250
783.204834 68.260 -141.2853
788.880249 68.293 -140.8460
794.596802 68.327 -140.4002
800.354797 68.363 -139.9435
806.154480 68.401 -139.4787
811.996216 68.442 -139.0161
817.880249 68.486 -138.5665
823.806946 68.532 -138.1371
829.776611 68.578 -137.7312
835.789490 68.624 -137.3453
841.845947 68.668 -136.9692
847.946289 68.710 -136.5925
854.090881 68.750 -136.2101
860.279968 68.787 -135.8219
866.513916 68.823 -135.4272
872.793030 68.857 -135.0218
879.117676 68.891 -134.6027
885.488098 68.926 -134.1706
891.904724 68.962 -133.7275
898.367859 69.000 -133.2761
904.877808 69.039 -132.8177
911.434937 69.081 -132.3536
918.039551 69.125 -131.8861
924.692017 69.172 -131.4167
931.392700 69.222 -130.9478
938.141968 69.274 -130.4837
944.940125 69.328 -130.0276
951.787537 69.383 -129.5784
958.684570 69.439 -129.1316
965.631592 69.495 -128.6815
972.628967 69.553 -128.2255
979.677063 69.612 -127.7668
986.776184 69.672 -127.3118
993.926758 69.733 -126.8653
1001.129150 69.794 -126.4273
1008.383728 69.855 -125.9937
1015.690918 69.919 -125.5603
1023.051025 69.985 -125.1265
1030.464478 70.056 -124.6956
1037.931641 70.131 -124.2771
1045.452881 70.209 -123.8835
1053.028687 70.288 -123.5220
1060.659424 70.365 -123.1905
1068.345459 70.441 -122.8815
1076.087158 70.515 -122.5871
1083.884888 70.587 -122.3030
1091.739136 70.660 -122.0283
1099.650269 70.732 -121.7628
1107.618774 70.805 -121.5041
1115.645020 70.878 -121.2480
1123.729492 70.951 -120.9896
1131.872559 71.023 -120.7268
1140.074585 71.094 -120.4608
1148.336060 71.166 -120.1940
1156.657349 71.237 -119.9292
1165.038940 71.308 -119.6676
1173.481323 71.381 -119.4081
1181.984863 71.457 -119.1511
1190.550049 71.536 -118.9026
1199.177246 71.619 -118.6735
1207.866943 71.703 -118.4737
1216.619629 71.789 -118.3064
1225.435791 71.873 -118.1668
1234.315796 71.954 -118.0471
1243.260132 72.032 -117.9394
1252.269287 72.107 -117.8376
1261.343750 72.179 -117.7396
1270.484009 72.250 -117.6471
1279.690430 72.319 -117.5609
1288.963623 72.388 -117.4799
1298.303955 72.456 -117.4022
1307.712036 72.525 -117.3278
1317.188232 72.594 -117.2588
1326.733154 72.663 -117.1994
1336.347168 72.730 -117.1532
1346.030884 72.795 -117.1205
1355.784790 72.858 -117.0990
1365.609375 72.918 -117.0858
1375.505127 72.974 -117.0777
1385.472656 73.027 -117.0703
1395.512329 73.078 -117.0616
1405.624756 73.128 -117.0543
1415.810547 73.177 -117.0569
1426.070068 73.223 -117.0783
1436.403931 73.265 -117.1206
1446.812744 73.300 -117.1759
1457.296997 73.327 -117.2292
1467.857178 73.346 -117.2630
1478.493896 73.358 -117.2597
1489.207642 73.364 -117.2041
1499.999023 73.366 -117.0838
1510.868652 73.365 -116.8905
1521.817017 73.363 -116.6207
1532.844727 73.365 -116.2749
1543.952393 73.370 -115.8576
1555.140503 73.384 -115.3767
1566.409668 73.407 -114.8457
1577.760498 73.441 -114.2855
1589.193604 73.486 -113.7199
1600.709595 73.541 -113.1669
1612.308960 73.603 -112.6358
1623.992432 73.669 -112.1286
1635.760498 73.740 -111.6426
1647.613892 73.814 -111.1730
1659.553223 73.891 -110.7150
1671.578979 73.970 -110.2646
1683.691895 74.051 -109.8213
1695.892578 74.134 -109.3865
1708.181763 74.219 -108.9612
1720.559937 74.306 -108.5445
1733.027832 74.393 -108.1322
1745.586060 74.481 -107.7178
1758.235352 74.570 -107.2916
1770.976196 74.661 -106.8450
1783.809448 74.756 -106.3757
1796.735718 74.857 -105.8907
1809.755615 74.964 -105.4018
1822.869873 75.076 -104.9168
1836.079102 75.194 -104.4353
1849.384033 75.316 -103.9520
1862.785400 75.444 -103.4598
1876.283936 75.579 -102.9531
1889.880249 75.722 -102.4292
1903.575073 75.875 -101.8895
1917.369141 76.042 -101.3406
1931.263184 76.224 -100.7950
1945.257935 76.424 -100.2747
1959.354126 76.643 -99.8125
1973.552368 76.880 -99.4473
1987.853516 77.130 -99.2136
2002.258301 77.390 -99.1335
2016.767456 77.653 -99.2150
2031.381836 77.914 -99.4532
2046.102051 78.171 -99.8353
2060.928955 78.419 -100.3434
2075.863281 78.657 -100.9586
2090.905762 78.884 -101.6616
2106.057373 79.098 -102.4322
2121.318848 79.301 -103.2498
2136.690918 79.493 -104.0952
2152.174316 79.678 -104.9536
2167.769775 79.858 -105.8201
2183.478271 80.037 -106.7031
2199.300537 80.214 -107.6190
2215.237549 80.391 -108.5843
2231.290039 80.566 -109.6108
2247.458984 80.737 -110.7058
2263.745117 80.902 -111.8718
2280.149170 81.060 -113.1068
2296.672119 81.209 -114.4038
2313.314697 81.348 -115.7537
2330.077881 81.478 -117.1494
2346.962646 81.598 -118.5906
2363.969727 81.709 -120.0807
2381.100098 81.808 -121.6206
2398.354492 81.893 -123.2063
2415.733887 81.965 -124.8294
2433.239258 82.021 -126.4792
2450.871582 82.062 -128.1445
2468.631592 82.086 -129.8142
2486.520264 82.094 -131.4759
2504.538574 82.084 -133.1139
2522.687500 82.059 -134.7085
2540.968018 82.019 -136.2409
2559.380859 81.968 -137.6994
2577.927246 81.909 -139.0833
2596.607910 81.845 -140.3982
2615.424072 81.780 -141.6534
2634.376465 81.713 -142.8601
2653.466309 81.647 -144.0306
2672.694336 81.582 -145.1774
2692.061768 81.518 -146.3137
2711.569580 81.454 -147.4542
2731.218750 81.390 -148.6167
2751.010254 81.324 -149.8181
2770.945312 81.250 -151.0665
2791.024658 81.164 -152.3583
2811.249512 81.063 -153.6774
2831.621094 80.943 -154.9984
2852.140137 80.802 -156.2905
2872.807861 80.640 -157.5193
2893.625488 80.457 -158.6482
2914.593994 80.258 -159.6427
2935.714355 80.047 -160.4782
2956.987793 79.832 -161.1487
2978.415283 79.618 -161.6658
2999.998047 79.410 -162.0519
3021.737305 79.210 -162.3321
3043.634033 79.021 -162.5282
3065.689453 78.842 -162.6569
3087.904785 78.673 -162.7308
3110.281006 78.514 -162.7641
3132.819336 78.365 -162.7755
3155.520996 78.225 -162.7848
3178.387207 78.092 -162.8078
3201.419189 77.964 -162.8524
3224.617920 77.837 -162.9192
3247.984863 77.708 -163.0029
3271.520996 77.575 -163.0907
3295.227783 77.435 -163.1602
3319.106445 77.288 -163.1836
3343.157959 77.137 -163.1375
3367.383789 76.984 -163.0095
3391.785156 76.833 -162.7984
3416.363525 76.686 -162.5110
3441.119873 76.547 -162.1564
3466.055664 76.415 -161.7432
3491.172119 76.292 -161.2818
3516.470703 76.181 -160.7865
3541.952393 76.080 -160.2744
3567.618896 75.992 -159.7618
3593.471436 75.914 -159.2623
3619.511230 75.845 -158.7878
3645.739746 75.783 -158.3478
3672.158203 75.726 -157.9467
3698.768066 75.672 -157.5822
3725.570801 75.620 -157.2508
3752.567871 75.568 -156.9511
3779.760498 75.516 -156.6844
3807.150146 75.462 -156.4500
3834.738281 75.405 -156.2402
3862.526367 75.343 -156.0410
3890.515869 75.276 -155.8394
3918.708252 75.206 -155.6291
3947.104736 75.132 -155.4097
3975.707031 75.054 -155.1803
4004.516602 74.969 -154.9340
4033.534912 74.875 -154.6535
4062.763672 74.772 -154.3071
4092.204102 74.662 -153.8531
4121.857910 74.549 -153.2552
4151.726562 74.442 -152.4974
4181.811523 74.349 -151.5912
4212.114746 74.276 -150.5709
4242.637695 74.227 -149.4819
4273.381836 74.204 -148.3714
4304.348633 74.208 -147.2845
4335.539551 74.235 -146.2607
4366.956543 74.281 -145.3310
4398.601074 74.343 -144.5181
4430.475098 74.414 -143.8342
4462.580078 74.490 -143.2776
4494.917969 74.567 -142.8359
4527.490234 74.643 -142.4949
4560.298340 74.716 -142.2440
4593.344238 74.785 -142.0741
4626.629395 74.848 -141.9719
4660.155762 74.905 -141.9206
4693.925293 74.957 -141.9058
4727.939453 75.005 -141.9206
4762.200195 75.051 -141.9665
4796.708984 75.095 -142.0526
4831.467773 75.137 -142.1908
4866.478516 75.173 -142.3888
4901.743164 75.203 -142.6497
4937.263184 75.224 -142.9744
4973.040527 75.234 -143.3598
5009.077148 75.227 -143.7935
5045.375000 75.202 -144.2511
5081.936035 75.158 -144.7015
5118.761719 75.094 -145.1138
5155.854492 75.014 -145.4639
5193.215820 74.920 -145.7361
5230.848145 74.813 -145.9205
5268.752930 74.698 -146.0091
5306.932617 74.574 -145.9942
5345.388672 74.443 -145.8694
5384.123535 74.309 -145.6261
5423.139160 74.172 -145.2499
5462.437500 74.036 -144.7265
5502.020508 73.909 -144.0529
5541.890625 73.794 -143.2470
5582.049316 73.698 -142.3482
5622.499023 73.621 -141.4047
5663.242188 73.562 -140.4565
5704.280273 73.517 -139.5279
5745.615723 73.482 -138.6288
5787.250977 73.452 -137.7571
5829.187988 73.423 -136.8987
5871.428711 73.395 -136.0311
5913.975586 73.366 -135.1305
5956.830566 73.340 -134.1800
5999.996094 73.318 -133.1718
6043.474609 73.303 -132.1054
6087.268066 73.298 -130.9866
6131.378906 73.303 -129.8271
6175.809570 73.318 -128.6409
6220.562012 73.345 -127.4369
6265.638672 73.382 -126.2157
6311.041992 73.429 -124.9711
6356.774414 73.488 -123.6973
6402.838379 73.559 -122.3935
6449.235840 73.645 -121.0646
6495.969727 73.745 -119.7205
6543.041992 73.862 -118.3741
6590.455566 73.993 -117.0328
6638.212891 74.138 -115.6935
6686.315918 74.298 -114.3420
6734.767578 74.475 -112.9586
6783.570312 74.674 -111.5278
6832.727051 74.902 -110.0464
6882.239746 75.167 -108.5336
6932.111328 75.476 -107.0359
6982.344238 75.831 -105.6231
7032.941406 76.233 -104.3752
7083.904785 76.678 -103.3681
7135.237793 77.158 -102.6637
7186.942871 77.665 -102.3074
7239.022461 78.190 -102.3279
7291.479492 78.726 -102.7426
7344.316406 79.262 -103.5610
7397.536133 79.789 -104.7840
7451.141602 80.300 -106.4015
7505.135742 80.784 -108.3923
7559.520996 81.236 -110.7268
7614.300293 81.649 -113.3677
7669.476562 82.018 -116.2733
7725.052734 82.340 -119.4006
7781.031738 82.611 -122.7052
7837.416504 82.829 -126.1391
7894.209473 82.995 -129.6502
7951.414062 83.108 -133.1868
8009.033203 83.172 -136.6999
8067.069824 83.191 -140.1469
8125.527344 83.170 -143.4965
8184.408203 83.115 -146.7287
8243.715820 83.033 -149.8313
8303.453125 82.927 -152.7979
8363.623047 82.804 -155.6296
8424.229492 82.668 -158.3348
8485.275391 82.524 -160.9297
8546.763672 82.374 -163.4375
8608.697266 82.220 -165.8837
8671.079102 82.062 -168.2897
8733.913086 81.896 -170.6713
8797.202148 81.722 -173.0395
8860.950195 81.537 -175.4009
8925.160156 81.339 -177.7592
8989.835938 81.124 179.8865
9054.980469 80.889 177.5483
9120.596680 80.627 175.2527
9186.688477 80.338 173.0401
9253.258789 80.020 170.9591
9320.311523 79.678 169.0550
9387.850586 79.317 167.3575
9455.878906 78.945 165.8760
9524.400391 78.571 164.5998
9593.417969 78.201 163.5051
9662.935547 77.837 162.5641
9732.957031 77.482 161.7491
9803.486328 77.135 161.0359
9874.526367 76.795 160.4069
9946.081055 76.459 159.8569
10018.154297 76.126 159.3964
10090.750000 75.794 159.0491
10163.872070 75.464 158.8401
10237.523438 75.140 158.7842
10311.708984 74.828 158.8806
10386.431641 74.532 159.1153
10461.696289 74.256 159.4680
10537.505859 74.004 159.9131
10613.865234 73.778 160.4175
10690.777344 73.581 160.9416
10768.247070 73.410 161.4459
10846.278320 73.264 161.9006
10924.875000 73.139 162.2866
11004.041016 73.034 162.5881
11083.781250 72.945 162.7867
11164.098633 72.871 162.8619
11244.998047 72.807 162.7994
11326.484375 72.749 162.5951
11408.560547 72.691 162.2523
11491.231445 72.630 161.7783
11574.501953 72.559 161.1841
11658.375977 72.476 160.4904
11742.857422 72.375 159.7295
11827.951172 72.256 158.9406
11913.661133 72.119 158.1587
11999.992188 71.968 157.4086
12086.949219 71.807 156.7040
12174.536133 71.641 156.0464
12262.757812 71.473 155.4240
12351.619141 71.307 154.8118
12441.124023 71.144 154.1798
12531.277344 70.982 153.5036
12622.083984 70.816 152.7711
12713.548828 70.643 151.9816
12805.676758 70.458 151.1419
12898.471680 70.258 150.2675
12991.939453 70.040 149.3839
13086.083984 69.802 148.5232
13180.911133 69.545 147.7172
13276.425781 69.269 146.9942
13372.631836 68.975 146.3833
13469.535156 68.665 145.9166
13567.140625 68.342 145.6273
13665.454102 68.010 145.5459
13764.479492 67.676 145.6995
13864.222656 67.348 146.1086
13964.688477 67.036 146.7789
14065.882812 66.752 147.6917
14167.809570 66.506 148.8054
14270.475586 66.307 150.0647
14373.885742 66.162 151.4070
14478.044922 66.074 152.7673
14582.958984 66.046 154.0837
14688.632812 66.080 155.3013
14795.072266 66.176 156.3669
14902.283203 66.335 157.2189
15010.271484 66.559 157.7860
15119.041992 66.847 157.9891
15228.600586 67.197 157.7390
15338.953125 67.601 156.9384
15450.105469 68.049 155.4912
15562.063477 68.524 153.3129
15674.833008 69.004 150.3373
15788.418945 69.462 146.5232
15902.828125 69.869 141.8638
16018.066406 70.192 136.4007
16134.139648 70.400 130.2331
16251.054688 70.464 123.5203
16368.816406 70.365 116.4724
16487.431641 70.092 109.3282
16606.906250 69.645 102.3259
16727.246094 69.037 95.6775
16848.458984 68.285 89.5496
16970.550781 67.412 84.0539
17093.527344 66.445 79.2506
17217.394531 65.408 75.1595
17342.158203 64.322 71.7674
17467.826172 63.209 69.0338
17594.404297 62.085 66.9009
17721.900391 60.961 65.3059
17850.320312 59.844 64.1875
17979.671875 58.737 63.4942
18109.960938 57.640 63.1897
18241.193359 56.553 63.2582
18373.376953 55.477 63.7076
18506.517578 54.414 64.5628
18640.623047 53.367 65.8417
18775.701172 52.338 67.5440
18911.757812 51.330 69.6669
19048.800781 50.349 72.2175
19186.835938 49.410 75.2139
19325.871094 48.536 78.6754
19465.914062 47.764 82.5790
19606.972656 47.130 86.7779
19749.052734 46.664 90.9040
19892.162109 46.372 94.3437
20036.308594 46.238 96.3476
