* Measurement data measured by REW V5.31
* Source: EXCL: Microphone (USB Sound Device        ), MICROPHONE (Master Volume), R, volume: 0.390
* Format: 256k Log Swept Sine, 1 sweep at -15.0 dBFS with no timing reference
* Dated: Dec 9, 2024 1:19:00 PM
* REW Settings:
*  C-weighting compensation: Off
*  Target level: 75.0 dB
* Note: 
* Measurement: L KZ Sonata 1000
* Smoothing: 1/12 octave
* Frequency Step: 96 ppo
* Start Frequency: 0.36621094 Hz
*
* Freq(Hz) SPL(dB) Phase(degrees)
0.366211 95.045 158.9871
0.368865 95.037 158.9673
0.371538 95.025 158.9376
0.374230 95.010 158.9001
0.376942 94.994 158.8568
0.379673 94.976 158.8091
0.382424 94.957 158.7578
0.385196 94.938 158.7036
0.387987 94.918 158.6467
0.390798 94.899 158.5874
0.393630 94.879 158.5257
0.396483 94.858 158.4615
0.399356 94.838 158.3950
0.402250 94.818 158.3261
0.405165 94.797 158.2549
0.408101 94.776 158.1812
0.411058 94.755 158.1050
0.414037 94.734 158.0264
0.417037 94.713 157.9453
0.420059 94.692 157.8617
0.423103 94.670 157.7755
0.426169 94.649 157.6868
0.429257 94.627 157.5955
0.432368 94.605 157.5016
0.435501 94.583 157.4050
0.438656 94.560 157.3058
0.441835 94.538 157.2040
0.445037 94.515 157.0994
0.448262 94.492 156.9921
0.451510 94.469 156.8821
0.454782 94.446 156.7693
0.458077 94.423 156.6538
0.461397 94.399 156.5354
0.464740 94.376 156.4143
0.468108 94.352 156.2903
0.471500 94.328 156.1635
0.474917 94.304 156.0338
0.478358 94.280 155.9012
0.481825 94.255 155.7657
0.485316 94.230 155.6274
0.488833 94.206 155.4861
0.492375 94.180 155.3419
0.495943 94.155 155.1948
0.499537 94.130 155.0447
0.503157 94.104 154.8917
0.506803 94.078 154.7358
0.510475 94.053 154.5769
0.514175 94.026 154.4150
0.517900 94.000 154.2502
0.521653 93.973 154.0825
0.525434 93.947 153.9118
0.529241 93.920 153.7382
0.533076 93.893 153.5616
0.536939 93.865 153.3822
0.540830 93.838 153.1999
0.544749 93.810 153.0147
0.548696 93.782 152.8267
0.552673 93.754 152.6358
0.556677 93.726 152.4421
0.560711 93.697 152.2457
0.564774 93.669 152.0466
0.568867 93.640 151.8447
0.572989 93.611 151.6403
0.577141 93.581 151.4332
0.581324 93.552 151.2236
0.585536 93.522 151.0115
0.589779 93.492 150.7970
0.594053 93.462 150.5802
0.598358 93.431 150.3611
0.602694 93.401 150.1398
0.607061 93.370 149.9164
0.611460 93.339 149.6909
0.615891 93.307 149.4636
0.620354 93.276 149.2345
0.624849 93.244 149.0037
0.629377 93.212 148.7713
0.633938 93.180 148.5375
0.638532 93.147 148.3024
0.643159 93.115 148.0661
0.647819 93.082 147.8289
0.652514 93.048 147.5909
0.657242 93.015 147.3522
0.662005 92.981 147.1131
0.666802 92.947 146.8738
0.671634 92.913 146.6345
0.676501 92.879 146.3954
0.681403 92.844 146.1567
0.686341 92.809 145.9187
0.691314 92.774 145.6817
0.696324 92.738 145.4459
0.701370 92.702 145.2116
0.706452 92.666 144.9789
0.711571 92.628 144.7480
0.716728 92.590 144.5189
0.721921 92.550 144.2914
0.727153 92.508 144.0651
0.732422 92.463 143.8391
0.737729 92.416 143.6124
0.743075 92.366 143.3839
0.748460 92.315 143.1524
0.753883 92.265 142.9174
0.759346 92.214 142.6781
0.764849 92.165 142.4343
0.770391 92.117 142.1856
0.775974 92.070 141.9318
0.781597 92.024 141.6729
0.787261 91.980 141.4087
0.792966 91.936 141.1391
0.798712 91.894 140.8641
0.804500 91.852 140.5835
0.810329 91.811 140.2972
0.816201 91.770 140.0052
0.822116 91.729 139.7075
0.828073 91.688 139.4039
0.834074 91.647 139.0944
0.840118 91.606 138.7790
0.846206 91.564 138.4575
0.852338 91.521 138.1300
0.858514 91.477 137.7963
0.864735 91.431 137.4566
0.871001 91.384 137.1107
0.877313 91.335 136.7586
0.883670 91.283 136.4003
0.890074 91.229 136.0359
0.896524 91.172 135.6654
0.903020 91.112 135.2888
0.909564 91.049 134.9062
0.916155 90.981 134.5176
0.922794 90.909 134.1232
0.929481 90.833 133.7231
0.936216 90.751 133.3174
0.943000 90.664 132.9064
0.949834 90.572 132.4902
0.956717 90.473 132.0691
0.963649 90.367 131.6434
0.970632 90.254 131.2135
0.977666 90.134 130.7797
0.984750 90.006 130.3425
0.991886 89.868 129.9025
0.999074 89.722 129.4600
1.006314 89.566 129.0159
1.013606 89.400 128.5709
1.020951 89.223 128.1257
1.028349 89.035 127.6812
1.035801 88.835 127.2385
1.043307 88.622 126.7987
1.050867 88.396 126.3630
1.058482 88.155 125.9327
1.066152 87.900 125.5092
1.073878 87.628 125.0938
1.081660 87.339 124.6878
1.089498 87.029 124.2924
1.097393 86.698 123.9083
1.105345 86.341 123.5360
1.113355 85.955 123.1756
1.121423 85.539 122.8271
1.129549 85.089 122.4905
1.137734 84.606 122.1659
1.145979 84.089 121.8534
1.154283 83.539 121.5536
1.162647 82.955 121.2667
1.171072 82.341 120.9935
1.179558 81.696 120.7345
1.188106 81.023 120.4907
1.196715 80.322 120.2630
1.205387 79.596 120.0527
1.214122 78.847 119.8611
1.222920 78.077 119.6900
1.231782 77.287 119.5412
1.240708 76.480 119.4172
1.249699 75.658 119.3209
1.258754 74.825 119.2557
1.267876 73.982 119.2259
1.277063 73.132 119.2367
1.286318 72.279 119.2945
1.295639 71.426 119.4075
1.305027 70.576 119.5861
1.314484 69.733 119.8435
1.324009 68.900 120.1970
1.333604 68.084 120.6697
1.343268 67.286 121.2928
1.353002 66.514 122.1095
1.362806 65.772 123.1815
1.372681 65.065 124.5991
1.382628 64.401 126.4996
1.392647 63.785 129.1002
1.402739 63.226 132.7610
1.412904 62.730 138.1064
1.423142 62.307 146.2522
1.433455 61.964 159.0974
1.443843 61.711 178.7987
1.454305 61.554 -156.2932
1.464844 61.502 -134.0739
1.475459 61.557 -118.9252
1.486150 61.722 -109.3954
1.496920 61.995 -103.3048
1.507767 62.373 -99.2678
1.518693 62.851 -96.5037
1.529698 63.422 -94.5671
1.540783 64.080 -93.1923
1.551948 64.817 -92.2132
1.563194 65.624 -91.5215
1.574521 66.495 -91.0443
1.585931 67.421 -90.7302
1.597423 68.394 -90.5428
1.608999 69.406 -90.4552
1.620658 70.449 -90.4471
1.632402 71.515 -90.5034
1.644232 72.596 -90.6119
1.656146 73.686 -90.7633
1.668147 74.775 -90.9503
1.680235 75.857 -91.1668
1.692411 76.925 -91.4081
1.704675 77.972 -91.6701
1.717028 78.990 -91.9496
1.729470 79.973 -92.2442
1.742003 80.914 -92.5515
1.754626 81.807 -92.8702
1.767341 82.648 -93.1992
1.780147 83.431 -93.5381
1.793047 84.153 -93.8873
1.806040 84.813 -94.2480
1.819128 85.412 -94.6228
1.832310 85.952 -95.0148
1.845587 86.439 -95.4274
1.858961 86.878 -95.8635
1.872432 87.273 -96.3242
1.886001 87.629 -96.8093
1.899667 87.948 -97.3172
1.913433 88.233 -97.8456
1.927299 88.486 -98.3918
1.941265 88.710 -98.9530
1.955332 88.905 -99.5263
1.969501 89.074 -100.1090
1.983773 89.219 -100.6984
1.998148 89.344 -101.2920
2.012627 89.449 -101.8875
2.027212 89.537 -102.4825
2.041902 89.612 -103.0750
2.056698 89.677 -103.6631
2.071602 89.733 -104.2449
2.086614 89.785 -104.8186
2.101734 89.835 -105.3829
2.116964 89.887 -105.9366
2.132304 89.944 -106.4789
2.147756 90.008 -107.0099
2.163320 90.080 -107.5303
2.178996 90.162 -108.0425
2.194786 90.251 -108.5499
2.210690 90.346 -109.0569
2.226710 90.443 -109.5679
2.242845 90.539 -110.0865
2.259098 90.633 -110.6146
2.275468 90.722 -111.1529
2.291957 90.806 -111.7007
2.308566 90.885 -112.2570
2.325295 90.958 -112.8201
2.342145 91.027 -113.3879
2.359117 91.090 -113.9584
2.376212 91.148 -114.5291
2.393431 91.202 -115.0977
2.410775 91.252 -115.6617
2.428244 91.299 -116.2185
2.445840 91.342 -116.7657
2.463564 91.382 -117.3006
2.481416 91.419 -117.8212
2.499397 91.454 -118.3254
2.517509 91.487 -118.8121
2.535752 91.518 -119.2811
2.554127 91.547 -119.7334
2.572635 91.573 -120.1713
2.591277 91.595 -120.5981
2.610055 91.614 -121.0165
2.628968 91.628 -121.4290
2.648019 91.639 -121.8367
2.667208 91.645 -122.2400
2.686535 91.647 -122.6385
2.706003 91.645 -123.0312
2.725612 91.640 -123.4171
2.745363 91.631 -123.7945
2.765257 91.620 -124.1615
2.785295 91.606 -124.5160
2.805478 91.590 -124.8560
2.825808 91.572 -125.1788
2.846285 91.553 -125.4823
2.866910 91.533 -125.7639
2.887685 91.511 -126.0215
2.908611 91.488 -126.2533
2.929688 91.464 -126.4583
2.950917 91.437 -126.6360
2.972301 91.409 -126.7865
2.993839 91.378 -126.9104
3.015534 91.344 -127.0084
3.037386 91.307 -127.0811
3.059396 91.269 -127.1293
3.081565 91.229 -127.1537
3.103896 91.188 -127.1548
3.126388 91.147 -127.1335
3.149043 91.106 -127.0904
3.171862 91.065 -127.0259
3.194847 91.027 -126.9405
3.217998 90.991 -126.8344
3.241317 90.957 -126.7072
3.264805 90.927 -126.5579
3.288463 90.900 -126.3847
3.312293 90.876 -126.1853
3.336295 90.854 -125.9574
3.360471 90.836 -125.7000
3.384822 90.820 -125.4136
3.409350 90.807 -125.1001
3.434056 90.797 -124.7627
3.458940 90.789 -124.4057
3.484005 90.784 -124.0340
3.509252 90.782 -123.6528
3.534681 90.784 -123.2677
3.560295 90.790 -122.8840
3.586094 90.800 -122.5064
3.612081 90.815 -122.1385
3.638255 90.834 -121.7827
3.664620 90.859 -121.4391
3.691175 90.889 -121.1070
3.717923 90.925 -120.7850
3.744864 90.967 -120.4727
3.772001 91.013 -120.1709
3.799335 91.064 -119.8816
3.826866 91.119 -119.6078
3.854597 91.176 -119.3527
3.882529 91.237 -119.1200
3.910664 91.298 -118.9131
3.939002 91.361 -118.7356
3.967546 91.425 -118.5901
3.996296 91.488 -118.4789
4.025255 91.552 -118.4033
4.054423 91.615 -118.3634
4.083804 91.680 -118.3584
4.113396 91.745 -118.3870
4.143204 91.811 -118.4473
4.173227 91.876 -118.5374
4.203468 91.941 -118.6553
4.233928 92.006 -118.7991
4.264609 92.068 -118.9672
4.295512 92.128 -119.1584
4.326639 92.185 -119.3722
4.357992 92.239 -119.6088
4.389572 92.289 -119.8690
4.421380 92.335 -120.1540
4.453419 92.377 -120.4646
4.485691 92.416 -120.8002
4.518196 92.451 -121.1589
4.550936 92.482 -121.5372
4.583914 92.510 -121.9312
4.617131 92.534 -122.3362
4.650589 92.554 -122.7482
4.684289 92.569 -123.1633
4.718233 92.581 -123.5793
4.752424 92.588 -123.9954
4.786862 92.590 -124.4121
4.821549 92.588 -124.8306
4.856488 92.581 -125.2513
4.891680 92.569 -125.6732
4.927127 92.554 -126.0942
4.962831 92.534 -126.5108
4.998794 92.512 -126.9190
5.035017 92.486 -127.3145
5.071503 92.457 -127.6937
5.108253 92.426 -128.0536
5.145270 92.392 -128.3928
5.182555 92.355 -128.7109
5.220110 92.316 -129.0081
5.257937 92.274 -129.2850
5.296038 92.230 -129.5417
5.334415 92.186 -129.7782
5.373071 92.141 -129.9937
5.412006 92.097 -130.1873
5.451224 92.054 -130.3575
5.490725 92.013 -130.5030
5.530514 91.973 -130.6226
5.570590 91.936 -130.7163
5.610957 91.901 -130.7856
5.651616 91.868 -130.8334
5.692570 91.838 -130.8636
5.733821 91.811 -130.8809
5.775370 91.789 -130.8894
5.817221 91.772 -130.8925
5.859375 91.759 -130.8922
5.901834 91.752 -130.8897
5.944602 91.751 -130.8863
5.987679 91.754 -130.8843
6.031068 91.763 -130.8874
6.074771 91.776 -130.9006
6.118792 91.793 -130.9293
6.163131 91.814 -130.9782
6.207792 91.839 -131.0512
6.252776 91.867 -131.1506
6.298086 91.899 -131.2770
6.343725 91.935 -131.4306
6.389694 91.972 -131.6113
6.435996 92.012 -131.8194
6.482634 92.052 -132.0552
6.529610 92.093 -132.3196
6.576926 92.134 -132.6132
6.624585 92.174 -132.9362
6.672590 92.213 -133.2878
6.720942 92.251 -133.6661
6.769645 92.288 -134.0678
6.818700 92.323 -134.4890
6.868111 92.355 -134.9261
6.917881 92.385 -135.3761
6.968010 92.412 -135.8369
7.018504 92.436 -136.3069
7.069362 92.458 -136.7844
7.120590 92.476 -137.2662
7.172189 92.491 -137.7483
7.224161 92.504 -138.2261
7.276511 92.515 -138.6953
7.329239 92.523 -139.1527
7.382350 92.529 -139.5964
7.435845 92.534 -140.0250
7.489729 92.537 -140.4372
7.544002 92.539 -140.8312
7.598669 92.540 -141.2050
7.653732 92.542 -141.5567
7.709194 92.545 -141.8848
7.765058 92.549 -142.1888
7.821327 92.554 -142.4695
7.878004 92.561 -142.7281
7.935091 92.570 -142.9668
7.992592 92.582 -143.1873
8.050510 92.597 -143.3913
8.108847 92.616 -143.5804
8.167607 92.639 -143.7565
8.226793 92.665 -143.9223
8.286408 92.695 -144.0812
8.346454 92.728 -144.2369
8.406936 92.764 -144.3926
8.467856 92.804 -144.5506
8.529218 92.847 -144.7126
8.591024 92.892 -144.8800
8.653278 92.939 -145.0544
8.715983 92.988 -145.2371
8.779143 93.038 -145.4294
8.842760 93.089 -145.6318
8.906839 93.139 -145.8438
8.971381 93.190 -146.0644
9.036392 93.240 -146.2921
9.101873 93.289 -146.5254
9.167829 93.337 -146.7625
9.234263 93.383 -147.0021
9.301178 93.427 -147.2422
9.368578 93.469 -147.4803
9.436467 93.510 -147.7139
9.504847 93.548 -147.9406
9.573723 93.584 -148.1584
9.643099 93.618 -148.3658
9.712976 93.649 -148.5616
9.783361 93.678 -148.7444
9.854255 93.704 -148.9132
9.925663 93.727 -149.0673
9.997588 93.747 -149.2065
10.070035 93.764 -149.3314
10.143007 93.780 -149.4427
10.216507 93.793 -149.5414
10.290540 93.806 -149.6286
10.365109 93.818 -149.7055
10.440219 93.829 -149.7737
10.515873 93.840 -149.8349
10.592076 93.851 -149.8909
10.668830 93.862 -149.9431
10.746141 93.873 -149.9929
10.824012 93.884 -150.0413
10.902447 93.895 -150.0892
10.981451 93.905 -150.1375
11.061027 93.915 -150.1865
11.141180 93.923 -150.2365
11.221913 93.931 -150.2873
11.303232 93.938 -150.3386
11.385140 93.943 -150.3901
11.467641 93.947 -150.4415
11.550741 93.950 -150.4923
11.634442 93.952 -150.5421
11.718750 93.952 -150.5906
11.803669 93.952 -150.6377
11.889203 93.952 -150.6833
11.975357 93.951 -150.7278
12.062136 93.949 -150.7714
12.149543 93.947 -150.8148
12.237583 93.944 -150.8586
12.326262 93.941 -150.9036
12.415583 93.937 -150.9506
12.505552 93.933 -151.0004
12.596172 93.928 -151.0538
12.687449 93.922 -151.1112
12.779387 93.916 -151.1731
12.871992 93.908 -151.2399
12.965268 93.900 -151.3115
13.059220 93.891 -151.3879
13.153852 93.881 -151.4690
13.249170 93.870 -151.5543
13.345179 93.860 -151.6435
13.441884 93.848 -151.7364
13.539289 93.837 -151.8328
13.637401 93.825 -151.9325
13.736223 93.813 -152.0358
13.835761 93.802 -152.1430
13.936021 93.790 -152.2547
14.037007 93.779 -152.3716
14.138725 93.769 -152.4947
14.241180 93.759 -152.6249
14.344377 93.749 -152.7632
14.448323 93.741 -152.9104
14.553021 93.732 -153.0671
14.658478 93.724 -153.2338
14.764700 93.717 -153.4103
14.871691 93.709 -153.5964
14.979457 93.702 -153.7913
15.088005 93.695 -153.9939
15.197339 93.689 -154.2028
15.307465 93.682 -154.4166
15.418389 93.676 -154.6337
15.530117 93.670 -154.8525
15.642655 93.665 -155.0717
15.756008 93.660 -155.2902
15.870182 93.656 -155.5073
15.985184 93.653 -155.7225
16.101019 93.652 -155.9359
16.217694 93.652 -156.1477
16.335214 93.654 -156.3584
16.453586 93.657 -156.5685
16.572815 93.663 -156.7785
16.692909 93.669 -156.9888
16.813872 93.678 -157.1993
16.935713 93.688 -157.4098
17.058436 93.698 -157.6195
17.182048 93.710 -157.8273
17.306556 93.722 -158.0319
17.431967 93.735 -158.2316
17.558286 93.748 -158.4249
17.685521 93.761 -158.6102
17.813677 93.774 -158.7864
17.942762 93.787 -158.9523
18.072783 93.801 -159.1077
18.203746 93.815 -159.2523
18.335658 93.830 -159.3866
18.468526 93.846 -159.5113
18.602356 93.862 -159.6273
18.737156 93.879 -159.7356
18.872934 93.897 -159.8374
19.009695 93.915 -159.9335
19.147447 93.933 -160.0248
19.286197 93.951 -160.1121
19.425953 93.969 -160.1957
19.566721 93.986 -160.2763
19.708510 94.003 -160.3542
19.851326 94.019 -160.4302
19.995177 94.034 -160.5048
20.140070 94.048 -160.5786
20.286013 94.061 -160.6523
20.433014 94.073 -160.7268
20.581080 94.083 -160.8025
20.730219 94.092 -160.8796
20.880439 94.099 -160.9582
21.031747 94.105 -161.0380
21.184152 94.109 -161.1186
21.337661 94.111 -161.1993
21.492282 94.113 -161.2797
21.648024 94.113 -161.3596
21.804895 94.112 -161.4392
21.962902 94.111 -161.5194
22.122054 94.109 -161.6014
22.282360 94.107 -161.6871
22.443827 94.105 -161.7783
22.606464 94.102 -161.8767
22.770280 94.100 -161.9836
22.935283 94.097 -162.0996
23.101481 94.094 -162.2245
23.268884 94.090 -162.3571
23.437500 94.085 -162.4955
23.607338 94.080 -162.6377
23.778406 94.075 -162.7818
23.950714 94.070 -162.9265
24.124271 94.065 -163.0717
24.299086 94.062 -163.2181
24.475167 94.061 -163.3680
24.652524 94.062 -163.5242
24.831166 94.065 -163.6895
25.011103 94.069 -163.8661
25.192344 94.073 -164.0548
25.374898 94.078 -164.2542
25.558775 94.082 -164.4606
25.743984 94.084 -164.6683
25.930536 94.084 -164.8703
26.118439 94.083 -165.0588
26.307704 94.082 -165.2275
26.498341 94.080 -165.3716
26.690359 94.079 -165.4901
26.883768 94.082 -165.5852
27.078579 94.087 -165.6628
27.274801 94.097 -165.7311
27.472446 94.110 -165.7995
27.671522 94.126 -165.8763
27.872042 94.143 -165.9670
28.074014 94.160 -166.0735
28.277450 94.175 -166.1931
28.482360 94.186 -166.3191
28.688755 94.194 -166.4426
28.896645 94.198 -166.5540
29.106042 94.199 -166.6456
29.316957 94.199 -166.7130
29.529400 94.199 -166.7567
29.743382 94.201 -166.7819
29.958915 94.206 -166.7978
30.176009 94.213 -166.8157
30.394677 94.224 -166.8464
30.614929 94.236 -166.8981
30.836778 94.249 -166.9751
31.060234 94.260 -167.0774
31.285309 94.269 -167.2009
31.512015 94.275 -167.3394
31.740364 94.278 -167.4859
31.970368 94.278 -167.6344
32.202039 94.277 -167.7808
32.435388 94.274 -167.9230
32.670428 94.271 -168.0610
32.907171 94.268 -168.1956
33.145630 94.265 -168.3280
33.385817 94.262 -168.4586
33.627745 94.260 -168.5872
33.871425 94.258 -168.7133
34.116871 94.257 -168.8358
34.364096 94.257 -168.9546
34.613113 94.258 -169.0695
34.863934 94.260 -169.1814
35.116572 94.262 -169.2913
35.371041 94.266 -169.4002
35.627354 94.270 -169.5089
35.885525 94.274 -169.6178
36.145566 94.278 -169.7266
36.407492 94.282 -169.8347
36.671316 94.285 -169.9411
36.937051 94.287 -170.0444
37.204712 94.288 -170.1434
37.474313 94.289 -170.2369
37.745867 94.288 -170.3245
38.019389 94.287 -170.4059
38.294893 94.284 -170.4814
38.572394 94.282 -170.5510
38.851905 94.278 -170.6146
39.133442 94.275 -170.6718
39.417019 94.270 -170.7220
39.702651 94.266 -170.7645
39.990353 94.263 -170.7998
40.280140 94.260 -170.8289
40.572026 94.258 -170.8531
40.866028 94.258 -170.8740
41.162160 94.259 -170.8918
41.460438 94.262 -170.9058
41.760877 94.266 -170.9147
42.063494 94.273 -170.9182
42.368303 94.284 -170.9182
42.675322 94.298 -170.9198
42.984565 94.316 -170.9315
43.296048 94.339 -170.9631
43.609789 94.365 -171.0237
43.925804 94.392 -171.1187
44.244108 94.418 -171.2485
44.564719 94.442 -171.4083
44.887654 94.463 -171.5896
45.212928 94.480 -171.7830
45.540560 94.493 -171.9812
45.870565 94.504 -172.1804
46.202962 94.513 -172.3804
46.537768 94.519 -172.5833
46.875000 94.523 -172.7896
47.214676 94.524 -172.9971
47.556813 94.521 -173.2006
47.901429 94.516 -173.3939
48.248542 94.510 -173.5735
48.598171 94.502 -173.7405
48.950334 94.495 -173.8995
49.305048 94.487 -174.0553
49.662333 94.479 -174.2084
50.022206 94.468 -174.3532
50.384688 94.456 -174.4803
50.749796 94.444 -174.5820
51.117550 94.434 -174.6578
51.487969 94.428 -174.7161
51.861072 94.427 -174.7709
52.236879 94.429 -174.8356
52.615409 94.433 -174.9175
52.996681 94.438 -175.0165
53.380717 94.442 -175.1278
53.767536 94.446 -175.2462
54.157158 94.448 -175.3683
54.549603 94.450 -175.4927
54.944892 94.451 -175.6180
55.343045 94.451 -175.7418
55.744084 94.451 -175.8618
56.148028 94.451 -175.9771
56.554900 94.451 -176.0892
56.964720 94.451 -176.2009
57.377510 94.452 -176.3149
57.793291 94.453 -176.4322
58.212085 94.454 -176.5523
58.633914 94.455 -176.6743
59.058799 94.455 -176.7975
59.486764 94.454 -176.9214
59.917829 94.453 -177.0453
60.352019 94.450 -177.1672
60.789354 94.447 -177.2847
61.229859 94.443 -177.3959
61.673556 94.438 -177.5006
62.120468 94.434 -177.6000
62.570618 94.430 -177.6960
63.024031 94.425 -177.7901
63.480729 94.421 -177.8832
63.940736 94.417 -177.9761
64.404077 94.414 -178.0701
64.870776 94.411 -178.1670
65.340856 94.408 -178.2680
65.814343 94.405 -178.3738
66.291261 94.401 -178.4843
66.771635 94.398 -178.5986
67.255489 94.394 -178.7159
67.742850 94.390 -178.8346
68.233743 94.385 -178.9525
68.728193 94.379 -179.0676
69.226226 94.374 -179.1788
69.727867 94.368 -179.2859
70.233144 94.363 -179.3886
70.742083 94.358 -179.4870
71.254709 94.354 -179.5813
71.771050 94.350 -179.6726
72.291132 94.347 -179.7632
72.814984 94.345 -179.8554
73.342631 94.343 -179.9510
73.874102 94.341 179.9491
74.409424 94.339 179.8448
74.948626 94.336 179.7370
75.491734 94.332 179.6273
76.038779 94.328 179.5172
76.589787 94.324 179.4073
77.144788 94.319 179.2970
77.703811 94.315 179.1848
78.266885 94.311 179.0695
78.834039 94.308 178.9500
79.405303 94.305 178.8254
79.980706 94.302 178.6955
80.560280 94.299 178.5607
81.144053 94.296 178.4224
81.732056 94.293 178.2814
82.324320 94.289 178.1378
82.920876 94.283 177.9912
83.521755 94.277 177.8424
84.126988 94.268 177.6944
84.736607 94.256 177.5523
85.350643 94.242 177.4207
85.969129 94.227 177.3020
86.592097 94.211 177.1961
87.219579 94.194 177.1017
87.851608 94.178 177.0172
88.488217 94.163 176.9396
89.129439 94.149 176.8647
89.775308 94.137 176.7884
90.425856 94.126 176.7082
91.081119 94.116 176.6242
91.741131 94.107 176.5381
92.405925 94.097 176.4515
93.075536 94.089 176.3650
93.750000 94.081 176.2780
94.429351 94.073 176.1894
95.113625 94.064 176.0989
95.802858 94.055 176.0069
96.497085 94.046 175.9134
97.196342 94.036 175.8186
97.900667 94.024 175.7234
98.610096 94.012 175.6305
99.324665 93.998 175.5424
100.044413 93.985 175.4602
100.769376 93.972 175.3831
101.499592 93.960 175.3091
102.235100 93.948 175.2359
102.975938 93.937 175.1622
103.722144 93.927 175.0873
104.473757 93.917 175.0111
105.230817 93.908 174.9329
105.993363 93.898 174.8509
106.761435 93.889 174.7635
107.535072 93.879 174.6696
108.314315 93.869 174.5691
109.099206 93.858 174.4625
109.889783 93.847 174.3502
110.686090 93.835 174.2326
111.488167 93.823 174.1109
112.296056 93.809 173.9875
113.109800 93.794 173.8653
113.929440 93.777 173.7477
114.755020 93.757 173.6395
115.586582 93.733 173.5462
116.424170 93.707 173.4730
117.267827 93.680 173.4228
118.117598 93.652 173.3945
118.973527 93.627 173.3810
119.835658 93.605 173.3700
120.704037 93.587 173.3476
121.578708 93.572 173.3061
122.459718 93.559 173.2473
123.347111 93.546 173.1785
124.240935 93.533 173.1073
125.141236 93.520 173.0391
126.048061 93.505 172.9761
126.961458 93.490 172.9176
127.881473 93.474 172.8614
128.808154 93.458 172.8040
129.741551 93.441 172.7426
130.681712 93.423 172.6756
131.628686 93.405 172.6042
132.582521 93.387 172.5308
133.543269 93.369 172.4589
134.510979 93.351 172.3922
135.485701 93.332 172.3337
136.467486 93.313 172.2847
137.456386 93.293 172.2437
138.452451 93.273 172.2079
139.455735 93.252 172.1747
140.466288 93.230 172.1433
141.484165 93.208 172.1154
142.509418 93.184 172.0936
143.542100 93.161 172.0781
144.582265 93.138 172.0667
145.629968 93.116 172.0567
146.685262 93.093 172.0461
147.748204 93.071 172.0335
148.818849 93.048 172.0188
149.897251 93.024 172.0043
150.983469 93.001 171.9947
152.077557 92.977 171.9942
153.179574 92.953 172.0042
154.289576 92.929 172.0233
155.407622 92.907 172.0481
156.533770 92.884 172.0741
157.668078 92.863 172.0964
158.810606 92.841 172.1116
159.961413 92.820 172.1185
161.120559 92.799 172.1182
162.288105 92.777 172.1124
163.464112 92.754 172.1033
164.648640 92.728 172.0932
165.841752 92.700 172.0846
167.043510 92.669 172.0824
168.253976 92.637 172.0929
169.473213 92.605 172.1214
170.701286 92.574 172.1699
171.938258 92.547 172.2391
173.184194 92.523 172.3277
174.439158 92.500 172.4321
175.703216 92.479 172.5460
176.976434 92.458 172.6621
178.258878 92.437 172.7743
179.550615 92.418 172.8791
180.851713 92.400 172.9762
182.162239 92.384 173.0679
183.482262 92.372 173.1556
184.811850 92.364 173.2374
186.151073 92.359 173.3084
187.500000 92.357 173.3647
188.858702 92.358 173.4058
190.227250 92.362 173.4324
191.605715 92.366 173.4457
192.994169 92.367 173.4529
194.392685 92.362 173.4636
195.801334 92.349 173.4817
197.220191 92.329 173.5010
198.649330 92.304 173.5108
200.088825 92.276 173.5015
201.538751 92.249 173.4685
202.999184 92.224 173.4145
204.470200 92.201 173.3493
205.951875 92.179 173.2848
207.444287 92.156 173.2287
208.947514 92.131 173.1842
210.461634 92.103 173.1521
211.986726 92.072 173.1344
213.522869 92.039 173.1344
215.070144 92.003 173.1563
216.628631 91.967 173.2028
218.198411 91.930 173.2744
219.779567 91.895 173.3681
221.372180 91.862 173.4781
222.976334 91.830 173.5975
224.592112 91.800 173.7208
226.219600 91.770 173.8446
227.858880 91.741 173.9681
229.510039 91.713 174.0919
231.173164 91.684 174.2169
232.848340 91.656 174.3439
234.535655 91.629 174.4726
236.235197 91.601 174.6025
237.947054 91.574 174.7332
239.671317 91.546 174.8654
241.408074 91.519 175.0007
243.157416 91.490 175.1417
244.919435 91.462 175.2906
246.694223 91.432 175.4503
248.481871 91.403 175.6238
250.282473 91.374 175.8139
252.096123 91.346 176.0220
253.922915 91.320 176.2459
255.762945 91.297 176.4796
257.616309 91.278 176.7132
259.483103 91.261 176.9366
261.363424 91.246 177.1444
263.257372 91.232 177.3382
265.165043 91.216 177.5242
267.086538 91.199 177.7108
269.021957 91.182 177.9052
270.971401 91.164 178.1119
272.934972 91.148 178.3315
274.912771 91.133 178.5621
276.904902 91.119 178.8005
278.911469 91.107 179.0438
280.932577 91.098 179.2895
282.968330 91.091 179.5341
285.018835 91.086 179.7724
287.084199 91.084 179.9973
289.164530 91.084 -179.7977
291.259935 91.083 -179.6146
293.370525 91.081 -179.4489
295.496408 91.076 -179.2911
297.637697 91.069 -179.1315
299.794503 91.060 -178.9632
301.966937 91.051 -178.7838
304.155114 91.041 -178.5941
306.359147 91.032 -178.3971
308.579152 91.024 -178.1968
310.815244 91.017 -177.9968
313.067539 91.009 -177.7990
315.336156 91.002 -177.6023
317.621211 90.994 -177.4030
319.922826 90.986 -177.1969
322.241118 90.978 -176.9820
324.576210 90.971 -176.7595
326.928223 90.965 -176.5325
329.297280 90.961 -176.3054
331.683504 90.959 -176.0819
334.087019 90.957 -175.8652
336.507952 90.957 -175.6567
338.946427 90.957 -175.4562
341.402572 90.957 -175.2619
343.876516 90.956 -175.0707
346.368387 90.955 -174.8799
348.878315 90.954 -174.6878
351.406431 90.953 -174.4940
353.952867 90.952 -174.2988
356.517756 90.951 -174.1032
359.101230 90.951 -173.9081
361.703426 90.951 -173.7141
364.324478 90.952 -173.5217
366.964523 90.953 -173.3307
369.623699 90.954 -173.1414
372.302145 90.956 -172.9541
375.000000 90.957 -172.7695
377.717405 90.959 -172.5881
380.454501 90.961 -172.4097
383.211431 90.963 -172.2339
385.988339 90.966 -172.0602
388.785369 90.969 -171.8889
391.602668 90.972 -171.7196
394.440383 90.976 -171.5521
397.298660 90.980 -171.3860
400.177650 90.984 -171.2213
403.077502 90.989 -171.0594
405.998368 90.993 -170.9018
408.940400 90.997 -170.7496
411.903750 91.001 -170.6016
414.888575 91.004 -170.4548
417.895028 91.006 -170.3053
420.923268 91.008 -170.1501
423.973452 91.011 -169.9880
427.045738 91.014 -169.8204
430.140287 91.019 -169.6511
433.257261 91.025 -169.4850
436.396822 91.033 -169.3253
439.559133 91.041 -169.1727
442.744360 91.050 -169.0273
445.952668 91.060 -168.8913
449.184225 91.070 -168.7692
452.439199 91.081 -168.6667
455.717760 91.090 -168.5867
459.020079 91.096 -168.5255
462.346327 91.099 -168.4721
465.696680 91.099 -168.4143
469.071310 91.096 -168.3440
472.470394 91.092 -168.2592
475.894109 91.088 -168.1627
479.342634 91.084 -168.0605
482.816148 91.079 -167.9589
486.314833 91.074 -167.8598
489.838871 91.067 -167.7587
493.388445 91.059 -167.6479
496.963741 91.051 -167.5229
500.564945 91.043 -167.3871
504.192245 91.037 -167.2476
507.845830 91.032 -167.1115
511.525890 91.028 -166.9819
515.232618 91.022 -166.8579
518.966206 91.016 -166.7359
522.726849 91.008 -166.6111
526.514743 90.999 -166.4789
530.330086 90.990 -166.3368
534.173076 90.982 -166.1871
538.043915 90.974 -166.0345
541.942803 90.967 -165.8812
545.869944 90.960 -165.7266
549.825542 90.953 -165.5697
553.809805 90.946 -165.4120
557.822939 90.940 -165.2563
561.865154 90.934 -165.1048
565.936660 90.926 -164.9570
570.037671 90.918 -164.8099
574.168399 90.908 -164.6598
578.329060 90.897 -164.5038
582.519870 90.887 -164.3416
586.741049 90.875 -164.1726
590.992817 90.863 -163.9946
595.275394 90.851 -163.8053
599.589005 90.840 -163.6062
603.933874 90.829 -163.4019
608.310228 90.819 -163.1970
612.718295 90.808 -162.9929
617.158304 90.797 -162.7873
621.630488 90.786 -162.5743
626.135079 90.774 -162.3469
630.672311 90.762 -162.1024
635.242423 90.752 -161.8447
639.845651 90.744 -161.5802
644.482237 90.737 -161.3115
649.152421 90.731 -161.0380
653.856447 90.728 -160.7617
658.594560 90.728 -160.4893
663.367008 90.729 -160.2309
668.174039 90.732 -159.9940
673.015903 90.733 -159.7776
677.892854 90.733 -159.5735
682.805145 90.729 -159.3722
687.753032 90.724 -159.1667
692.736774 90.716 -158.9520
697.756631 90.706 -158.7239
702.812863 90.696 -158.4803
707.905735 90.687 -158.2233
713.035511 90.678 -157.9568
718.202461 90.669 -157.6844
723.406852 90.662 -157.4067
728.648956 90.654 -157.1230
733.929047 90.646 -156.8322
739.247399 90.638 -156.5341
744.604290 90.631 -156.2284
750.000000 90.624 -155.9152
755.434809 90.618 -155.5944
760.909001 90.612 -155.2660
766.422861 90.607 -154.9301
771.976677 90.603 -154.5869
777.570739 90.600 -154.2370
783.205337 90.597 -153.8811
788.880766 90.595 -153.5181
794.597321 90.595 -153.1456
800.355301 90.596 -152.7616
806.155005 90.599 -152.3674
811.996736 90.605 -151.9689
817.880799 90.616 -151.5746
823.807501 90.629 -151.1942
829.777150 90.644 -150.8356
835.790057 90.660 -150.5009
841.846536 90.674 -150.1832
847.946903 90.686 -149.8720
854.091476 90.697 -149.5592
860.280575 90.705 -149.2407
866.514523 90.713 -148.9133
872.793644 90.720 -148.5734
879.118267 90.728 -148.2210
885.488720 90.737 -147.8603
891.905336 90.746 -147.4954
898.368450 90.757 -147.1269
904.878398 90.769 -146.7531
911.435520 90.781 -146.3733
918.040157 90.796 -145.9896
924.692655 90.812 -145.6047
931.393359 90.831 -145.2220
938.142619 90.851 -144.8449
944.940787 90.872 -144.4747
951.788218 90.893 -144.1100
958.685268 90.915 -143.7485
965.632296 90.938 -143.3880
972.629666 90.960 -143.0267
979.677741 90.984 -142.6637
986.776890 91.008 -142.2996
993.927482 91.033 -141.9327
1001.129891 91.059 -141.5590
1008.384491 91.087 -141.1745
1015.691660 91.117 -140.7803
1023.051781 91.150 -140.3817
1030.465236 91.188 -139.9862
1037.932411 91.229 -139.6058
1045.453698 91.274 -139.2531
1053.029486 91.319 -138.9338
1060.660172 91.364 -138.6443
1068.346153 91.407 -138.3757
1076.087829 91.448 -138.1178
1083.885605 91.487 -137.8636
1091.739887 91.526 -137.6102
1099.651084 91.563 -137.3571
1107.619609 91.600 -137.1041
1115.645878 91.636 -136.8503
1123.730308 91.671 -136.5950
1131.873321 91.706 -136.3370
1140.075341 91.741 -136.0757
1148.336797 91.776 -135.8101
1156.658119 91.811 -135.5394
1165.039741 91.846 -135.2622
1173.482099 91.883 -134.9769
1181.985634 91.922 -134.6841
1190.550789 91.964 -134.3901
1199.178011 92.010 -134.1060
1207.867749 92.059 -133.8439
1216.620457 92.108 -133.6095
1225.436590 92.156 -133.3993
1234.316609 92.202 -133.2046
1243.260976 92.245 -133.0158
1252.270157 92.286 -132.8245
1261.344623 92.325 -132.6258
1270.484846 92.363 -132.4183
1279.691303 92.400 -132.2010
1288.964474 92.436 -131.9728
1298.304842 92.473 -131.7350
1307.712894 92.511 -131.4903
1317.189120 92.550 -131.2424
1326.734016 92.589 -130.9936
1336.348077 92.630 -130.7430
1346.031806 92.671 -130.4878
1355.785708 92.714 -130.2242
1365.610290 92.758 -129.9486
1375.506065 92.805 -129.6568
1385.473549 92.854 -129.3441
1395.513261 92.907 -129.0100
1405.625726 92.966 -128.6605
1415.811469 93.030 -128.3081
1426.071023 93.098 -127.9678
1436.404921 93.170 -127.6490
1446.813703 93.243 -127.3524
1457.297912 93.317 -127.0726
1467.858093 93.390 -126.8040
1478.494798 93.461 -126.5424
1489.208581 93.532 -126.2850
1500.000000 93.601 -126.0286
1510.869618 93.667 -125.7705
1521.818002 93.731 -125.5081
1532.845723 93.791 -125.2394
1543.953355 93.850 -124.9633
1555.141477 93.909 -124.6801
1566.410674 93.970 -124.3945
1577.761531 94.033 -124.1185
1589.194642 94.101 -123.8673
1600.710601 94.170 -123.6513
1612.310010 94.241 -123.4718
1623.993473 94.311 -123.3243
1635.761599 94.381 -123.2017
1647.615002 94.449 -123.0982
1659.554299 94.517 -123.0098
1671.580114 94.585 -122.9343
1683.693072 94.653 -122.8729
1695.893807 94.721 -122.8291
1708.182952 94.789 -122.8062
1720.561150 94.855 -122.8046
1733.029045 94.918 -122.8215
1745.587288 94.979 -122.8518
1758.236533 95.036 -122.8887
1770.977440 95.092 -122.9264
1783.810673 95.147 -122.9650
1796.736900 95.204 -123.0129
1809.756796 95.261 -123.0831
1822.871040 95.319 -123.1852
1836.080315 95.374 -123.3212
1849.385310 95.426 -123.4872
1862.786718 95.475 -123.6765
1876.285239 95.520 -123.8805
1889.881575 95.561 -124.0890
1903.576436 95.599 -124.2919
1917.370535 95.635 -124.4796
1931.264593 95.671 -124.6444
1945.259332 95.708 -124.7827
1959.355483 95.748 -124.8983
1973.553781 95.790 -124.9996
1987.854965 95.832 -125.0924
2002.259781 95.874 -125.1754
2016.768981 95.914 -125.2422
2031.383320 95.951 -125.2841
2046.103561 95.988 -125.2926
2060.930471 96.023 -125.2615
2075.864823 96.059 -125.1885
2090.907395 96.096 -125.0743
2106.058972 96.136 -124.9192
2121.320344 96.178 -124.7217
2136.692305 96.223 -124.4785
2152.175658 96.274 -124.1876
2167.771210 96.333 -123.8536
2183.479774 96.402 -123.4919
2199.302169 96.482 -123.1233
2215.239219 96.572 -122.7671
2231.291755 96.671 -122.4373
2247.460615 96.780 -122.1434
2263.746641 96.896 -121.8904
2280.150683 97.019 -121.6798
2296.673595 97.149 -121.5117
2313.316238 97.286 -121.3870
2330.079481 97.430 -121.3119
2346.964198 97.583 -121.3006
2363.971268 97.742 -121.3709
2381.101578 97.905 -121.5374
2398.356022 98.071 -121.8080
2415.735498 98.236 -122.1854
2433.240913 98.400 -122.6682
2450.873180 98.561 -123.2537
2468.633217 98.716 -123.9393
2486.521951 98.866 -124.7209
2504.540314 99.006 -125.5907
2522.689246 99.138 -126.5371
2540.969692 99.261 -127.5486
2559.382606 99.375 -128.6188
2577.928947 99.481 -129.7482
2596.609683 99.578 -130.9389
2615.425787 99.665 -132.1906
2634.378241 99.742 -133.4983
2653.468031 99.805 -134.8520
2672.696154 99.856 -136.2371
2692.063613 99.893 -137.6371
2711.571415 99.919 -139.0380
2731.220579 99.935 -140.4326
2751.012130 99.943 -141.8201
2770.947098 99.942 -143.2011
2791.026522 99.932 -144.5746
2811.251451 99.913 -145.9371
2831.622938 99.885 -147.2830
2852.142045 99.849 -148.6058
2872.809842 99.804 -149.8980
2893.627406 99.750 -151.1500
2914.595823 99.688 -152.3500
2935.716186 99.620 -153.4889
2956.989596 99.548 -154.5651
2978.417161 99.474 -155.5839
3000.000000 99.399 -156.5534
3021.739237 99.322 -157.4804
3043.636005 99.244 -158.3681
3065.691446 99.164 -159.2151
3087.906710 99.083 -160.0172
3110.282955 99.001 -160.7743
3132.821347 98.921 -161.4927
3155.523062 98.843 -162.1829
3178.389283 98.766 -162.8555
3201.421202 98.691 -163.5184
3224.620020 98.615 -164.1768
3247.986946 98.539 -164.8332
3271.523198 98.461 -165.4846
3295.230004 98.380 -166.1216
3319.108599 98.295 -166.7318
3343.160228 98.209 -167.3066
3367.386145 98.122 -167.8450
3391.787613 98.037 -168.3511
3416.365904 97.953 -168.8299
3441.122300 97.871 -169.2828
3466.058091 97.791 -169.7073
3491.174576 97.715 -170.1021
3516.473066 97.643 -170.4730
3541.954880 97.578 -170.8340
3567.621345 97.518 -171.2028
3593.473800 97.464 -171.5967
3619.513592 97.413 -172.0309
3645.742080 97.363 -172.5161
3672.160630 97.312 -173.0551
3698.770620 97.257 -173.6416
3725.573436 97.197 -174.2657
3752.570477 97.131 -174.9182
3779.763150 97.056 -175.5923
3807.152872 96.973 -176.2800
3834.741071 96.878 -176.9688
3862.529185 96.772 -177.6403
3890.518664 96.654 -178.2755
3918.710966 96.528 -178.8611
3947.107561 96.395 -179.3911
3975.709929 96.258 -179.8651
4004.519563 96.116 179.7132
4033.537962 95.972 179.3393
4062.766641 95.824 179.0137
4092.207123 95.673 178.7432
4121.860942 95.518 178.5356
4151.729646 95.362 178.3947
4181.814790 95.204 178.3197
4212.117944 95.046 178.3104
4242.640687 94.889 178.3717
4273.384610 94.732 178.5115
4304.351317 94.579 178.7335
4335.542421 94.432 179.0331
4366.959549 94.294 179.3973
4398.604338 94.164 179.8066
4430.478438 94.045 -179.7604
4462.583511 93.936 -179.3193
4494.921231 93.837 -178.8791
4527.493283 93.746 -178.4475
4560.301365 93.664 -178.0341
4593.347189 93.588 -177.6479
4626.632476 93.518 -177.2910
4660.158962 93.451 -176.9585
4693.928395 93.387 -176.6449
4727.942535 93.327 -176.3500
4762.203156 93.270 -176.0808
4796.712043 93.217 -175.8509
4831.470996 93.167 -175.6735
4866.481826 93.118 -175.5546
4901.746360 93.068 -175.4930
4937.266434 93.013 -175.4844
4973.043902 92.951 -175.5216
5009.080628 92.879 -175.5902
5045.378492 92.795 -175.6660
5081.939384 92.696 -175.7191
5118.765212 92.585 -175.7204
5155.857894 92.462 -175.6469
5193.219366 92.331 -175.4839
5230.851574 92.193 -175.2215
5268.756481 92.050 -174.8491
5306.936062 91.906 -174.3571
5345.392309 91.761 -173.7403
5384.127225 91.620 -172.9971
5423.142830 91.482 -172.1241
5462.441159 91.351 -171.1165
5502.024259 91.231 -169.9716
5541.894195 91.125 -168.6948
5582.053045 91.038 -167.3017
5622.502902 90.974 -165.8155
5663.245876 90.934 -164.2608
5704.284090 90.921 -162.6627
5745.619684 90.935 -161.0481
5787.254813 90.976 -159.4425
5829.191647 91.042 -157.8645
5871.432373 91.132 -156.3257
5913.979192 91.247 -154.8354
5956.834323 91.386 -153.4071
6000.000000 91.550 -152.0609
6043.478473 91.739 -150.8196
6087.272010 91.949 -149.7069
6131.382892 92.181 -148.7475
6175.813420 92.428 -147.9650
6220.565910 92.688 -147.3767
6265.642695 92.955 -146.9921
6311.046124 93.226 -146.8141
6356.778566 93.495 -146.8436
6402.842404 93.760 -147.0789
6449.240040 94.014 -147.5132
6495.973891 94.254 -148.1342
6543.046396 94.475 -148.9230
6590.460007 94.672 -149.8514
6638.217197 94.843 -150.8802
6686.320456 94.985 -151.9603
6734.772290 95.099 -153.0392
6783.575226 95.189 -154.0679
6832.731809 95.259 -155.0057
6882.244600 95.316 -155.8232
6932.116181 95.365 -156.5058
6982.349153 95.415 -157.0517
7032.946133 95.470 -157.4684
7083.909760 95.539 -157.7703
7135.242690 95.626 -157.9807
7186.947600 95.739 -158.1336
7239.027185 95.881 -158.2741
7291.484160 96.058 -158.4595
7344.321260 96.269 -158.7584
7397.541239 96.513 -159.2437
7451.146872 96.785 -159.9848
7505.140954 97.078 -161.0424
7559.526299 97.382 -162.4666
7614.305743 97.686 -164.2946
7669.482141 97.979 -166.5484
7725.058371 98.249 -169.2343
7781.037328 98.482 -172.3375
7837.421932 98.667 -175.8171
7894.215122 98.792 -179.6047
7951.419859 98.851 176.3892
8009.039125 98.838 172.2673
8067.075924 98.754 168.1349
8125.533282 98.601 164.0886
8184.414245 98.383 160.2110
8243.721885 98.106 156.5713
8303.459292 97.775 153.2270
8363.629581 97.398 150.2239
8424.235888 96.984 147.5958
8485.281374 96.541 145.3609
8546.769221 96.079 143.5180
8608.702634 95.607 142.0486
8671.084842 95.133 140.9253
8733.919097 94.662 140.1192
8797.208675 94.199 139.6048
8860.956876 93.745 139.3606
8925.167022 93.307 139.3629
8989.842461 92.886 139.5818
9054.986566 92.486 139.9836
9120.602731 92.108 140.5360
9186.694378 91.753 141.2118
9253.264952 91.421 141.9900
9320.317925 91.111 142.8503
9387.856790 90.824 143.7675
9455.885071 90.559 144.7133
9524.406312 90.314 145.6626
9593.424086 90.086 146.5991
9662.941992 89.873 147.5192
9732.963653 89.670 148.4257
9803.492719 89.478 149.3223
9874.532869 89.292 150.2133
9946.087805 89.112 151.1083
10018.161257 88.934 152.0266
10090.756983 88.758 152.9966
10163.878768 88.585 154.0443
10237.530423 88.419 155.1840
10311.715789 88.264 156.4149
10386.438732 88.125 157.7257
10461.703149 88.003 159.1016
10537.512962 87.903 160.5234
10613.872125 87.827 161.9620
10690.784618 87.776 163.3779
10768.254450 87.749 164.7265
10846.285661 87.744 165.9682
10924.882318 87.757 167.0711
11004.048518 87.783 168.0061
11083.788390 87.817 168.7453
11164.106090 87.851 169.2666
11245.005805 87.876 169.5658
11326.491752 87.883 169.6620
11408.568180 87.862 169.5952
11491.239368 87.808 169.4200
11574.509626 87.714 169.2037
11658.383294 87.576 169.0293
11742.864745 87.396 168.9935
11827.958384 87.178 169.1966
11913.668646 86.933 169.7271
12000.000000 86.676 170.6484
12086.956947 86.425 171.9908
12174.544019 86.201 173.7417
12262.765784 86.024 175.8349
12351.626840 85.911 178.1464
12441.131819 85.871 -179.4899
12531.285389 85.905 -177.2534
12622.092249 86.005 -175.3083
12713.557132 86.156 -173.7869
12805.684808 86.339 -172.7784
12898.480079 86.530 -172.3212
12991.947783 86.707 -172.4008
13086.092792 86.850 -172.9594
13180.920015 86.943 -173.9110
13276.434395 86.972 -175.1505
13372.640911 86.932 -176.5600
13469.544580 86.818 -178.0185
13567.150452 86.634 -179.4144
13665.463617 86.386 179.3444
13764.489200 86.082 178.3294
13864.232362 85.730 177.5941
13964.698305 85.342 177.1726
14065.892266 84.925 177.0815
14167.819519 84.489 177.3289
14270.485380 84.039 177.9256
14373.895200 83.583 178.8846
14478.054370 83.128 -179.7860
14582.968320 82.682 -178.0858
14688.642520 82.251 -176.0100
14795.082478 81.845 -173.5326
14902.293745 81.477 -170.5953
15010.281908 81.167 -167.1079
15119.052599 80.951 -162.9688
15228.611486 80.879 -158.1268
15338.964283 81.007 -152.6938
15450.116741 81.375 -147.0744
15562.074656 81.979 -141.9885
15674.843864 82.756 -138.2307
15788.430244 83.610 -136.2694
15902.839718 84.453 -136.0609
16018.078250 85.230 -137.2420
16134.151848 85.920 -139.4237
16251.066563 86.516 -142.3300
16368.828491 87.025 -145.8069
16487.443769 87.451 -149.7789
16606.918584 87.802 -154.2059
16727.259161 88.081 -159.0605
16848.471777 88.289 -164.3213
16970.562748 88.424 -169.9735
17093.538442 88.479 -176.0031
17217.405268 88.442 177.6193
17342.169684 88.295 170.9518
17467.838194 88.019 164.0938
17594.417350 87.597 157.1935
17721.913751 87.016 150.4436
17850.334044 86.270 144.0609
17979.684923 85.365 138.2600
18109.973131 84.314 133.2306
18241.205462 83.139 129.1201
18373.388756 81.865 126.0253
18506.529905 80.520 123.9922
18640.635849 79.133 123.0160
18775.713581 77.734 123.0426
18911.770141 76.348 123.9748
19048.812624 74.998 125.6822
19186.848172 73.702 128.0119
19325.883983 72.478 130.7986
19465.927305 71.344 133.8633
19606.985439 70.329 136.9954
19749.065738 69.479 139.9170
19892.175609 68.856 142.2556
20036.322514 68.525 143.5839
