* Measurement data measured by REW V5.31.3
* Source: EXCL: Microphone (USB Sound Device        ), MICROPHONE (Master Volume), R, volume: 0.390
* Format: 256k Log Swept Sine, 1 sweep at -17.0 dBFS with no timing reference
* Dated: Jun 21, 2025 11:46:28 PM
* REW Settings:
*  C-weighting compensation: Off
*  Target level: 75.0 dB
* Note: KZ Vader Pro 1000
* Measurement: L KZ Vader Pro 1000
* Smoothing: 1/12 octave
* Frequency Step: 96 ppo
* Start Frequency: 0.36621094 Hz
*
* Freq(Hz) SPL(dB) Phase(degrees)
0.366211 94.873 156.5031
0.368865 94.867 156.4787
0.371538 94.858 156.4422
0.374230 94.848 156.3963
0.376942 94.836 156.3434
0.379673 94.823 156.2852
0.382424 94.809 156.2229
0.385196 94.795 156.1572
0.387987 94.781 156.0885
0.390798 94.767 156.0169
0.393630 94.752 155.9427
0.396483 94.737 155.8657
0.399356 94.723 155.7862
0.402250 94.708 155.7039
0.405165 94.693 155.6190
0.408101 94.678 155.5313
0.411058 94.663 155.4409
0.414037 94.647 155.3477
0.417037 94.632 155.2518
0.420059 94.616 155.1530
0.423103 94.601 155.0514
0.426169 94.585 154.9469
0.429257 94.569 154.8396
0.432368 94.553 154.7293
0.435501 94.537 154.6160
0.438656 94.521 154.4998
0.441835 94.505 154.3806
0.445037 94.488 154.2584
0.448262 94.472 154.1332
0.451510 94.455 154.0048
0.454782 94.438 153.8734
0.458077 94.421 153.7389
0.461397 94.404 153.6013
0.464740 94.387 153.4606
0.468108 94.370 153.3166
0.471500 94.352 153.1695
0.474917 94.335 153.0192
0.478358 94.317 152.8657
0.481825 94.299 152.7090
0.485316 94.281 152.5490
0.488833 94.263 152.3857
0.492375 94.245 152.2193
0.495943 94.227 152.0495
0.499537 94.208 151.8764
0.503157 94.190 151.7001
0.506803 94.171 151.5205
0.510475 94.152 151.3376
0.514175 94.133 151.1514
0.517900 94.114 150.9620
0.521653 94.095 150.7692
0.525434 94.076 150.5732
0.529241 94.056 150.3738
0.533076 94.036 150.1713
0.536939 94.016 149.9655
0.540830 93.996 149.7564
0.544749 93.976 149.5442
0.548696 93.956 149.3287
0.552673 93.936 149.1101
0.556677 93.915 148.8884
0.560711 93.894 148.6635
0.564774 93.874 148.4356
0.568867 93.853 148.2047
0.572989 93.831 147.9707
0.577141 93.810 147.7339
0.581324 93.789 147.4942
0.585536 93.767 147.2516
0.589779 93.745 147.0063
0.594053 93.723 146.7582
0.598358 93.701 146.5076
0.602694 93.679 146.2543
0.607061 93.657 145.9987
0.611460 93.634 145.7406
0.615891 93.611 145.4803
0.620354 93.588 145.2177
0.624849 93.565 144.9531
0.629377 93.542 144.6865
0.633938 93.519 144.4181
0.638532 93.495 144.1480
0.643159 93.471 143.8763
0.647819 93.447 143.6031
0.652514 93.423 143.3287
0.657242 93.399 143.0531
0.662005 93.375 142.7766
0.666802 93.350 142.4993
0.671634 93.325 142.2215
0.676501 93.300 141.9433
0.681403 93.275 141.6648
0.686341 93.250 141.3864
0.691314 93.224 141.1083
0.696324 93.198 140.8306
0.701370 93.172 140.5536
0.706452 93.146 140.2774
0.711571 93.118 140.0020
0.716728 93.091 139.7276
0.721921 93.062 139.4538
0.727153 93.031 139.1801
0.732422 92.999 138.9057
0.737729 92.965 138.6296
0.743075 92.928 138.3507
0.748460 92.890 138.0680
0.753883 92.851 137.7807
0.759346 92.810 137.4883
0.764849 92.769 137.1905
0.770391 92.727 136.8870
0.775974 92.685 136.5776
0.781597 92.642 136.2623
0.787261 92.598 135.9408
0.792966 92.554 135.6132
0.798712 92.510 135.2794
0.804500 92.464 134.9393
0.810329 92.418 134.5929
0.816201 92.372 134.2401
0.822116 92.325 133.8809
0.828073 92.277 133.5153
0.834074 92.228 133.1432
0.840118 92.179 132.7646
0.846206 92.129 132.3795
0.852338 92.078 131.9879
0.858514 92.026 131.5897
0.864735 91.974 131.1851
0.871001 91.920 130.7740
0.877313 91.866 130.3565
0.883670 91.810 129.9326
0.890074 91.754 129.5024
0.896524 91.696 129.0660
0.903020 91.638 128.6234
0.909564 91.578 128.1747
0.916155 91.517 127.7202
0.922794 91.455 127.2598
0.929481 91.391 126.7939
0.936216 91.326 126.3226
0.943000 91.260 125.8462
0.949834 91.192 125.3648
0.956717 91.123 124.8787
0.963649 91.053 124.3883
0.970632 90.980 123.8938
0.977666 90.906 123.3957
0.984750 90.831 122.8944
0.991886 90.753 122.3902
0.999074 90.674 121.8838
1.006314 90.593 121.3755
1.013606 90.510 120.8660
1.020951 90.425 120.3558
1.028349 90.338 119.8458
1.035801 90.248 119.3365
1.043307 90.157 118.8287
1.050867 90.063 118.3232
1.058482 89.967 117.8209
1.066152 89.868 117.3225
1.073878 89.768 116.8287
1.081660 89.666 116.3402
1.089498 89.562 115.8572
1.097393 89.457 115.3797
1.105345 89.352 114.9074
1.113355 89.248 114.4395
1.121423 89.145 113.9754
1.129549 89.043 113.5144
1.137734 88.944 113.0557
1.145979 88.846 112.5991
1.154283 88.749 112.1438
1.162647 88.653 111.6897
1.171072 88.559 111.2361
1.179558 88.465 110.7829
1.188106 88.370 110.3295
1.196715 88.276 109.8757
1.205387 88.180 109.4209
1.214122 88.082 108.9648
1.222920 87.983 108.5069
1.231782 87.881 108.0469
1.240708 87.775 107.5841
1.249699 87.666 107.1182
1.258754 87.553 106.6486
1.267876 87.434 106.1748
1.277063 87.309 105.6963
1.286318 87.178 105.2125
1.295639 87.040 104.7228
1.305027 86.894 104.2266
1.314484 86.739 103.7233
1.324009 86.574 103.2123
1.333604 86.399 102.6929
1.343268 86.213 102.1644
1.353002 86.015 101.6263
1.362806 85.804 101.0778
1.372681 85.578 100.5184
1.382628 85.338 99.9474
1.392647 85.082 99.3643
1.402739 84.809 98.7687
1.412904 84.517 98.1603
1.423142 84.206 97.5390
1.433455 83.874 96.9053
1.443843 83.517 96.2596
1.454305 83.134 95.6034
1.464844 82.721 94.9383
1.475459 82.274 94.2662
1.486150 81.788 93.5890
1.496920 81.261 92.9080
1.507767 80.691 92.2237
1.518693 80.077 91.5362
1.529698 79.420 90.8447
1.540783 78.721 90.1484
1.551948 77.983 89.4457
1.563194 77.208 88.7350
1.574521 76.398 88.0142
1.585931 75.557 87.2807
1.597423 74.689 86.5315
1.608999 73.797 85.7630
1.620658 72.885 84.9707
1.632402 71.959 84.1494
1.644232 71.021 83.2921
1.656146 70.078 82.3907
1.668147 69.136 81.4345
1.680235 68.199 80.4096
1.692411 67.275 79.2981
1.704675 66.371 78.0757
1.717028 65.494 76.7092
1.729470 64.653 75.1520
1.742003 63.859 73.3365
1.754626 63.121 71.1610
1.767341 62.451 68.4663
1.780147 61.862 64.9887
1.793047 61.368 60.2620
1.806040 60.981 53.3950
1.819128 60.715 42.5507
1.832310 60.580 24.0194
1.845587 60.582 -6.0255
1.858961 60.723 -38.7231
1.872432 60.998 -60.7219
1.886001 61.400 -73.6460
1.899667 61.918 -81.7941
1.913433 62.540 -87.4458
1.927299 63.254 -91.6813
1.941265 64.045 -95.0439
1.955332 64.901 -97.8287
1.969501 65.809 -100.2080
1.983773 66.756 -102.2882
1.998148 67.730 -104.1385
2.012627 68.721 -105.8056
2.027212 69.716 -107.3224
2.041902 70.705 -108.7124
2.056698 71.678 -109.9931
2.071602 72.626 -111.1776
2.086614 73.539 -112.2763
2.101734 74.408 -113.2978
2.116964 75.226 -114.2496
2.132304 75.986 -115.1390
2.147756 76.682 -115.9741
2.163320 77.311 -116.7651
2.178996 77.873 -117.5242
2.194786 78.369 -118.2669
2.210690 78.805 -119.0099
2.226710 79.188 -119.7687
2.242845 79.522 -120.5541
2.259098 79.812 -121.3719
2.275468 80.063 -122.2235
2.291957 80.278 -123.1066
2.308566 80.459 -124.0174
2.325295 80.608 -124.9506
2.342145 80.729 -125.9003
2.359117 80.823 -126.8602
2.376212 80.894 -127.8240
2.393431 80.943 -128.7852
2.410775 80.974 -129.7372
2.428244 80.990 -130.6736
2.445840 80.993 -131.5880
2.463564 80.988 -132.4745
2.481416 80.976 -133.3279
2.499397 80.961 -134.1441
2.517509 80.946 -134.9214
2.535752 80.930 -135.6611
2.554127 80.915 -136.3687
2.572635 80.899 -137.0531
2.591277 80.880 -137.7260
2.610055 80.856 -138.3982
2.628968 80.824 -139.0776
2.648019 80.782 -139.7689
2.667208 80.729 -140.4736
2.686535 80.665 -141.1910
2.706003 80.589 -141.9181
2.725612 80.501 -142.6507
2.745363 80.399 -143.3829
2.765257 80.284 -144.1078
2.785295 80.156 -144.8170
2.805478 80.013 -145.5009
2.825808 79.857 -146.1488
2.846285 79.685 -146.7491
2.866910 79.497 -147.2900
2.887685 79.291 -147.7603
2.908611 79.065 -148.1505
2.929688 78.815 -148.4539
2.950917 78.538 -148.6667
2.972301 78.232 -148.7867
2.993839 77.895 -148.8112
3.015534 77.528 -148.7356
3.037386 77.132 -148.5523
3.059396 76.714 -148.2503
3.081565 76.278 -147.8156
3.103896 75.830 -147.2305
3.126388 75.379 -146.4734
3.149043 74.933 -145.5192
3.171862 74.501 -144.3383
3.194847 74.094 -142.8972
3.217998 73.722 -141.1579
3.241317 73.395 -139.0784
3.264805 73.121 -136.6130
3.288463 72.909 -133.7134
3.312293 72.760 -130.3336
3.336295 72.674 -126.4396
3.360471 72.650 -122.0272
3.384822 72.682 -117.1386
3.409350 72.765 -111.8734
3.434056 72.893 -106.3863
3.458940 73.060 -100.8693
3.484005 73.261 -95.5205
3.509252 73.489 -90.5119
3.534681 73.739 -85.9676
3.560295 74.007 -81.9567
3.586094 74.290 -78.5004
3.612081 74.586 -75.5837
3.638255 74.895 -73.1689
3.664620 75.220 -71.2061
3.691175 75.562 -69.6406
3.717923 75.923 -68.4183
3.744864 76.304 -67.4892
3.772001 76.701 -66.8080
3.799335 77.110 -66.3350
3.826866 77.524 -66.0356
3.854597 77.937 -65.8803
3.882529 78.344 -65.8447
3.910664 78.736 -65.9092
3.939002 79.110 -66.0593
3.967546 79.460 -66.2851
3.996296 79.783 -66.5818
4.025255 80.077 -66.9486
4.054423 80.344 -67.3868
4.083804 80.584 -67.8968
4.113396 80.800 -68.4750
4.143204 80.993 -69.1135
4.173227 81.165 -69.8009
4.203468 81.319 -70.5242
4.233928 81.455 -71.2695
4.264609 81.576 -72.0241
4.295512 81.682 -72.7774
4.326639 81.775 -73.5217
4.357992 81.855 -74.2543
4.389572 81.921 -74.9771
4.421380 81.975 -75.6958
4.453419 82.014 -76.4171
4.485691 82.038 -77.1449
4.518196 82.048 -77.8781
4.550936 82.044 -78.6113
4.583914 82.026 -79.3352
4.617131 81.995 -80.0380
4.650589 81.952 -80.7068
4.684289 81.897 -81.3292
4.718233 81.831 -81.8950
4.752424 81.753 -82.3971
4.786862 81.663 -82.8329
4.821549 81.560 -83.2026
4.856488 81.445 -83.5070
4.891680 81.319 -83.7456
4.927127 81.183 -83.9159
4.962831 81.040 -84.0128
4.998794 80.892 -84.0293
5.035017 80.742 -83.9565
5.071503 80.591 -83.7844
5.108253 80.441 -83.5021
5.145270 80.293 -83.0996
5.182555 80.146 -82.5696
5.220110 80.001 -81.9094
5.257937 79.860 -81.1226
5.296038 79.725 -80.2184
5.334415 79.599 -79.2114
5.373071 79.486 -78.1192
5.412006 79.391 -76.9612
5.451224 79.317 -75.7549
5.490725 79.267 -74.5153
5.530514 79.242 -73.2541
5.570590 79.243 -71.9835
5.610957 79.267 -70.7200
5.651616 79.312 -69.4855
5.692570 79.375 -68.3053
5.733821 79.453 -67.2056
5.775370 79.543 -66.2096
5.817221 79.643 -65.3357
5.859375 79.753 -64.5949
5.901834 79.870 -63.9910
5.944602 79.996 -63.5221
5.987679 80.127 -63.1832
6.031068 80.261 -62.9682
6.074771 80.395 -62.8711
6.118792 80.526 -62.8868
6.163131 80.650 -63.0118
6.207792 80.764 -63.2437
6.252776 80.869 -63.5805
6.298086 80.962 -64.0184
6.343725 81.045 -64.5494
6.389694 81.117 -65.1616
6.435996 81.177 -65.8407
6.482634 81.225 -66.5723
6.529610 81.261 -67.3447
6.576926 81.284 -68.1506
6.624585 81.293 -68.9866
6.672590 81.289 -69.8514
6.720942 81.272 -70.7411
6.769645 81.243 -71.6480
6.818700 81.202 -72.5609
6.868111 81.150 -73.4671
6.917881 81.088 -74.3549
6.968010 81.017 -75.2161
7.018504 80.936 -76.0464
7.069362 80.847 -76.8437
7.120590 80.752 -77.6055
7.172189 80.651 -78.3280
7.224161 80.547 -79.0051
7.276511 80.443 -79.6300
7.329239 80.339 -80.1966
7.382350 80.238 -80.7011
7.435845 80.141 -81.1442
7.489729 80.048 -81.5305
7.544002 79.964 -81.8676
7.598669 79.889 -82.1643
7.653732 79.827 -82.4286
7.709194 79.779 -82.6670
7.765058 79.747 -82.8859
7.821327 79.729 -83.0940
7.878004 79.728 -83.3040
7.935091 79.741 -83.5310
7.992592 79.769 -83.7905
8.050510 79.812 -84.0947
8.108847 79.869 -84.4515
8.167607 79.939 -84.8653
8.226793 80.021 -85.3391
8.286408 80.111 -85.8757
8.346454 80.209 -86.4777
8.406936 80.311 -87.1467
8.467856 80.417 -87.8819
8.529218 80.525 -88.6790
8.591024 80.634 -89.5307
8.653278 80.743 -90.4278
8.715983 80.849 -91.3611
8.779143 80.953 -92.3227
8.842760 81.054 -93.3055
8.906839 81.150 -94.3020
8.971381 81.242 -95.3027
9.036392 81.330 -96.2966
9.101873 81.414 -97.2729
9.167829 81.494 -98.2227
9.234263 81.571 -99.1396
9.301178 81.644 -100.0182
9.368578 81.715 -100.8529
9.436467 81.785 -101.6383
9.504847 81.854 -102.3692
9.573723 81.924 -103.0428
9.643099 81.996 -103.6584
9.712976 82.069 -104.2174
9.783361 82.145 -104.7223
9.854255 82.226 -105.1759
9.925663 82.310 -105.5817
9.997588 82.400 -105.9439
10.070035 82.494 -106.2682
10.143007 82.593 -106.5613
10.216507 82.696 -106.8301
10.290540 82.804 -107.0805
10.365109 82.915 -107.3172
10.440219 83.029 -107.5444
10.515873 83.145 -107.7661
10.592076 83.262 -107.9854
10.668830 83.379 -108.2045
10.746141 83.495 -108.4240
10.824012 83.609 -108.6433
10.902447 83.722 -108.8610
10.981451 83.831 -109.0754
11.061027 83.937 -109.2847
11.141180 84.040 -109.4866
11.221913 84.139 -109.6784
11.303232 84.234 -109.8574
11.385140 84.325 -110.0216
11.467641 84.413 -110.1695
11.550741 84.498 -110.3003
11.634442 84.580 -110.4141
11.718750 84.660 -110.5110
11.803669 84.738 -110.5922
11.889203 84.814 -110.6594
11.975357 84.888 -110.7154
12.062136 84.961 -110.7629
12.149543 85.033 -110.8047
12.237583 85.103 -110.8437
12.326262 85.171 -110.8823
12.415583 85.237 -110.9232
12.505552 85.300 -110.9681
12.596172 85.361 -111.0182
12.687449 85.419 -111.0739
12.779387 85.474 -111.1352
12.871992 85.525 -111.2014
12.965268 85.572 -111.2718
13.059220 85.616 -111.3451
13.153852 85.656 -111.4199
13.249170 85.692 -111.4950
13.345179 85.726 -111.5699
13.441884 85.757 -111.6444
13.539289 85.785 -111.7189
13.637401 85.812 -111.7945
13.736223 85.838 -111.8731
13.835761 85.863 -111.9574
13.936021 85.888 -112.0504
14.037007 85.912 -112.1554
14.138725 85.936 -112.2760
14.241180 85.960 -112.4155
14.344377 85.983 -112.5768
14.448323 86.006 -112.7620
14.553021 86.028 -112.9724
14.658478 86.048 -113.2084
14.764700 86.067 -113.4695
14.871691 86.083 -113.7541
14.979457 86.098 -114.0600
15.088005 86.111 -114.3844
15.197339 86.122 -114.7243
15.307465 86.132 -115.0767
15.418389 86.141 -115.4386
15.530117 86.150 -115.8080
15.642655 86.159 -116.1834
15.756008 86.170 -116.5640
15.870182 86.182 -116.9500
15.985184 86.197 -117.3424
16.101019 86.215 -117.7427
16.217694 86.237 -118.1528
16.335214 86.262 -118.5744
16.453586 86.290 -119.0091
16.572815 86.322 -119.4581
16.692909 86.357 -119.9214
16.813872 86.395 -120.3985
16.935713 86.435 -120.8877
17.058436 86.477 -121.3867
17.182048 86.521 -121.8922
17.306556 86.566 -122.4009
17.431967 86.613 -122.9090
17.558286 86.661 -123.4130
17.685521 86.710 -123.9097
17.813677 86.761 -124.3965
17.942762 86.813 -124.8714
18.072783 86.867 -125.3328
18.203746 86.923 -125.7799
18.335658 86.980 -126.2119
18.468526 87.038 -126.6285
18.602356 87.097 -127.0293
18.737156 87.157 -127.4138
18.872934 87.218 -127.7814
19.009695 87.279 -128.1315
19.147447 87.339 -128.4633
19.286197 87.400 -128.7767
19.425953 87.461 -129.0716
19.566721 87.521 -129.3489
19.708510 87.581 -129.6100
19.851326 87.641 -129.8572
19.995177 87.701 -130.0932
20.140070 87.760 -130.3214
20.286013 87.818 -130.5448
20.433014 87.875 -130.7661
20.581080 87.929 -130.9872
20.730219 87.981 -131.2089
20.880439 88.029 -131.4309
21.031747 88.073 -131.6515
21.184152 88.113 -131.8685
21.337661 88.149 -132.0791
21.492282 88.181 -132.2807
21.648024 88.210 -132.4714
21.804895 88.236 -132.6507
21.962902 88.260 -132.8197
22.122054 88.284 -132.9816
22.282360 88.308 -133.1411
22.443827 88.332 -133.3043
22.606464 88.358 -133.4782
22.770280 88.384 -133.6696
22.935283 88.411 -133.8844
23.101481 88.438 -134.1274
23.268884 88.464 -134.4011
23.437500 88.490 -134.7061
23.607338 88.513 -135.0407
23.778406 88.534 -135.4017
23.950714 88.553 -135.7845
24.124271 88.570 -136.1840
24.299086 88.584 -136.5949
24.475167 88.597 -137.0125
24.652524 88.610 -137.4328
24.831166 88.623 -137.8532
25.011103 88.637 -138.2720
25.192344 88.652 -138.6886
25.374898 88.670 -139.1033
25.558775 88.690 -139.5170
25.743984 88.713 -139.9306
25.930536 88.739 -140.3449
26.118439 88.767 -140.7606
26.307704 88.797 -141.1773
26.498341 88.830 -141.5944
26.690359 88.863 -142.0102
26.883768 88.898 -142.4229
27.078579 88.934 -142.8301
27.274801 88.969 -143.2294
27.472446 89.005 -143.6189
27.671522 89.041 -143.9967
27.872042 89.077 -144.3617
28.074014 89.113 -144.7136
28.277450 89.148 -145.0525
28.482360 89.183 -145.3793
28.688755 89.218 -145.6954
28.896645 89.251 -146.0023
29.106042 89.284 -146.3021
29.316957 89.316 -146.5967
29.529400 89.345 -146.8878
29.743382 89.373 -147.1768
29.958915 89.399 -147.4644
30.176009 89.422 -147.7509
30.394677 89.443 -148.0356
30.614929 89.461 -148.3176
30.836778 89.477 -148.5961
31.060234 89.492 -148.8710
31.285309 89.505 -149.1430
31.512015 89.518 -149.4147
31.740364 89.532 -149.6898
31.970368 89.546 -149.9730
32.202039 89.561 -150.2690
32.435388 89.576 -150.5814
32.670428 89.592 -150.9119
32.907171 89.607 -151.2599
33.145630 89.621 -151.6228
33.385817 89.635 -151.9965
33.627745 89.648 -152.3765
33.871425 89.661 -152.7591
34.116871 89.674 -153.1422
34.364096 89.688 -153.5249
34.613113 89.703 -153.9075
34.863934 89.720 -154.2906
35.116572 89.737 -154.6740
35.371041 89.755 -155.0566
35.627354 89.773 -155.4366
35.885525 89.791 -155.8119
36.145566 89.810 -156.1808
36.407492 89.828 -156.5427
36.671316 89.847 -156.8984
36.937051 89.866 -157.2488
37.204712 89.884 -157.5950
37.474313 89.902 -157.9371
37.745867 89.918 -158.2741
38.019389 89.933 -158.6043
38.294893 89.947 -158.9263
38.572394 89.960 -159.2399
38.851905 89.973 -159.5464
39.133442 89.985 -159.8491
39.417019 89.997 -160.1520
39.702651 90.009 -160.4588
39.990353 90.021 -160.7715
40.280140 90.031 -161.0902
40.572026 90.041 -161.4132
40.866028 90.050 -161.7388
41.162160 90.058 -162.0663
41.460438 90.066 -162.3972
41.760877 90.076 -162.7351
42.063494 90.085 -163.0843
42.368303 90.094 -163.4474
42.675322 90.102 -163.8244
42.984565 90.108 -164.2110
43.296048 90.112 -164.6006
43.609789 90.113 -164.9858
43.925804 90.112 -165.3613
44.244108 90.111 -165.7253
44.564719 90.110 -166.0792
44.887654 90.110 -166.4265
45.212928 90.110 -166.7701
45.540560 90.109 -167.1110
45.870565 90.109 -167.4484
46.202962 90.109 -167.7807
46.537768 90.109 -168.1073
46.875000 90.110 -168.4301
47.214676 90.113 -168.7529
47.556813 90.117 -169.0808
47.901429 90.122 -169.4178
48.248542 90.127 -169.7656
48.598171 90.131 -170.1235
48.950334 90.135 -170.4889
49.305048 90.138 -170.8580
49.662333 90.139 -171.2273
50.022206 90.139 -171.5937
50.384688 90.138 -171.9545
50.749796 90.136 -172.3080
51.117550 90.133 -172.6532
51.487969 90.131 -172.9901
51.861072 90.128 -173.3197
52.236879 90.126 -173.6439
52.615409 90.123 -173.9645
52.996681 90.120 -174.2834
53.380717 90.118 -174.6015
53.767536 90.115 -174.9201
54.157158 90.111 -175.2404
54.549603 90.108 -175.5636
54.944892 90.104 -175.8907
55.343045 90.100 -176.2220
55.744084 90.095 -176.5570
56.148028 90.090 -176.8952
56.554900 90.085 -177.2371
56.964720 90.081 -177.5836
57.377510 90.076 -177.9360
57.793291 90.071 -178.2939
58.212085 90.065 -178.6546
58.633914 90.059 -179.0148
59.058799 90.052 -179.3713
59.486764 90.044 -179.7239
59.917829 90.037 179.9258
60.352019 90.029 179.5750
60.789354 90.021 179.2225
61.229859 90.011 178.8690
61.673556 90.001 178.5164
62.120468 89.988 178.1672
62.570618 89.975 177.8226
63.024031 89.961 177.4830
63.480729 89.946 177.1473
63.940736 89.931 176.8140
64.404077 89.917 176.4809
64.870776 89.902 176.1464
65.340856 89.888 175.8097
65.814343 89.873 175.4716
66.291261 89.857 175.1334
66.771635 89.842 174.7966
67.255489 89.826 174.4619
67.742850 89.810 174.1289
68.233743 89.793 173.7975
68.728193 89.776 173.4674
69.226226 89.759 173.1389
69.727867 89.741 172.8121
70.233144 89.722 172.4868
70.742083 89.703 172.1630
71.254709 89.683 171.8406
71.771050 89.662 171.5203
72.291132 89.641 171.2033
72.814984 89.620 170.8898
73.342631 89.598 170.5794
73.874102 89.577 170.2707
74.409424 89.556 169.9623
74.948626 89.535 169.6539
75.491734 89.514 169.3455
76.038779 89.493 169.0378
76.589787 89.471 168.7314
77.144788 89.450 168.4268
77.703811 89.429 168.1235
78.266885 89.407 167.8207
78.834039 89.387 167.5164
79.405303 89.367 167.2076
79.980706 89.347 166.8907
80.560280 89.327 166.5635
81.144053 89.305 166.2256
81.732056 89.283 165.8782
82.324320 89.258 165.5238
82.920876 89.231 165.1656
83.521755 89.202 164.8074
84.126988 89.170 164.4525
84.736607 89.137 164.1035
85.350643 89.103 163.7613
85.969129 89.067 163.4254
86.592097 89.031 163.0943
87.219579 88.995 162.7671
87.851608 88.958 162.4435
88.488217 88.920 162.1243
89.129439 88.882 161.8111
89.775308 88.842 161.5066
90.425856 88.802 161.2136
91.081119 88.761 160.9330
91.741131 88.721 160.6625
92.405925 88.681 160.3959
93.075536 88.642 160.1249
93.750000 88.602 159.8439
94.429351 88.562 159.5546
95.113625 88.519 159.2625
95.802858 88.477 158.9724
96.497085 88.434 158.6853
97.196342 88.391 158.4014
97.900667 88.349 158.1218
98.610096 88.308 157.8486
99.324665 88.267 157.5836
100.044413 88.227 157.3279
100.769376 88.188 157.0814
101.499592 88.149 156.8431
102.235100 88.110 156.6111
102.975938 88.072 156.3823
103.722144 88.034 156.1522
104.473757 87.996 155.9161
105.230817 87.957 155.6710
105.993363 87.917 155.4163
106.761435 87.877 155.1530
107.535072 87.836 154.8820
108.314315 87.793 154.6027
109.099206 87.750 154.3147
109.889783 87.706 154.0177
110.686090 87.661 153.7125
111.488167 87.614 153.4010
112.296056 87.564 153.0860
113.109800 87.512 152.7711
113.929440 87.456 152.4614
114.755020 87.397 152.1627
115.586582 87.334 151.8814
116.424170 87.269 151.6226
117.267827 87.201 151.3891
118.117598 87.134 151.1802
118.973527 87.068 150.9909
119.835658 87.005 150.8106
120.704037 86.944 150.6266
121.578708 86.886 150.4314
122.459718 86.829 150.2255
123.347111 86.772 150.0141
124.240935 86.715 149.8021
125.141236 86.657 149.5921
126.048061 86.599 149.3857
126.961458 86.539 149.1837
127.881473 86.478 148.9868
128.808154 86.416 148.7944
129.741551 86.353 148.6052
130.681712 86.290 148.4171
131.628686 86.226 148.2290
132.582521 86.160 148.0403
133.543269 86.094 147.8516
134.510979 86.026 147.6642
135.485701 85.956 147.4797
136.467486 85.885 147.2997
137.456386 85.811 147.1265
138.452451 85.736 146.9625
139.455735 85.660 146.8088
140.466288 85.583 146.6648
141.484165 85.506 146.5279
142.509418 85.429 146.3961
143.542100 85.350 146.2678
144.582265 85.272 146.1426
145.629968 85.192 146.0204
146.685262 85.110 145.9024
147.748204 85.028 145.7913
148.818849 84.943 145.6904
149.897251 84.858 145.6030
150.983469 84.771 145.5327
152.077557 84.684 145.4824
153.179574 84.596 145.4535
154.289576 84.509 145.4433
155.407622 84.423 145.4461
156.533770 84.337 145.4550
157.668078 84.251 145.4647
158.810606 84.165 145.4733
159.961413 84.079 145.4801
161.120559 83.993 145.4854
162.288105 83.905 145.4905
163.464112 83.818 145.4973
164.648640 83.730 145.5078
165.841752 83.641 145.5247
167.043510 83.551 145.5532
168.253976 83.460 145.6003
169.473213 83.367 145.6735
170.701286 83.274 145.7752
171.938258 83.181 145.9007
173.184194 83.089 146.0410
174.439158 82.997 146.1874
175.703216 82.907 146.3340
176.976434 82.818 146.4781
178.258878 82.730 146.6206
179.550615 82.641 146.7631
180.851713 82.551 146.9069
182.162239 82.461 147.0531
183.482262 82.372 147.2031
184.811850 82.286 147.3615
186.151073 82.206 147.5363
187.500000 82.131 147.7349
188.858702 82.060 147.9576
190.227250 81.990 148.1969
191.605715 81.914 148.4432
192.994169 81.827 148.6956
194.392685 81.726 148.9692
195.801334 81.614 149.2836
197.220191 81.499 149.6417
198.649330 81.385 150.0289
200.088825 81.277 150.4338
201.538751 81.175 150.8524
202.999184 81.078 151.2828
204.470200 80.985 151.7202
205.951875 80.896 152.1584
207.444287 80.809 152.5938
208.947514 80.722 153.0272
210.461634 80.637 153.4634
211.986726 80.551 153.9080
213.522869 80.464 154.3652
215.070144 80.379 154.8396
216.628631 80.294 155.3373
218.198411 80.212 155.8639
219.779567 80.133 156.4211
221.372180 80.057 157.0045
222.976334 79.984 157.6066
224.592112 79.913 158.2221
226.219600 79.842 158.8480
227.858880 79.773 159.4818
229.510039 79.705 160.1219
231.173164 79.640 160.7681
232.848340 79.578 161.4202
234.535655 79.519 162.0773
236.235197 79.462 162.7380
237.947054 79.408 163.4016
239.671317 79.356 164.0687
241.408074 79.306 164.7403
243.157416 79.257 165.4186
244.919435 79.209 166.1063
246.694223 79.164 166.8063
248.481871 79.120 167.5218
250.282473 79.080 168.2561
252.096123 79.043 169.0111
253.922915 79.012 169.7853
255.762945 78.986 170.5709
257.616309 78.965 171.3542
259.483103 78.950 172.1214
261.363424 78.938 172.8647
263.257372 78.928 173.5858
265.165043 78.919 174.2921
267.086538 78.910 174.9916
269.021957 78.904 175.6903
270.971401 78.899 176.3913
272.934972 78.897 177.0958
274.912771 78.899 177.8034
276.904902 78.904 178.5123
278.911469 78.914 179.2190
280.932577 78.927 179.9196
282.968330 78.944 -179.3908
285.018835 78.964 -178.7188
287.084199 78.988 -178.0719
289.164530 79.015 -177.4563
291.259935 79.043 -176.8735
293.370525 79.071 -176.3186
295.496408 79.097 -175.7820
297.637697 79.121 -175.2537
299.794503 79.143 -174.7268
301.966937 79.166 -174.1989
304.155114 79.189 -173.6713
306.359147 79.214 -173.1480
308.579152 79.240 -172.6338
310.815244 79.267 -172.1329
313.067539 79.296 -171.6467
315.336156 79.325 -171.1730
317.621211 79.353 -170.7058
319.922826 79.382 -170.2389
322.241118 79.412 -169.7702
324.576210 79.442 -169.3024
326.928223 79.474 -168.8401
329.297280 79.507 -168.3876
331.683504 79.541 -167.9477
334.087019 79.576 -167.5226
336.507952 79.612 -167.1129
338.946427 79.648 -166.7183
341.402572 79.684 -166.3371
343.876516 79.720 -165.9673
346.368387 79.755 -165.6065
348.878315 79.790 -165.2529
351.406431 79.825 -164.9052
353.952867 79.859 -164.5633
356.517756 79.894 -164.2273
359.101230 79.928 -163.8976
361.703426 79.962 -163.5743
364.324478 79.996 -163.2568
366.964523 80.030 -162.9446
369.623699 80.063 -162.6377
372.302145 80.096 -162.3367
375.000000 80.128 -162.0421
377.717405 80.161 -161.7543
380.454501 80.192 -161.4731
383.211431 80.224 -161.1979
385.988339 80.255 -160.9279
388.785369 80.286 -160.6622
391.602668 80.317 -160.3997
394.440383 80.348 -160.1393
397.298660 80.379 -159.8808
400.177650 80.409 -159.6250
403.077502 80.440 -159.3743
405.998368 80.470 -159.1305
408.940400 80.500 -158.8950
411.903750 80.529 -158.6665
414.888575 80.556 -158.4419
417.895028 80.582 -158.2172
420.923268 80.608 -157.9887
423.973452 80.634 -157.7542
427.045738 80.660 -157.5145
430.140287 80.687 -157.2732
433.257261 80.715 -157.0349
436.396822 80.744 -156.8024
439.559133 80.774 -156.5762
442.744360 80.804 -156.3565
445.952668 80.835 -156.1453
449.184225 80.866 -155.9481
452.439199 80.898 -155.7710
455.717760 80.928 -155.6168
459.020079 80.955 -155.4814
462.346327 80.978 -155.3541
465.696680 80.997 -155.2230
469.071310 81.014 -155.0805
472.470394 81.030 -154.9252
475.894109 81.045 -154.7601
479.342634 81.061 -154.5900
482.816148 81.076 -154.4189
486.314833 81.090 -154.2479
489.838871 81.103 -154.0726
493.388445 81.115 -153.8859
496.963741 81.127 -153.6846
500.564945 81.139 -153.4721
504.192245 81.153 -153.2559
507.845830 81.167 -153.0425
511.525890 81.183 -152.8353
515.232618 81.197 -152.6338
518.966206 81.211 -152.4345
522.726849 81.223 -152.2323
526.514743 81.235 -152.0221
530.330086 81.247 -151.8012
534.173076 81.259 -151.5717
538.043915 81.272 -151.3384
541.942803 81.285 -151.1040
545.869944 81.299 -150.8684
549.825542 81.314 -150.6318
553.809805 81.329 -150.3971
557.822939 81.344 -150.1682
561.865154 81.360 -149.9471
565.936660 81.376 -149.7331
570.037671 81.392 -149.5229
574.168399 81.407 -149.3137
578.329060 81.422 -149.1044
582.519870 81.437 -148.8977
586.741049 81.452 -148.6968
590.992817 81.465 -148.5026
595.275394 81.477 -148.3137
599.589005 81.487 -148.1287
603.933874 81.494 -147.9449
608.310228 81.498 -147.7553
612.718295 81.499 -147.5501
617.158304 81.499 -147.3215
621.630488 81.498 -147.0658
626.135079 81.497 -146.7845
630.672311 81.499 -146.4839
635.242423 81.502 -146.1743
639.845651 81.507 -145.8640
644.482237 81.512 -145.5542
649.152421 81.518 -145.2397
653.856447 81.524 -144.9156
658.594560 81.532 -144.5814
663.367008 81.542 -144.2423
668.174039 81.554 -143.9041
673.015903 81.566 -143.5683
677.892854 81.580 -143.2323
682.805145 81.593 -142.8937
687.753032 81.607 -142.5514
692.736774 81.622 -142.2042
697.756631 81.637 -141.8504
702.812863 81.652 -141.4901
707.905735 81.669 -141.1260
713.035511 81.688 -140.7627
718.202461 81.707 -140.4027
723.406852 81.727 -140.0457
728.648956 81.747 -139.6895
733.929047 81.768 -139.3328
739.247399 81.789 -138.9743
744.604290 81.810 -138.6129
750.000000 81.831 -138.2475
755.434809 81.853 -137.8766
760.909001 81.876 -137.4997
766.422861 81.899 -137.1168
771.976677 81.924 -136.7288
777.570739 81.950 -136.3369
783.205337 81.976 -135.9415
788.880766 82.003 -135.5415
794.597321 82.031 -135.1339
800.355301 82.061 -134.7166
806.155005 82.093 -134.2917
811.996736 82.129 -133.8656
817.880799 82.168 -133.4467
823.807501 82.211 -133.0438
829.777150 82.256 -132.6649
835.790057 82.301 -132.3123
841.846536 82.345 -131.9795
847.946903 82.386 -131.6552
854.091476 82.425 -131.3305
860.280575 82.464 -131.0009
866.514523 82.501 -130.6635
872.793644 82.539 -130.3158
879.118267 82.577 -129.9585
885.488720 82.617 -129.5959
891.905336 82.658 -129.2318
898.368450 82.700 -128.8663
904.878398 82.743 -128.4977
911.435520 82.787 -128.1253
918.040157 82.834 -127.7512
924.692655 82.882 -127.3780
931.393359 82.932 -127.0087
938.142619 82.983 -126.6466
944.940787 83.035 -126.2936
951.788218 83.087 -125.9490
958.685268 83.140 -125.6107
965.632296 83.193 -125.2761
972.629666 83.246 -124.9428
979.677741 83.300 -124.6100
986.776890 83.355 -124.2780
993.927482 83.410 -123.9455
1001.129891 83.466 -123.6082
1008.384491 83.524 -123.2629
1015.691660 83.584 -122.9112
1023.051781 83.648 -122.5588
1030.465236 83.715 -122.2132
1037.932411 83.787 -121.8856
1045.453698 83.861 -121.5878
1053.029486 83.935 -121.3251
1060.660172 84.009 -121.0936
1068.346153 84.081 -120.8840
1076.087829 84.151 -120.6865
1083.885605 84.220 -120.4950
1091.739887 84.287 -120.3080
1099.651084 84.353 -120.1257
1107.619609 84.419 -119.9480
1115.645878 84.483 -119.7740
1123.730308 84.547 -119.6025
1131.873321 84.610 -119.4327
1140.075341 84.672 -119.2633
1148.336797 84.734 -119.0932
1156.658119 84.796 -118.9209
1165.039741 84.858 -118.7448
1173.482099 84.921 -118.5635
1181.985634 84.985 -118.3776
1190.550789 85.052 -118.1932
1199.178011 85.122 -118.0214
1207.867749 85.193 -117.8745
1216.620457 85.265 -117.7585
1225.436590 85.335 -117.6701
1234.316609 85.401 -117.6002
1243.260976 85.464 -117.5391
1252.270157 85.525 -117.4786
1261.344623 85.582 -117.4145
1270.484846 85.638 -117.3452
1279.691303 85.693 -117.2696
1288.964474 85.746 -117.1861
1298.304842 85.799 -117.0951
1307.712894 85.852 -116.9991
1317.189120 85.905 -116.9015
1326.734016 85.958 -116.8045
1336.348077 86.010 -116.7076
1346.031806 86.061 -116.6079
1355.785708 86.111 -116.5015
1365.610290 86.160 -116.3847
1375.506065 86.208 -116.2528
1385.473549 86.257 -116.1013
1395.513261 86.307 -115.9291
1405.625726 86.361 -115.7413
1415.811469 86.419 -115.5496
1426.071023 86.481 -115.3686
1436.404921 86.545 -115.2078
1446.813703 86.609 -115.0681
1457.297912 86.673 -114.9444
1467.858093 86.736 -114.8302
1478.494798 86.798 -114.7209
1489.208581 86.859 -114.6129
1500.000000 86.919 -114.5026
1510.869618 86.979 -114.3869
1521.818002 87.038 -114.2629
1532.845723 87.097 -114.1282
1543.953355 87.157 -113.9811
1555.141477 87.220 -113.8215
1566.410674 87.285 -113.6533
1577.761531 87.355 -113.4875
1589.194642 87.428 -113.3381
1600.710601 87.503 -113.2144
1612.310010 87.579 -113.1169
1623.993473 87.654 -113.0400
1635.761599 87.727 -112.9760
1647.615002 87.798 -112.9185
1659.554299 87.868 -112.8628
1671.580114 87.936 -112.8050
1683.693072 88.005 -112.7442
1695.893807 88.073 -112.6814
1708.182952 88.141 -112.6177
1720.561150 88.208 -112.5517
1733.029045 88.274 -112.4790
1745.587288 88.339 -112.3929
1758.236533 88.405 -112.2853
1770.977440 88.472 -112.1491
1783.810673 88.544 -111.9841
1796.736900 88.621 -111.7993
1809.756796 88.705 -111.6104
1822.871040 88.795 -111.4314
1836.080315 88.892 -111.2713
1849.385310 88.993 -111.1354
1862.786718 89.099 -111.0288
1876.285239 89.209 -110.9559
1889.881575 89.321 -110.9196
1903.576436 89.436 -110.9208
1917.370535 89.551 -110.9574
1931.264593 89.666 -111.0254
1945.259332 89.782 -111.1223
1959.355483 89.899 -111.2506
1973.553781 90.017 -111.4171
1987.854965 90.133 -111.6254
2002.259781 90.248 -111.8737
2016.768981 90.359 -112.1553
2031.383320 90.467 -112.4624
2046.103561 90.571 -112.7877
2060.930471 90.673 -113.1267
2075.864823 90.772 -113.4781
2090.907395 90.869 -113.8425
2106.058972 90.963 -114.2189
2121.320344 91.055 -114.6034
2136.692305 91.145 -114.9892
2152.175658 91.234 -115.3700
2167.771210 91.323 -115.7458
2183.479774 91.415 -116.1257
2199.302169 91.510 -116.5241
2215.239219 91.606 -116.9531
2231.291755 91.703 -117.4190
2247.460615 91.798 -117.9228
2263.746641 91.891 -118.4614
2280.150683 91.980 -119.0281
2296.673595 92.066 -119.6147
2313.316238 92.149 -120.2137
2330.079481 92.231 -120.8230
2346.964198 92.312 -121.4487
2363.971268 92.393 -122.1017
2381.101578 92.472 -122.7913
2398.356022 92.549 -123.5209
2415.735498 92.621 -124.2893
2433.240913 92.689 -125.0924
2450.873180 92.750 -125.9259
2468.633217 92.805 -126.7860
2486.521951 92.853 -127.6679
2504.540314 92.893 -128.5642
2522.689246 92.925 -129.4635
2540.969692 92.950 -130.3548
2559.382606 92.969 -131.2330
2577.928947 92.983 -132.1010
2596.609683 92.993 -132.9650
2615.425787 92.999 -133.8295
2634.378241 92.999 -134.6944
2653.468031 92.993 -135.5555
2672.696154 92.980 -136.4039
2692.063613 92.960 -137.2289
2711.571415 92.936 -138.0226
2731.220579 92.907 -138.7843
2751.012130 92.877 -139.5197
2770.947098 92.844 -140.2349
2791.026522 92.809 -140.9327
2811.251451 92.770 -141.6115
2831.622938 92.728 -142.2671
2852.142045 92.682 -142.8945
2872.809842 92.634 -143.4884
2893.627406 92.583 -144.0417
2914.595823 92.531 -144.5463
2935.716186 92.481 -144.9993
2956.989596 92.436 -145.4091
2978.417161 92.397 -145.7953
3000.000000 92.366 -146.1819
3021.739237 92.340 -146.5910
3043.636005 92.316 -147.0365
3065.691446 92.292 -147.5208
3087.906710 92.266 -148.0363
3110.282955 92.235 -148.5725
3132.821347 92.199 -149.1208
3155.523062 92.159 -149.6748
3178.389283 92.113 -150.2282
3201.421202 92.062 -150.7741
3224.620020 92.006 -151.3067
3247.986946 91.945 -151.8212
3271.523198 91.878 -152.3118
3295.230004 91.806 -152.7689
3319.108599 91.731 -153.1818
3343.160228 91.653 -153.5448
3367.386145 91.574 -153.8596
3391.787613 91.497 -154.1324
3416.365904 91.421 -154.3694
3441.122300 91.346 -154.5724
3466.058091 91.272 -154.7383
3491.174576 91.201 -154.8635
3516.473066 91.134 -154.9508
3541.954880 91.073 -155.0098
3567.621345 91.019 -155.0537
3593.473800 90.971 -155.0954
3619.513592 90.928 -155.1469
3645.742080 90.890 -155.2165
3672.160630 90.853 -155.3063
3698.770620 90.818 -155.4111
3725.573436 90.783 -155.5241
3752.570477 90.748 -155.6427
3779.763150 90.715 -155.7682
3807.152872 90.681 -155.9016
3834.741071 90.646 -156.0391
3862.529185 90.610 -156.1713
3890.518664 90.573 -156.2890
3918.710966 90.538 -156.3892
3947.107561 90.506 -156.4761
3975.709929 90.477 -156.5581
4004.519563 90.452 -156.6457
4033.537962 90.430 -156.7483
4062.766641 90.410 -156.8694
4092.207123 90.390 -157.0058
4121.860942 90.371 -157.1531
4151.729646 90.353 -157.3112
4181.814790 90.335 -157.4839
4212.117944 90.318 -157.6732
4242.640687 90.300 -157.8751
4273.384610 90.282 -158.0822
4304.351317 90.264 -158.2904
4335.542421 90.248 -158.5017
4366.959549 90.234 -158.7239
4398.604338 90.222 -158.9680
4430.478438 90.211 -159.2449
4462.583511 90.200 -159.5586
4494.921231 90.187 -159.9066
4527.493283 90.172 -160.2854
4560.301365 90.153 -160.6937
4593.347189 90.130 -161.1297
4626.632476 90.101 -161.5860
4660.158962 90.066 -162.0506
4693.928395 90.026 -162.5120
4727.942535 89.982 -162.9648
4762.203156 89.936 -163.4103
4796.712043 89.888 -163.8556
4831.470996 89.837 -164.3094
4866.481826 89.784 -164.7751
4901.746360 89.727 -165.2520
4937.266434 89.665 -165.7392
4973.043902 89.598 -166.2367
5009.080628 89.524 -166.7400
5045.378492 89.442 -167.2377
5081.939384 89.352 -167.7150
5118.765212 89.255 -168.1596
5155.857894 89.153 -168.5660
5193.219366 89.048 -168.9365
5230.851574 88.940 -169.2766
5268.756481 88.829 -169.5897
5306.936062 88.716 -169.8774
5345.392309 88.601 -170.1425
5384.127225 88.482 -170.3869
5423.142830 88.358 -170.6066
5462.441159 88.230 -170.7911
5502.024259 88.097 -170.9277
5541.894195 87.961 -171.0072
5582.053045 87.824 -171.0275
5622.502902 87.687 -170.9930
5663.245876 87.552 -170.9087
5704.284090 87.418 -170.7800
5745.619684 87.287 -170.6142
5787.254813 87.158 -170.4176
5829.191647 87.030 -170.1906
5871.432373 86.902 -169.9267
5913.979192 86.775 -169.6167
5956.834323 86.649 -169.2540
6000.000000 86.527 -168.8380
6043.478473 86.409 -168.3716
6087.272010 86.296 -167.8602
6131.382892 86.190 -167.3124
6175.813420 86.091 -166.7380
6220.565910 85.998 -166.1430
6265.642695 85.911 -165.5269
6311.046124 85.828 -164.8845
6356.778566 85.752 -164.2112
6402.842404 85.682 -163.5065
6449.240040 85.621 -162.7729
6495.973891 85.568 -162.0161
6543.046396 85.525 -161.2448
6590.460007 85.492 -160.4675
6638.217197 85.468 -159.6885
6686.320456 85.452 -158.9062
6734.772290 85.445 -158.1172
6783.575226 85.449 -157.3199
6832.731809 85.464 -156.5166
6882.244600 85.493 -155.7143
6932.116181 85.536 -154.9258
6982.349153 85.594 -154.1666
7032.946133 85.666 -153.4503
7083.909760 85.753 -152.7859
7135.242690 85.853 -152.1805
7186.947600 85.969 -151.6418
7239.027185 86.099 -151.1803
7291.484160 86.244 -150.8108
7344.321260 86.403 -150.5533
7397.541239 86.576 -150.4285
7451.146872 86.759 -150.4523
7505.140954 86.952 -150.6350
7559.526299 87.151 -150.9843
7614.305743 87.356 -151.5086
7669.482141 87.565 -152.2192
7725.058371 87.776 -153.1331
7781.037328 87.986 -154.2696
7837.421932 88.190 -155.6436
7894.215122 88.383 -157.2617
7951.419859 88.557 -159.1227
8009.039125 88.709 -161.2185
8067.075924 88.833 -163.5361
8125.533282 88.924 -166.0605
8184.414245 88.977 -168.7720
8243.721885 88.983 -171.6400
8303.459292 88.939 -174.6193
8363.629581 88.839 -177.6521
8424.235888 88.682 179.3278
8485.281374 88.469 176.3857
8546.769221 88.203 173.5776
8608.702634 87.891 170.9476
8671.084842 87.537 168.5300
8733.919097 87.147 166.3521
8797.208675 86.727 164.4356
8860.956876 86.284 162.7955
8925.167022 85.824 161.4350
8989.842461 85.354 160.3442
9054.986566 84.879 159.5064
9120.602731 84.403 158.9055
9186.694378 83.928 158.5317
9253.264952 83.455 158.3826
9320.317925 82.988 158.4577
9387.856790 82.530 158.7501
9455.885071 82.083 159.2458
9524.406312 81.651 159.9265
9593.424086 81.234 160.7747
9662.941992 80.835 161.7783
9732.963653 80.455 162.9267
9803.492719 80.095 164.2048
9874.532869 79.757 165.5925
9946.087805 79.439 167.0684
10018.161257 79.143 168.6184
10090.756983 78.866 170.2388
10163.878768 78.609 171.9289
10237.530423 78.373 173.6841
10311.715789 78.157 175.4948
10386.438732 77.961 177.3503
10461.703149 77.786 179.2470
10537.512962 77.630 -178.8141
10613.872125 77.495 -176.8337
10690.784618 77.382 -174.8184
10768.254450 77.290 -172.7790
10846.285661 77.221 -170.7226
10924.882318 77.173 -168.6498
11004.048518 77.148 -166.5607
11083.788390 77.147 -164.4606
11164.106090 77.172 -162.3598
11245.005805 77.223 -160.2669
11326.491752 77.301 -158.1851
11408.568180 77.408 -156.1182
11491.239368 77.546 -154.0765
11574.509626 77.717 -152.0784
11658.383294 77.924 -150.1446
11742.864745 78.168 -148.2952
11827.958384 78.451 -146.5542
11913.668646 78.777 -144.9545
12000.000000 79.145 -143.5367
12086.956947 79.557 -142.3439
12174.544019 80.013 -141.4226
12262.765784 80.511 -140.8273
12351.626840 81.048 -140.6244
12441.131819 81.619 -140.8866
12531.285389 82.211 -141.6828
12622.092249 82.813 -143.0720
12713.557132 83.408 -145.0995
12805.684808 83.975 -147.7909
12898.480079 84.495 -151.1421
12991.947783 84.944 -155.1102
13086.092792 85.303 -159.6124
13180.920015 85.554 -164.5306
13276.434395 85.685 -169.7166
13372.640911 85.689 -174.9998
13469.544580 85.568 179.7989
13567.150452 85.330 174.8483
13665.463617 84.990 170.2909
13764.489200 84.567 166.2365
13864.232362 84.083 162.7592
13964.698305 83.564 159.8948
14065.892266 83.035 157.6375
14167.819519 82.519 155.9446
14270.485380 82.037 154.7446
14373.895200 81.609 153.9432
14478.054370 81.248 153.4268
14582.968320 80.965 153.0698
14688.642520 80.766 152.7422
14795.082478 80.652 152.3102
14902.293745 80.623 151.6362
15010.281908 80.669 150.5838
15119.052599 80.779 149.0263
15228.611486 80.933 146.8544
15338.964283 81.105 143.9868
15450.116741 81.265 140.3842
15562.074656 81.378 136.0610
15674.843864 81.412 131.0916
15788.430244 81.335 125.6126
15902.839718 81.118 119.8224
16018.078250 80.745 113.9737
16134.151848 80.208 108.3536
16251.066563 79.516 103.2487
16368.828491 78.692 98.8952
16487.443769 77.778 95.4191
16606.918584 76.820 92.7917
16727.259161 75.864 90.8467
16848.471777 74.939 89.3689
16970.562748 74.054 88.1927
17093.538442 73.202 87.2461
17217.405268 72.373 86.5348
17342.169684 71.558 86.1012
17467.838194 70.756 85.9882
17594.417350 69.972 86.2202
17721.913751 69.213 86.7979
17850.334044 68.491 87.6941
17979.684923 67.817 88.8551
18109.973131 67.203 90.2007
18241.205462 66.660 91.6205
18373.388756 66.195 92.9762
18506.529905 65.812 94.1107
18640.635849 65.507 94.8607
18775.713581 65.269 95.0685
18911.770141 65.078 94.6010
19048.812624 64.908 93.3714
19186.848172 64.727 91.3590
19325.883983 64.505 88.6267
19465.927305 64.223 85.3359
19606.985439 63.881 81.7613
19749.065738 63.512 78.3050
19892.175609 63.185 75.4926
20036.322514 62.990 73.8890
