* Measurement data measured by REW V5.31
* Source: EXCL: Microphone (USB Sound Device        ), MICROPHONE (Master Volume), L, volume: 0.560
* Format: 256k Log Swept Sine, 1 sweep at -9.0 dBFS with no timing reference
* Dated: Apr 16, 2024 5:26:58 PM
* REW Settings:
*  C-weighting compensation: Off
*  Target level: 75.0 dB
* Note: L KZ ZS10 PRO 2 1111 18
* Measurement: L KZ ZS10 PRO 2 1111 18
* Smoothing: 1/12 octave
* Frequency Step: 96 ppo
* Start Frequency: 0.36621094 Hz
*
* Freq(Hz) SPL(dB) Phase(degrees)
0.366211 84.550 157.3141
0.368865 84.544 157.2904
0.371538 84.534 157.2550
0.374230 84.523 157.2104
0.376942 84.510 157.1590
0.379673 84.496 157.1026
0.382424 84.482 157.0421
0.385196 84.467 156.9782
0.387987 84.452 156.9115
0.390798 84.437 156.8420
0.393630 84.421 156.7698
0.396483 84.406 156.6951
0.399356 84.390 156.6177
0.402250 84.374 156.5378
0.405165 84.358 156.4552
0.408101 84.342 156.3699
0.411058 84.326 156.2820
0.414037 84.310 156.1915
0.417037 84.293 156.0981
0.420059 84.277 156.0021
0.423103 84.260 155.9032
0.426169 84.244 155.8016
0.429257 84.227 155.6971
0.432368 84.210 155.5898
0.435501 84.193 155.4796
0.438656 84.175 155.3664
0.441835 84.158 155.2504
0.445037 84.141 155.1314
0.448262 84.123 155.0094
0.451510 84.105 154.8845
0.454782 84.087 154.7565
0.458077 84.069 154.6255
0.461397 84.051 154.4914
0.464740 84.033 154.3543
0.468108 84.015 154.2140
0.471500 83.996 154.0706
0.474917 83.978 153.9241
0.478358 83.959 153.7745
0.481825 83.940 153.6216
0.485316 83.921 153.4656
0.488833 83.902 153.3064
0.492375 83.882 153.1440
0.495943 83.863 152.9784
0.499537 83.843 152.8095
0.503157 83.823 152.6375
0.506803 83.803 152.4621
0.510475 83.783 152.2836
0.514175 83.763 152.1018
0.517900 83.743 151.9167
0.521653 83.722 151.7284
0.525434 83.702 151.5368
0.529241 83.681 151.3421
0.533076 83.660 151.1441
0.536939 83.639 150.9429
0.540830 83.618 150.7384
0.544749 83.596 150.5308
0.548696 83.575 150.3200
0.552673 83.553 150.1061
0.556677 83.531 149.8891
0.560711 83.509 149.6689
0.564774 83.487 149.4457
0.568867 83.465 149.2195
0.572989 83.442 148.9903
0.577141 83.420 148.7581
0.581324 83.397 148.5231
0.585536 83.374 148.2852
0.589779 83.351 148.0445
0.594053 83.327 147.8010
0.598358 83.304 147.5550
0.602694 83.280 147.3063
0.607061 83.256 147.0551
0.611460 83.232 146.8015
0.615891 83.208 146.5456
0.620354 83.184 146.2874
0.624849 83.159 146.0270
0.629377 83.134 145.7646
0.633938 83.110 145.5003
0.638532 83.084 145.2342
0.643159 83.059 144.9664
0.647819 83.034 144.6971
0.652514 83.008 144.4264
0.657242 82.982 144.1544
0.662005 82.956 143.8813
0.666802 82.930 143.6074
0.671634 82.904 143.3327
0.676501 82.877 143.0575
0.681403 82.850 142.7820
0.686341 82.823 142.5063
0.691314 82.796 142.2307
0.696324 82.769 141.9554
0.701370 82.741 141.6805
0.706452 82.713 141.4063
0.711571 82.684 141.1327
0.716728 82.654 140.8598
0.721921 82.624 140.5874
0.727153 82.591 140.3148
0.732422 82.557 140.0414
0.737729 82.520 139.7659
0.743075 82.481 139.4875
0.748460 82.440 139.2050
0.753883 82.397 138.9176
0.759346 82.354 138.6250
0.764849 82.310 138.3266
0.770391 82.265 138.0222
0.775974 82.220 137.7117
0.781597 82.174 137.3949
0.787261 82.127 137.0716
0.792966 82.080 136.7419
0.798712 82.032 136.4055
0.804500 81.984 136.0625
0.810329 81.935 135.7128
0.816201 81.885 135.3563
0.822116 81.835 134.9929
0.828073 81.784 134.6225
0.834074 81.732 134.2452
0.840118 81.679 133.8609
0.846206 81.625 133.4695
0.852338 81.571 133.0710
0.858514 81.516 132.6653
0.864735 81.459 132.2526
0.871001 81.402 131.8326
0.877313 81.344 131.4056
0.883670 81.284 130.9714
0.890074 81.224 130.5301
0.896524 81.162 130.0817
0.903020 81.099 129.6263
0.909564 81.035 129.1639
0.916155 80.969 128.6948
0.922794 80.902 128.2188
0.929481 80.834 127.7363
0.936216 80.764 127.2473
0.943000 80.692 126.7519
0.949834 80.619 126.2505
0.956717 80.544 125.7432
0.963649 80.468 125.2303
0.970632 80.389 124.7120
0.977666 80.309 124.1887
0.984750 80.227 123.6608
0.991886 80.143 123.1286
0.999074 80.057 122.5925
1.006314 79.968 122.0531
1.013606 79.877 121.5108
1.020951 79.784 120.9663
1.028349 79.689 120.4200
1.035801 79.591 119.8728
1.043307 79.490 119.3253
1.050867 79.387 118.7782
1.058482 79.281 118.2323
1.066152 79.171 117.6884
1.073878 79.059 117.1470
1.081660 78.944 116.6087
1.089498 78.825 116.0737
1.097393 78.703 115.5417
1.105345 78.576 115.0122
1.113355 78.446 114.4843
1.121423 78.311 113.9570
1.129549 78.172 113.4294
1.137734 78.028 112.9006
1.145979 77.879 112.3697
1.154283 77.726 111.8363
1.162647 77.569 111.2994
1.171072 77.408 110.7585
1.179558 77.242 110.2129
1.188106 77.072 109.6619
1.196715 76.898 109.1047
1.205387 76.720 108.5405
1.214122 76.538 107.9685
1.222920 76.353 107.3877
1.231782 76.164 106.7974
1.240708 75.972 106.1964
1.249699 75.777 105.5836
1.258754 75.579 104.9580
1.267876 75.379 104.3183
1.277063 75.175 103.6632
1.286318 74.969 102.9913
1.295639 74.762 102.3011
1.305027 74.552 101.5911
1.314484 74.340 100.8595
1.324009 74.128 100.1046
1.333604 73.914 99.3245
1.343268 73.699 98.5171
1.353002 73.483 97.6804
1.362806 73.267 96.8120
1.372681 73.051 95.9098
1.382628 72.836 94.9712
1.392647 72.621 93.9938
1.402739 72.407 92.9751
1.412904 72.194 91.9127
1.423142 71.982 90.8040
1.433455 71.772 89.6466
1.443843 71.563 88.4381
1.454305 71.354 87.1759
1.464844 71.144 85.8569
1.475459 70.932 84.4774
1.486150 70.717 83.0318
1.496920 70.496 81.5132
1.507767 70.270 79.9128
1.518693 70.038 78.2198
1.529698 69.801 76.4215
1.540783 69.558 74.5031
1.551948 69.311 72.4473
1.563194 69.060 70.2342
1.574521 68.806 67.8406
1.585931 68.551 65.2403
1.597423 68.294 62.4035
1.608999 68.038 59.2968
1.620658 67.783 55.8840
1.632402 67.530 52.1271
1.644232 67.282 47.9886
1.656146 67.038 43.4360
1.668147 66.802 38.4470
1.680235 66.574 33.0181
1.692411 66.356 27.1732
1.704675 66.149 20.9714
1.717028 65.955 14.5100
1.729470 65.777 7.9197
1.742003 65.616 1.3492
1.754626 65.474 -5.0544
1.767341 65.353 -11.1661
1.780147 65.256 -16.8971
1.793047 65.185 -22.1988
1.806040 65.143 -27.0599
1.819128 65.132 -31.4989
1.832310 65.154 -35.5537
1.845587 65.211 -39.2723
1.858961 65.305 -42.7028
1.872432 65.436 -45.8875
1.886001 65.602 -48.8603
1.899667 65.802 -51.6477
1.913433 66.033 -54.2702
1.927299 66.294 -56.7439
1.941265 66.581 -59.0814
1.955332 66.892 -61.2930
1.969501 67.222 -63.3872
1.983773 67.570 -65.3711
1.998148 67.930 -67.2507
2.012627 68.301 -69.0310
2.027212 68.678 -70.7165
2.041902 69.058 -72.3107
2.056698 69.437 -73.8169
2.071602 69.812 -75.2379
2.086614 70.178 -76.5762
2.101734 70.533 -77.8340
2.116964 70.872 -79.0140
2.132304 71.193 -80.1188
2.147756 71.492 -81.1523
2.163320 71.769 -82.1196
2.178996 72.022 -83.0280
2.194786 72.252 -83.8869
2.210690 72.460 -84.7071
2.226710 72.649 -85.4997
2.242845 72.821 -86.2734
2.259098 72.977 -87.0342
2.275468 73.120 -87.7854
2.291957 73.251 -88.5282
2.308566 73.370 -89.2625
2.325295 73.478 -89.9869
2.342145 73.576 -90.6997
2.359117 73.666 -91.3983
2.376212 73.748 -92.0801
2.393431 73.822 -92.7421
2.410775 73.890 -93.3809
2.428244 73.952 -93.9932
2.445840 74.010 -94.5752
2.463564 74.064 -95.1235
2.481416 74.115 -95.6344
2.499397 74.164 -96.1048
2.517509 74.211 -96.5325
2.535752 74.256 -96.9163
2.554127 74.299 -97.2565
2.572635 74.338 -97.5554
2.591277 74.373 -97.8164
2.610055 74.403 -98.0430
2.628968 74.427 -98.2381
2.648019 74.445 -98.4036
2.667208 74.457 -98.5407
2.686535 74.463 -98.6498
2.706003 74.465 -98.7307
2.725612 74.462 -98.7828
2.745363 74.457 -98.8053
2.765257 74.449 -98.7973
2.785295 74.441 -98.7576
2.805478 74.433 -98.6848
2.825808 74.425 -98.5775
2.846285 74.420 -98.4342
2.866910 74.418 -98.2531
2.887685 74.419 -98.0322
2.908611 74.424 -97.7691
2.929688 74.433 -97.4614
2.950917 74.444 -97.1067
2.972301 74.458 -96.7032
2.993839 74.474 -96.2510
3.015534 74.492 -95.7514
3.037386 74.512 -95.2073
3.059396 74.533 -94.6226
3.081565 74.557 -94.0024
3.103896 74.584 -93.3524
3.126388 74.615 -92.6788
3.149043 74.650 -91.9881
3.171862 74.690 -91.2872
3.194847 74.736 -90.5826
3.217998 74.788 -89.8799
3.241317 74.849 -89.1840
3.264805 74.917 -88.4972
3.288463 74.994 -87.8202
3.312293 75.080 -87.1512
3.336295 75.176 -86.4882
3.360471 75.280 -85.8305
3.384822 75.394 -85.1796
3.409350 75.515 -84.5391
3.434056 75.643 -83.9144
3.458940 75.777 -83.3116
3.484005 75.916 -82.7374
3.509252 76.059 -82.1983
3.534681 76.204 -81.7004
3.560295 76.351 -81.2490
3.586094 76.498 -80.8486
3.612081 76.645 -80.5023
3.638255 76.792 -80.2113
3.664620 76.939 -79.9751
3.691175 77.086 -79.7915
3.717923 77.234 -79.6572
3.744864 77.383 -79.5687
3.772001 77.533 -79.5228
3.799335 77.683 -79.5166
3.826866 77.832 -79.5476
3.854597 77.981 -79.6137
3.882529 78.128 -79.7130
3.910664 78.272 -79.8443
3.939002 78.413 -80.0065
3.967546 78.549 -80.1995
3.996296 78.681 -80.4234
4.025255 78.807 -80.6790
4.054423 78.929 -80.9671
4.083804 79.045 -81.2878
4.113396 79.157 -81.6399
4.143204 79.264 -82.0208
4.173227 79.367 -82.4269
4.203468 79.465 -82.8540
4.233928 79.558 -83.2976
4.264609 79.647 -83.7537
4.295512 79.731 -84.2186
4.326639 79.809 -84.6900
4.357992 79.883 -85.1667
4.389572 79.951 -85.6493
4.421380 80.014 -86.1395
4.453419 80.071 -86.6391
4.485691 80.123 -87.1486
4.518196 80.169 -87.6670
4.550936 80.210 -88.1916
4.583914 80.245 -88.7184
4.617131 80.277 -89.2429
4.650589 80.303 -89.7606
4.684289 80.326 -90.2672
4.718233 80.345 -90.7598
4.752424 80.360 -91.2367
4.786862 80.371 -91.6982
4.821549 80.377 -92.1451
4.856488 80.379 -92.5785
4.891680 80.378 -92.9989
4.927127 80.373 -93.4057
4.962831 80.365 -93.7976
4.998794 80.355 -94.1727
5.035017 80.344 -94.5286
5.071503 80.332 -94.8630
5.108253 80.319 -95.1736
5.145270 80.306 -95.4591
5.182555 80.292 -95.7191
5.220110 80.278 -95.9541
5.257937 80.263 -96.1661
5.296038 80.250 -96.3574
5.334415 80.237 -96.5310
5.373071 80.225 -96.6896
5.412006 80.217 -96.8354
5.451224 80.211 -96.9701
5.490725 80.209 -97.0941
5.530514 80.211 -97.2077
5.570590 80.216 -97.3113
5.610957 80.225 -97.4069
5.651616 80.238 -97.4980
5.692570 80.254 -97.5895
5.733821 80.273 -97.6868
5.775370 80.297 -97.7951
5.817221 80.324 -97.9186
5.859375 80.355 -98.0602
5.901834 80.390 -98.2209
5.944602 80.428 -98.4014
5.987679 80.470 -98.6026
6.031068 80.515 -98.8259
6.074771 80.563 -99.0737
6.118792 80.612 -99.3485
6.163131 80.662 -99.6529
6.207792 80.712 -99.9891
6.252776 80.763 -100.3580
6.298086 80.815 -100.7596
6.343725 80.866 -101.1925
6.389694 80.917 -101.6549
6.435996 80.967 -102.1444
6.482634 81.016 -102.6589
6.529610 81.063 -103.1968
6.576926 81.108 -103.7573
6.624585 81.151 -104.3398
6.672590 81.190 -104.9434
6.720942 81.228 -105.5662
6.769645 81.262 -106.2049
6.818700 81.295 -106.8557
6.868111 81.324 -107.5144
6.917881 81.351 -108.1776
6.968010 81.375 -108.8430
7.018504 81.396 -109.5095
7.069362 81.414 -110.1758
7.120590 81.431 -110.8400
7.172189 81.445 -111.4995
7.224161 81.458 -112.1509
7.276511 81.470 -112.7912
7.329239 81.481 -113.4182
7.382350 81.491 -114.0305
7.435845 81.501 -114.6278
7.489729 81.512 -115.2100
7.544002 81.523 -115.7774
7.598669 81.535 -116.3296
7.653732 81.549 -116.8666
7.709194 81.564 -117.3882
7.765058 81.583 -117.8946
7.821327 81.604 -118.3872
7.878004 81.627 -118.8680
7.935091 81.654 -119.3395
7.992592 81.684 -119.8043
8.050510 81.718 -120.2644
8.108847 81.755 -120.7215
8.167607 81.795 -121.1770
8.226793 81.839 -121.6327
8.286408 81.885 -122.0908
8.346454 81.935 -122.5538
8.406936 81.986 -123.0235
8.467856 82.040 -123.5013
8.529218 82.096 -123.9877
8.591024 82.153 -124.4827
8.653278 82.211 -124.9861
8.715983 82.270 -125.4978
8.779143 82.329 -126.0176
8.842760 82.387 -126.5448
8.906839 82.445 -127.0784
8.971381 82.502 -127.6167
9.036392 82.558 -128.1575
9.101873 82.613 -128.6985
9.167829 82.666 -129.2381
9.234263 82.718 -129.7744
9.301178 82.768 -130.3058
9.368578 82.816 -130.8301
9.436467 82.862 -131.3453
9.504847 82.908 -131.8493
9.573723 82.951 -132.3407
9.643099 82.994 -132.8185
9.712976 83.035 -133.2820
9.783361 83.076 -133.7307
9.854255 83.116 -134.1641
9.925663 83.155 -134.5822
9.997588 83.195 -134.9851
10.070035 83.234 -135.3737
10.143007 83.274 -135.7491
10.216507 83.313 -136.1124
10.290540 83.353 -136.4648
10.365109 83.393 -136.8076
10.440219 83.433 -137.1421
10.515873 83.474 -137.4697
10.592076 83.514 -137.7920
10.668830 83.554 -138.1101
10.746141 83.594 -138.4249
10.824012 83.633 -138.7373
10.902447 83.672 -139.0479
10.981451 83.710 -139.3570
11.061027 83.747 -139.6651
11.141180 83.783 -139.9722
11.221913 83.817 -140.2780
11.303232 83.850 -140.5824
11.385140 83.881 -140.8852
11.467641 83.911 -141.1860
11.550741 83.939 -141.4847
11.634442 83.966 -141.7811
11.718750 83.991 -142.0750
11.803669 84.015 -142.3666
11.889203 84.037 -142.6560
11.975357 84.058 -142.9436
12.062136 84.078 -143.2298
12.149543 84.096 -143.5153
12.237583 84.113 -143.8006
12.326262 84.129 -144.0864
12.415583 84.144 -144.3734
12.505552 84.157 -144.6622
12.596172 84.169 -144.9533
12.687449 84.180 -145.2471
12.779387 84.189 -145.5438
12.871992 84.197 -145.8435
12.965268 84.204 -146.1462
13.059220 84.209 -146.4517
13.153852 84.213 -146.7598
13.249170 84.215 -147.0702
13.345179 84.216 -147.3826
13.441884 84.217 -147.6970
13.539289 84.216 -148.0133
13.637401 84.215 -148.3315
13.736223 84.213 -148.6522
13.835761 84.211 -148.9759
13.936021 84.209 -149.3034
14.037007 84.207 -149.6356
14.138725 84.206 -149.9736
14.241180 84.204 -150.3187
14.344377 84.204 -150.6719
14.448323 84.203 -151.0342
14.553021 84.203 -151.4063
14.658478 84.203 -151.7887
14.764700 84.203 -152.1814
14.871691 84.202 -152.5843
14.979457 84.202 -152.9964
15.088005 84.202 -153.4169
15.197339 84.201 -153.8443
15.307465 84.200 -154.2771
15.418389 84.198 -154.7134
15.530117 84.197 -155.1516
15.642655 84.195 -155.5902
15.756008 84.194 -156.0277
15.870182 84.193 -156.4630
15.985184 84.194 -156.8955
16.101019 84.195 -157.3249
16.217694 84.197 -157.7511
16.335214 84.201 -158.1744
16.453586 84.206 -158.5954
16.572815 84.212 -159.0145
16.692909 84.220 -159.4324
16.813872 84.230 -159.8493
16.935713 84.240 -160.2653
17.058436 84.251 -160.6802
17.182048 84.262 -161.0936
17.306556 84.274 -161.5043
17.431967 84.286 -161.9114
17.558286 84.298 -162.3136
17.685521 84.310 -162.7093
17.813677 84.322 -163.0974
17.942762 84.333 -163.4767
18.072783 84.345 -163.8462
18.203746 84.356 -164.2054
18.335658 84.366 -164.5541
18.468526 84.377 -164.8922
18.602356 84.387 -165.2201
18.737156 84.398 -165.5384
18.872934 84.408 -165.8476
19.009695 84.417 -166.1487
19.147447 84.426 -166.4422
19.286197 84.435 -166.7289
19.425953 84.442 -167.0095
19.566721 84.449 -167.2846
19.708510 84.455 -167.5549
19.851326 84.460 -167.8210
19.995177 84.463 -168.0838
20.140070 84.466 -168.3440
20.286013 84.467 -168.6024
20.433014 84.467 -168.8598
20.581080 84.465 -169.1169
20.730219 84.462 -169.3742
20.880439 84.457 -169.6322
21.031747 84.450 -169.8910
21.184152 84.442 -170.1505
21.337661 84.432 -170.4106
21.492282 84.420 -170.6712
21.648024 84.407 -170.9321
21.804895 84.393 -171.1934
21.962902 84.378 -171.4556
22.122054 84.362 -171.7193
22.282360 84.347 -171.9859
22.443827 84.331 -172.2565
22.606464 84.315 -172.5328
22.770280 84.299 -172.8162
22.935283 84.284 -173.1079
23.101481 84.268 -173.4089
23.268884 84.253 -173.7195
23.437500 84.238 -174.0394
23.607338 84.223 -174.3679
23.778406 84.208 -174.7038
23.950714 84.192 -175.0455
24.124271 84.177 -175.3916
24.299086 84.162 -175.7402
24.475167 84.148 -176.0900
24.652524 84.133 -176.4396
24.831166 84.120 -176.7880
25.011103 84.107 -177.1343
25.192344 84.095 -177.4778
25.374898 84.084 -177.8179
25.558775 84.073 -178.1540
25.743984 84.064 -178.4855
25.930536 84.055 -178.8118
26.118439 84.046 -179.1322
26.307704 84.038 -179.4461
26.498341 84.031 -179.7527
26.690359 84.023 179.9485
26.883768 84.016 179.6583
27.078579 84.009 179.3768
27.274801 84.001 179.1043
27.472446 83.994 178.8406
27.671522 83.986 178.5851
27.872042 83.978 178.3370
28.074014 83.969 178.0953
28.277450 83.960 177.8586
28.482360 83.951 177.6258
28.688755 83.940 177.3959
28.896645 83.928 177.1681
29.106042 83.915 176.9420
29.316957 83.901 176.7172
29.529400 83.885 176.4937
29.743382 83.868 176.2711
29.958915 83.850 176.0491
30.176009 83.831 175.8269
30.394677 83.811 175.6035
30.614929 83.790 175.3780
30.836778 83.769 175.1494
31.060234 83.747 174.9172
31.285309 83.724 174.6809
31.512015 83.701 174.4406
31.740364 83.678 174.1964
31.970368 83.655 173.9482
32.202039 83.632 173.6960
32.435388 83.609 173.4395
32.670428 83.587 173.1785
32.907171 83.565 172.9131
33.145630 83.543 172.6439
33.385817 83.522 172.3722
33.627745 83.500 172.0999
33.871425 83.478 171.8296
34.116871 83.456 171.5634
34.364096 83.435 171.3033
34.613113 83.414 171.0504
34.863934 83.393 170.8050
35.116572 83.373 170.5663
35.371041 83.354 170.3333
35.627354 83.336 170.1044
35.885525 83.317 169.8783
36.145566 83.299 169.6542
36.407492 83.281 169.4316
36.671316 83.261 169.2108
36.937051 83.241 168.9920
37.204712 83.220 168.7761
37.474313 83.198 168.5632
37.745867 83.175 168.3537
38.019389 83.150 168.1471
38.294893 83.125 167.9426
38.572394 83.099 167.7393
38.851905 83.072 167.5366
39.133442 83.045 167.3341
39.417019 83.016 167.1321
39.702651 82.987 166.9309
39.990353 82.957 166.7314
40.280140 82.928 166.5338
40.572026 82.898 166.3380
40.866028 82.868 166.1432
41.162160 82.839 165.9489
41.460438 82.811 165.7542
41.760877 82.782 165.5593
42.063494 82.754 165.3646
42.368303 82.727 165.1708
42.675322 82.699 164.9789
42.984565 82.672 164.7893
43.296048 82.645 164.6018
43.609789 82.618 164.4161
43.925804 82.592 164.2315
44.244108 82.565 164.0479
44.564719 82.538 163.8654
44.887654 82.510 163.6850
45.212928 82.482 163.5080
45.540560 82.453 163.3356
45.870565 82.423 163.1685
46.202962 82.393 163.0062
46.537768 82.364 162.8476
46.875000 82.334 162.6903
47.214676 82.305 162.5323
47.556813 82.276 162.3719
47.901429 82.246 162.2090
48.248542 82.216 162.0447
48.598171 82.185 161.8813
48.950334 82.153 161.7210
49.305048 82.122 161.5656
49.662333 82.090 161.4157
50.022206 82.059 161.2705
50.384688 82.028 161.1286
50.749796 81.998 160.9888
51.117550 81.968 160.8504
51.487969 81.939 160.7131
51.861072 81.909 160.5771
52.236879 81.879 160.4420
52.615409 81.850 160.3075
52.996681 81.819 160.1733
53.380717 81.789 160.0397
53.767536 81.757 159.9079
54.157158 81.726 159.7795
54.549603 81.693 159.6556
54.944892 81.662 159.5359
55.343045 81.630 159.4192
55.744084 81.599 159.3034
56.148028 81.569 159.1870
56.554900 81.538 159.0689
56.964720 81.509 158.9487
57.377510 81.479 158.8263
57.793291 81.449 158.7018
58.212085 81.419 158.5758
58.633914 81.388 158.4497
59.058799 81.356 158.3251
59.486764 81.324 158.2037
59.917829 81.290 158.0862
60.352019 81.256 157.9729
60.789354 81.221 157.8637
61.229859 81.186 157.7588
61.673556 81.150 157.6581
62.120468 81.114 157.5607
62.570618 81.079 157.4648
63.024031 81.044 157.3676
63.480729 81.009 157.2671
63.940736 80.974 157.1631
64.404077 80.939 157.0569
64.870776 80.904 156.9506
65.340856 80.869 156.8458
65.814343 80.833 156.7436
66.291261 80.798 156.6447
66.771635 80.763 156.5499
67.255489 80.727 156.4600
67.742850 80.691 156.3753
68.233743 80.656 156.2955
68.728193 80.620 156.2201
69.226226 80.583 156.1488
69.727867 80.547 156.0820
70.233144 80.510 156.0203
70.742083 80.473 155.9629
71.254709 80.437 155.9077
71.771050 80.402 155.8520
72.291132 80.367 155.7934
72.814984 80.332 155.7318
73.342631 80.298 155.6683
73.874102 80.264 155.6047
74.409424 80.230 155.5424
74.948626 80.196 155.4822
75.491734 80.162 155.4246
76.038779 80.129 155.3704
76.589787 80.096 155.3196
77.144788 80.064 155.2713
77.703811 80.031 155.2231
78.266885 79.999 155.1722
78.834039 79.967 155.1164
79.405303 79.934 155.0549
79.980706 79.901 154.9881
80.560280 79.866 154.9174
81.144053 79.830 154.8443
81.732056 79.794 154.7697
82.324320 79.757 154.6935
82.920876 79.719 154.6156
83.521755 79.680 154.5378
84.126988 79.639 154.4637
84.736607 79.597 154.3967
85.350643 79.555 154.3389
85.969129 79.512 154.2903
86.592097 79.469 154.2501
87.219579 79.426 154.2175
87.851608 79.384 154.1919
88.488217 79.341 154.1725
89.129439 79.299 154.1584
89.775308 79.258 154.1487
90.425856 79.216 154.1423
91.081119 79.176 154.1387
91.741131 79.135 154.1378
92.405925 79.095 154.1395
93.075536 79.054 154.1442
93.750000 79.013 154.1530
94.429351 78.973 154.1660
95.113625 78.933 154.1823
95.802858 78.893 154.1996
96.497085 78.853 154.2167
97.196342 78.813 154.2335
97.900667 78.773 154.2509
98.610096 78.734 154.2695
99.324665 78.694 154.2893
100.044413 78.655 154.3109
100.769376 78.616 154.3354
101.499592 78.577 154.3646
102.235100 78.539 154.3991
102.975938 78.502 154.4387
103.722144 78.466 154.4817
104.473757 78.430 154.5262
105.230817 78.395 154.5706
105.993363 78.360 154.6138
106.761435 78.324 154.6550
107.535072 78.289 154.6931
108.314315 78.253 154.7268
109.099206 78.217 154.7546
109.889783 78.180 154.7751
110.686090 78.144 154.7880
111.488167 78.107 154.7950
112.296056 78.068 154.8003
113.109800 78.028 154.8094
113.929440 77.985 154.8290
114.755020 77.940 154.8654
115.586582 77.893 154.9230
116.424170 77.844 155.0040
117.267827 77.795 155.1076
118.117598 77.747 155.2290
118.973527 77.701 155.3588
119.835658 77.660 155.4824
120.704037 77.622 155.5858
121.578708 77.587 155.6652
122.459718 77.553 155.7281
123.347111 77.519 155.7871
124.240935 77.485 155.8528
125.141236 77.452 155.9308
126.048061 77.419 156.0205
126.961458 77.386 156.1168
127.881473 77.353 156.2147
128.808154 77.320 156.3109
129.741551 77.285 156.4031
130.681712 77.250 156.4904
131.628686 77.214 156.5725
132.582521 77.177 156.6509
133.543269 77.141 156.7282
134.510979 77.105 156.8073
135.485701 77.069 156.8904
136.467486 77.033 156.9785
137.456386 76.997 157.0718
138.452451 76.962 157.1691
139.455735 76.925 157.2686
140.466288 76.888 157.3685
141.484165 76.851 157.4681
142.509418 76.813 157.5669
143.542100 76.775 157.6654
144.582265 76.737 157.7646
145.629968 76.699 157.8654
146.685262 76.661 157.9696
147.748204 76.622 158.0797
148.818849 76.584 158.1980
149.897251 76.545 158.3257
150.983469 76.506 158.4625
152.077557 76.467 158.6080
153.179574 76.429 158.7620
154.289576 76.391 158.9230
155.407622 76.355 159.0862
156.533770 76.320 159.2445
157.668078 76.287 159.3903
158.810606 76.254 159.5193
159.961413 76.222 159.6324
161.120559 76.189 159.7366
162.288105 76.156 159.8429
163.464112 76.123 159.9621
164.648640 76.090 160.1018
165.841752 76.057 160.2623
167.043510 76.026 160.4381
168.253976 75.993 160.6213
169.473213 75.960 160.8063
170.701286 75.926 160.9909
171.938258 75.891 161.1737
173.184194 75.856 161.3523
174.439158 75.823 161.5256
175.703216 75.790 161.6949
176.976434 75.759 161.8625
178.258878 75.728 162.0313
179.550615 75.697 162.2037
180.851713 75.667 162.3809
182.162239 75.637 162.5616
183.482262 75.607 162.7428
184.811850 75.578 162.9213
186.151073 75.548 163.0947
187.500000 75.517 163.2621
188.858702 75.485 163.4244
190.227250 75.453 163.5841
191.605715 75.420 163.7430
192.994169 75.387 163.9036
194.392685 75.353 164.0704
195.801334 75.319 164.2479
197.220191 75.285 164.4380
198.649330 75.251 164.6393
200.088825 75.218 164.8494
201.538751 75.185 165.0656
202.999184 75.155 165.2849
204.470200 75.126 165.5038
205.951875 75.098 165.7197
207.444287 75.071 165.9310
208.947514 75.044 166.1384
210.461634 75.015 166.3433
211.986726 74.986 166.5468
213.522869 74.954 166.7498
215.070144 74.921 166.9547
216.628631 74.888 167.1667
218.198411 74.855 167.3923
219.779567 74.823 167.6358
221.372180 74.793 167.8956
222.976334 74.766 168.1648
224.592112 74.741 168.4337
226.219600 74.718 168.6947
227.858880 74.695 168.9454
229.510039 74.673 169.1873
231.173164 74.650 169.4223
232.848340 74.627 169.6514
234.535655 74.604 169.8762
236.235197 74.580 170.0990
237.947054 74.555 170.3218
239.671317 74.530 170.5448
241.408074 74.505 170.7672
243.157416 74.479 170.9885
244.919435 74.454 171.2097
246.694223 74.428 171.4335
248.481871 74.403 171.6648
250.282473 74.378 171.9097
252.096123 74.354 172.1725
253.922915 74.330 172.4532
255.762945 74.307 172.7452
257.616309 74.287 173.0374
259.483103 74.269 173.3192
261.363424 74.252 173.5848
263.257372 74.235 173.8360
265.165043 74.217 174.0786
267.086538 74.198 174.3189
269.021957 74.178 174.5618
270.971401 74.158 174.8101
272.934972 74.138 175.0654
274.912771 74.118 175.3281
276.904902 74.099 175.5977
278.911469 74.081 175.8728
280.932577 74.065 176.1515
282.968330 74.052 176.4297
285.018835 74.041 176.7009
287.084199 74.032 176.9579
289.164530 74.023 177.1948
291.259935 74.012 177.4104
293.370525 73.999 177.6088
295.496408 73.982 177.7989
297.637697 73.963 177.9910
299.794503 73.942 178.1927
301.966937 73.919 178.4058
304.155114 73.897 178.6274
306.359147 73.875 178.8534
308.579152 73.853 179.0824
310.815244 73.831 179.3152
313.067539 73.809 179.5541
315.336156 73.786 179.8013
317.621211 73.762 -179.9411
319.922826 73.738 -179.6736
322.241118 73.714 -179.3999
324.576210 73.690 -179.1237
326.928223 73.668 -178.8456
329.297280 73.647 -178.5639
331.683504 73.627 -178.2765
334.087019 73.609 -177.9838
336.507952 73.591 -177.6892
338.946427 73.574 -177.3967
341.402572 73.556 -177.1080
343.876516 73.538 -176.8218
346.368387 73.520 -176.5359
348.878315 73.501 -176.2492
351.406431 73.481 -175.9606
353.952867 73.462 -175.6686
356.517756 73.442 -175.3723
359.101230 73.423 -175.0720
361.703426 73.405 -174.7691
364.324478 73.386 -174.4634
366.964523 73.368 -174.1531
369.623699 73.350 -173.8375
372.302145 73.332 -173.5187
375.000000 73.315 -173.2002
377.717405 73.298 -172.8837
380.454501 73.282 -172.5678
383.211431 73.266 -172.2505
385.988339 73.250 -171.9308
388.785369 73.233 -171.6076
391.602668 73.217 -171.2794
394.440383 73.201 -170.9463
397.298660 73.185 -170.6104
400.177650 73.170 -170.2753
403.077502 73.156 -169.9428
405.998368 73.142 -169.6122
408.940400 73.128 -169.2812
411.903750 73.115 -168.9470
414.888575 73.100 -168.6070
417.895028 73.085 -168.2597
420.923268 73.069 -167.9053
423.973452 73.053 -167.5446
427.045738 73.038 -167.1780
430.140287 73.025 -166.8058
433.257261 73.014 -166.4297
436.396822 73.005 -166.0532
439.559133 72.997 -165.6787
442.744360 72.991 -165.3088
445.952668 72.986 -164.9473
449.184225 72.983 -164.5998
452.439199 72.980 -164.2715
455.717760 72.977 -163.9633
459.020079 72.972 -163.6696
462.346327 72.963 -163.3796
465.696680 72.952 -163.0817
469.071310 72.938 -162.7684
472.470394 72.924 -162.4380
475.894109 72.909 -162.0929
479.342634 72.893 -161.7396
482.816148 72.878 -161.3860
486.314833 72.862 -161.0357
489.838871 72.846 -160.6836
493.388445 72.829 -160.3193
496.963741 72.814 -159.9365
500.564945 72.800 -159.5382
504.192245 72.787 -159.1335
507.845830 72.776 -158.7312
511.525890 72.766 -158.3353
515.232618 72.756 -157.9446
518.966206 72.746 -157.5557
522.726849 72.735 -157.1626
526.514743 72.724 -156.7585
530.330086 72.713 -156.3398
534.173076 72.704 -155.9090
538.043915 72.696 -155.4716
541.942803 72.690 -155.0312
545.869944 72.684 -154.5883
549.825542 72.679 -154.1442
553.809805 72.674 -153.7037
557.822939 72.670 -153.2725
561.865154 72.666 -152.8528
565.936660 72.661 -152.4418
570.037671 72.655 -152.0326
574.168399 72.648 -151.6187
578.329060 72.640 -151.1978
582.519870 72.632 -150.7703
586.741049 72.624 -150.3362
590.992817 72.616 -149.8917
595.275394 72.608 -149.4332
599.589005 72.602 -148.9624
603.933874 72.597 -148.4854
608.310228 72.593 -148.0077
612.718295 72.589 -147.5314
617.158304 72.585 -147.0550
621.630488 72.581 -146.5735
626.135079 72.577 -146.0812
630.672311 72.574 -145.5752
635.242423 72.573 -145.0590
639.845651 72.573 -144.5379
644.482237 72.575 -144.0123
649.152421 72.579 -143.4787
653.856447 72.586 -142.9370
658.594560 72.596 -142.3956
663.367008 72.608 -141.8676
668.174039 72.622 -141.3629
673.015903 72.635 -140.8814
677.892854 72.646 -140.4150
682.805145 72.654 -139.9544
687.753032 72.660 -139.4925
692.736774 72.664 -139.0248
697.756631 72.669 -138.5480
702.812863 72.673 -138.0609
707.905735 72.679 -137.5640
713.035511 72.685 -137.0584
718.202461 72.692 -136.5451
723.406852 72.699 -136.0247
728.648956 72.706 -135.4989
733.929047 72.714 -134.9700
739.247399 72.723 -134.4386
744.604290 72.732 -133.9033
750.000000 72.743 -133.3625
755.434809 72.756 -132.8148
760.909001 72.770 -132.2596
766.422861 72.785 -131.6962
771.976677 72.802 -131.1252
777.570739 72.820 -130.5487
783.205337 72.840 -129.9702
788.880766 72.860 -129.3915
794.597321 72.881 -128.8105
800.355301 72.904 -128.2245
806.155005 72.929 -127.6358
811.996736 72.958 -127.0528
817.880799 72.989 -126.4876
823.807501 73.023 -125.9507
829.777150 73.057 -125.4469
835.790057 73.088 -124.9700
841.846536 73.115 -124.5017
847.946903 73.137 -124.0210
854.091476 73.158 -123.5158
860.280575 73.179 -122.9874
866.514523 73.201 -122.4441
872.793644 73.223 -121.8930
879.118267 73.245 -121.3363
885.488720 73.268 -120.7714
891.905336 73.290 -120.1915
898.368450 73.314 -119.5901
904.878398 73.340 -118.9667
911.435520 73.370 -118.3285
918.040157 73.404 -117.6871
924.692655 73.442 -117.0523
931.393359 73.484 -116.4310
938.142619 73.528 -115.8269
944.940787 73.574 -115.2402
951.788218 73.620 -114.6671
958.685268 73.666 -114.1029
965.632296 73.711 -113.5429
972.629666 73.757 -112.9837
979.677741 73.803 -112.4246
986.776890 73.849 -111.8669
993.927482 73.895 -111.3108
1001.129891 73.941 -110.7529
1008.384491 73.988 -110.1886
1015.691660 74.037 -109.6162
1023.051781 74.089 -109.0399
1030.465236 74.146 -108.4678
1037.932411 74.206 -107.9120
1045.453698 74.270 -107.3847
1053.029486 74.335 -106.8905
1060.660172 74.400 -106.4250
1068.346153 74.463 -105.9778
1076.087829 74.524 -105.5383
1083.885605 74.583 -105.1006
1091.739887 74.641 -104.6645
1099.651084 74.699 -104.2328
1107.619609 74.755 -103.8062
1115.645878 74.809 -103.3838
1123.730308 74.863 -102.9645
1131.873321 74.916 -102.5473
1140.075341 74.969 -102.1310
1148.336797 75.021 -101.7132
1156.658119 75.074 -101.2906
1165.039741 75.128 -100.8600
1173.482099 75.182 -100.4187
1181.985634 75.238 -99.9673
1190.550789 75.297 -99.5135
1199.178011 75.358 -99.0702
1207.867749 75.421 -98.6505
1216.620457 75.484 -98.2611
1225.436590 75.545 -97.8992
1234.316609 75.603 -97.5568
1243.260976 75.658 -97.2244
1252.270157 75.709 -96.8936
1261.344623 75.759 -96.5597
1270.484846 75.806 -96.2210
1279.691303 75.852 -95.8756
1288.964474 75.897 -95.5200
1298.304842 75.941 -95.1526
1307.712894 75.985 -94.7753
1317.189120 76.028 -94.3925
1326.734016 76.072 -94.0090
1336.348077 76.114 -93.6270
1346.031806 76.156 -93.2447
1355.785708 76.197 -92.8573
1365.610290 76.236 -92.4591
1375.506065 76.275 -92.0440
1385.473549 76.314 -91.6058
1395.513261 76.354 -91.1423
1405.625726 76.398 -90.6588
1415.811469 76.446 -90.1679
1426.071023 76.498 -89.6859
1436.404921 76.552 -89.2241
1446.813703 76.606 -88.7839
1457.297912 76.660 -88.3599
1467.858093 76.712 -87.9452
1478.494798 76.763 -87.5341
1489.208581 76.812 -87.1217
1500.000000 76.861 -86.7030
1510.869618 76.909 -86.2740
1521.818002 76.956 -85.8325
1532.845723 77.003 -85.3771
1543.953355 77.051 -84.9069
1555.141477 77.101 -84.4216
1566.410674 77.155 -83.9260
1577.761531 77.212 -83.4317
1589.194642 77.273 -82.9531
1600.710601 77.337 -82.4992
1612.310010 77.400 -82.0701
1623.993473 77.462 -81.6594
1635.761599 77.522 -81.2589
1647.615002 77.581 -80.8619
1659.554299 77.637 -80.4634
1671.580114 77.693 -80.0600
1683.693072 77.748 -79.6506
1695.893807 77.803 -79.2374
1708.182952 77.857 -78.8224
1720.561150 77.912 -78.4054
1733.029045 77.965 -77.9833
1745.587288 78.017 -77.5509
1758.236533 78.069 -77.1009
1770.977440 78.121 -76.6268
1783.810673 78.177 -76.1287
1796.736900 78.236 -75.6163
1809.756796 78.299 -75.1052
1822.871040 78.366 -74.6076
1836.080315 78.435 -74.1280
1849.385310 78.504 -73.6659
1862.786718 78.574 -73.2185
1876.285239 78.642 -72.7801
1889.881575 78.710 -72.3430
1903.576436 78.777 -71.8994
1917.370535 78.845 -71.4434
1931.264593 78.913 -70.9720
1945.259332 78.985 -70.4882
1959.355483 79.061 -70.0030
1973.553781 79.140 -69.5321
1987.854965 79.223 -69.0875
2002.259781 79.308 -68.6732
2016.768981 79.392 -68.2868
2031.383320 79.476 -67.9219
2046.103561 79.558 -67.5710
2060.930471 79.640 -67.2279
2075.864823 79.720 -66.8903
2090.907395 79.800 -66.5581
2106.058972 79.877 -66.2305
2121.320344 79.953 -65.9039
2136.692305 80.028 -65.5707
2152.175658 80.102 -65.2232
2167.771210 80.177 -64.8592
2183.479774 80.256 -64.4860
2199.302169 80.337 -64.1165
2215.239219 80.422 -63.7611
2231.291755 80.508 -63.4244
2247.460615 80.595 -63.1068
2263.746641 80.681 -62.8043
2280.150683 80.767 -62.5101
2296.673595 80.852 -62.2159
2313.316238 80.937 -61.9149
2330.079481 81.024 -61.6064
2346.964198 81.114 -61.2992
2363.971268 81.208 -61.0075
2381.101578 81.305 -60.7433
2398.356022 81.403 -60.5124
2415.735498 81.501 -60.3150
2433.240913 81.598 -60.1479
2450.873180 81.695 -60.0071
2468.633217 81.789 -59.8898
2486.521951 81.881 -59.7927
2504.540314 81.970 -59.7092
2522.689246 82.056 -59.6297
2540.969692 82.140 -59.5455
2559.382606 82.223 -59.4553
2577.928947 82.307 -59.3664
2596.609683 82.393 -59.2888
2615.425787 82.480 -59.2301
2634.378241 82.566 -59.1932
2653.468031 82.651 -59.1765
2672.696154 82.733 -59.1741
2692.063613 82.814 -59.1781
2711.571415 82.895 -59.1842
2731.220579 82.977 -59.1962
2751.012130 83.061 -59.2248
2770.947098 83.146 -59.2814
2791.026522 83.231 -59.3736
2811.251451 83.316 -59.5049
2831.622938 83.398 -59.6760
2852.142045 83.476 -59.8863
2872.809842 83.551 -60.1335
2893.627406 83.619 -60.4111
2914.595823 83.682 -60.7085
2935.716186 83.740 -61.0164
2956.989596 83.793 -61.3331
2978.417161 83.842 -61.6636
3000.000000 83.888 -62.0150
3021.739237 83.929 -62.3916
3043.636005 83.963 -62.7920
3065.691446 83.990 -63.2087
3087.906710 84.010 -63.6317
3110.282955 84.023 -64.0551
3132.821347 84.030 -64.4803
3155.523062 84.032 -64.9127
3178.389283 84.027 -65.3569
3201.421202 84.014 -65.8136
3224.620020 83.993 -66.2804
3247.986946 83.961 -66.7518
3271.523198 83.918 -67.2180
3295.230004 83.861 -67.6625
3319.108599 83.792 -68.0656
3343.160228 83.712 -68.4111
3367.386145 83.621 -68.6901
3391.787613 83.523 -68.8982
3416.365904 83.418 -69.0317
3441.122300 83.307 -69.0831
3466.058091 83.190 -69.0414
3491.174576 83.072 -68.8972
3516.473066 82.956 -68.6499
3541.954880 82.844 -68.3084
3567.621345 82.738 -67.8884
3593.473800 82.641 -67.4077
3619.513592 82.553 -66.8855
3645.742080 82.473 -66.3386
3672.160630 82.400 -65.7776
3698.770620 82.332 -65.2047
3725.573436 82.270 -64.6202
3752.570477 82.213 -64.0286
3779.763150 82.162 -63.4378
3807.152872 82.114 -62.8549
3834.741071 82.069 -62.2802
3862.529185 82.025 -61.7068
3890.518664 81.983 -61.1275
3918.710966 81.943 -60.5412
3947.107561 81.906 -59.9535
3975.709929 81.871 -59.3734
4004.519563 81.839 -58.8105
4033.537962 81.808 -58.2727
4062.766641 81.775 -57.7604
4092.207123 81.740 -57.2661
4121.860942 81.701 -56.7801
4151.729646 81.659 -56.2957
4181.814790 81.612 -55.8094
4212.117944 81.559 -55.3150
4242.640687 81.500 -54.7993
4273.384610 81.435 -54.2454
4304.351317 81.366 -53.6400
4335.542421 81.295 -52.9767
4366.959549 81.223 -52.2553
4398.604338 81.152 -51.4799
4430.478438 81.083 -50.6546
4462.583511 81.016 -49.7777
4494.921231 80.951 -48.8419
4527.493283 80.889 -47.8411
4560.301365 80.832 -46.7739
4593.347189 80.781 -45.6416
4626.632476 80.739 -44.4429
4660.158962 80.708 -43.1751
4693.928395 80.692 -41.8419
4727.942535 80.694 -40.4596
4762.203156 80.719 -39.0585
4796.712043 80.767 -37.6815
4831.470996 80.838 -36.3744
4866.481826 80.929 -35.1768
4901.746360 81.036 -34.1195
4937.266434 81.152 -33.2266
4973.043902 81.273 -32.5140
5009.080628 81.391 -31.9827
5045.378492 81.499 -31.6167
5081.939384 81.593 -31.3880
5118.765212 81.670 -31.2655
5155.857894 81.729 -31.2204
5193.219366 81.769 -31.2291
5230.851574 81.789 -31.2698
5268.756481 81.790 -31.3192
5306.936062 81.773 -31.3555
5345.392309 81.738 -31.3617
5384.127225 81.686 -31.3246
5423.142830 81.619 -31.2289
5462.441159 81.537 -31.0565
5502.024259 81.444 -30.7905
5541.894195 81.341 -30.4202
5582.053045 81.234 -29.9437
5622.502902 81.124 -29.3662
5663.245876 81.015 -28.6951
5704.284090 80.907 -27.9385
5745.619684 80.803 -27.1074
5787.254813 80.701 -26.2125
5829.191647 80.603 -25.2587
5871.432373 80.507 -24.2435
5913.979192 80.414 -23.1609
5956.834323 80.327 -22.0074
6000.000000 80.247 -20.7858
6043.478473 80.176 -19.5030
6087.272010 80.116 -18.1691
6131.382892 80.067 -16.7983
6175.813420 80.030 -15.4069
6220.565910 80.005 -14.0079
6265.642695 79.991 -12.6090
6311.046124 79.988 -11.2151
6356.778566 79.996 -9.8336
6402.842404 80.017 -8.4780
6449.240040 80.051 -7.1666
6495.973891 80.096 -5.9211
6543.046396 80.151 -4.7653
6590.460007 80.211 -3.7195
6638.217197 80.273 -2.7934
6686.320456 80.330 -1.9826
6734.772290 80.379 -1.2708
6783.575226 80.416 -0.6327
6832.731809 80.438 -0.0365
6882.244600 80.446 0.5524
6932.116181 80.440 1.1655
6982.349153 80.424 1.8286
7032.946133 80.399 2.5617
7083.909760 80.372 3.3781
7135.242690 80.346 4.2816
7186.947600 80.327 5.2641
7239.027185 80.318 6.3067
7291.484160 80.323 7.3801
7344.321260 80.344 8.4475
7397.541239 80.378 9.4722
7451.146872 80.425 10.4259
7505.140954 80.482 11.2906
7559.526299 80.544 12.0553
7614.305743 80.611 12.7129
7669.482141 80.679 13.2574
7725.058371 80.746 13.6802
7781.037328 80.808 13.9732
7837.421932 80.861 14.1353
7894.215122 80.901 14.1765
7951.419859 80.923 14.1159
8009.039125 80.925 13.9789
8067.075924 80.906 13.7928
8125.533282 80.864 13.5809
8184.414245 80.801 13.3627
8243.721885 80.714 13.1585
8303.459292 80.604 12.9937
8363.629581 80.471 12.8978
8424.235888 80.318 12.9021
8485.281374 80.146 13.0337
8546.769221 79.960 13.3092
8608.702634 79.765 13.7352
8671.084842 79.564 14.3150
8733.919097 79.359 15.0521
8797.208675 79.154 15.9527
8860.956876 78.952 17.0226
8925.167022 78.759 18.2601
8989.842461 78.578 19.6529
9054.986566 78.415 21.1820
9120.602731 78.271 22.8277
9186.694378 78.149 24.5719
9253.264952 78.050 26.3983
9320.317925 77.978 28.2889
9387.856790 77.936 30.2195
9455.885071 77.925 32.1598
9524.406312 77.947 34.0764
9593.424086 78.003 35.9367
9662.941992 78.093 37.7111
9732.963653 78.217 39.3658
9803.492719 78.376 40.8571
9874.532869 78.566 42.1338
9946.087805 78.785 43.1437
10018.161257 79.026 43.8427
10090.756983 79.282 44.1972
10163.878768 79.545 44.1813
10237.530423 79.805 43.7745
10311.715789 80.053 42.9663
10386.438732 80.277 41.7629
10461.703149 80.465 40.1921
10537.512962 80.608 38.2993
10613.872125 80.698 36.1391
10690.784618 80.731 33.7697
10768.254450 80.702 31.2525
10846.285661 80.608 28.6538
10924.882318 80.449 26.0419
11004.048518 80.227 23.4807
11083.788390 79.944 21.0252
11164.106090 79.604 18.7210
11245.005805 79.213 16.6098
11326.491752 78.774 14.7323
11408.568180 78.294 13.1247
11491.239368 77.779 11.8128
11574.509626 77.237 10.8088
11658.383294 76.676 10.1161
11742.864745 76.102 9.7334
11827.958384 75.521 9.6549
11913.668646 74.940 9.8669
12000.000000 74.364 10.3478
12086.956947 73.799 11.0732
12174.544019 73.248 12.0208
12262.765784 72.715 13.1677
12351.626840 72.204 14.4832
12441.131819 71.717 15.9297
12531.285389 71.255 17.4703
12622.092249 70.821 19.0737
12713.557132 70.413 20.7116
12805.684808 70.032 22.3541
12898.480079 69.678 23.9714
12991.947783 69.347 25.5366
13086.092792 69.039 27.0239
13180.920015 68.752 28.4060
13276.434395 68.482 29.6608
13372.640911 68.224 30.7841
13469.544580 67.975 31.7952
13567.150452 67.734 32.7269
13665.463617 67.504 33.6026
13764.489200 67.294 34.4068
13864.232362 67.108 35.0666
13964.698305 66.946 35.4825
14065.892266 66.798 35.5922
14167.819519 66.650 35.3955
14270.485380 66.493 34.9341
14373.895200 66.320 34.2592
14478.054370 66.129 33.4128
14582.968320 65.919 32.4249
14688.642520 65.688 31.3211
14795.082478 65.436 30.1274
14902.293745 65.158 28.8800
15010.281908 64.851 27.6424
15119.052599 64.511 26.5198
15228.611486 64.144 25.6546
15338.964283 63.764 25.1985
15450.116741 63.401 25.2713
15562.074656 63.095 25.9321
15674.843864 62.889 27.1779
15788.430244 62.833 28.9484
15902.839718 62.976 31.0960
16018.078250 63.348 33.3016
16134.151848 63.940 35.0156
16251.066563 64.682 35.5795
16368.828491 65.468 34.5430
16487.443769 66.203 31.9140
16606.918584 66.832 28.0846
16727.259161 67.353 23.5292
16848.471777 67.786 18.5872
16970.562748 68.154 13.4261
17093.538442 68.470 8.0910
17217.405268 68.734 2.5714
17342.169684 68.935 -3.1460
17467.838194 69.058 -9.0443
17594.417350 69.087 -15.0621
17721.913751 69.011 -21.0964
17850.334044 68.822 -27.0167
17979.684923 68.522 -32.6792
18109.973131 68.113 -37.9395
18241.205462 67.608 -42.6630
18373.388756 67.024 -46.7351
18506.529905 66.388 -50.0822
18640.635849 65.737 -52.7184
18775.713581 65.108 -54.7946
18911.770141 64.530 -56.5936
19048.812624 64.000 -58.4208
19186.848172 63.490 -60.4467
19325.883983 62.962 -62.6402
19465.927305 62.396 -64.8335
19606.985439 61.806 -66.8237
19749.065738 61.240 -68.4377
19892.175609 60.782 -69.5582
20036.322514 60.523 -70.1263
