* Measurement data measured by REW V5.31
* Source: EXCL: Microphone (USB Sound Device        ), MICROPHONE (Master Volume), L, volume: 0.560
* Format: 256k Log Swept Sine, 1 sweep at 0.0 dBFS with no timing reference
* Dated: Apr 18, 2024 12:14:23 PM
* REW Settings:
*  C-weighting compensation: Off
*  Target level: 75.0 dB
* Note: KZ ZS10 Pro 2 1111 L
* Measurement: L KZ ZS10 Pro 2 1111
* Smoothing: 1/12 octave
* Frequency Step: 96 ppo
* Start Frequency: 0.36621094 Hz
*
* Freq(Hz) SPL(dB) Phase(degrees)
0.366211 76.923 -170.1057
0.368865 76.925 -170.1091
0.371538 76.927 -170.1142
0.374230 76.929 -170.1203
0.376942 76.932 -170.1273
0.379673 76.935 -170.1348
0.382424 76.939 -170.1427
0.385196 76.942 -170.1507
0.387987 76.946 -170.1589
0.390798 76.949 -170.1672
0.393630 76.953 -170.1756
0.396483 76.956 -170.1841
0.399356 76.960 -170.1927
0.402250 76.963 -170.2013
0.405165 76.967 -170.2101
0.408101 76.970 -170.2189
0.411058 76.974 -170.2279
0.414037 76.978 -170.2369
0.417037 76.982 -170.2461
0.420059 76.985 -170.2554
0.423103 76.989 -170.2647
0.426169 76.993 -170.2742
0.429257 76.997 -170.2839
0.432368 77.001 -170.2937
0.435501 77.004 -170.3036
0.438656 77.008 -170.3136
0.441835 77.012 -170.3238
0.445037 77.016 -170.3342
0.448262 77.020 -170.3447
0.451510 77.024 -170.3555
0.454782 77.028 -170.3663
0.458077 77.032 -170.3774
0.461397 77.036 -170.3887
0.464740 77.041 -170.4002
0.468108 77.045 -170.4118
0.471500 77.049 -170.4237
0.474917 77.053 -170.4359
0.478358 77.058 -170.4482
0.481825 77.062 -170.4609
0.485316 77.066 -170.4737
0.488833 77.071 -170.4869
0.492375 77.075 -170.5003
0.495943 77.079 -170.5140
0.499537 77.084 -170.5280
0.503157 77.088 -170.5423
0.506803 77.093 -170.5570
0.510475 77.097 -170.5720
0.514175 77.102 -170.5873
0.517900 77.107 -170.6030
0.521653 77.111 -170.6190
0.525434 77.116 -170.6355
0.529241 77.121 -170.6523
0.533076 77.125 -170.6696
0.536939 77.130 -170.6873
0.540830 77.135 -170.7055
0.544749 77.140 -170.7241
0.548696 77.145 -170.7432
0.552673 77.150 -170.7628
0.556677 77.155 -170.7830
0.560711 77.160 -170.8036
0.564774 77.165 -170.8249
0.568867 77.170 -170.8467
0.572989 77.175 -170.8691
0.577141 77.180 -170.8921
0.581324 77.185 -170.9158
0.585536 77.190 -170.9401
0.589779 77.196 -170.9651
0.594053 77.201 -170.9909
0.598358 77.206 -171.0174
0.602694 77.212 -171.0446
0.607061 77.217 -171.0727
0.611460 77.223 -171.1016
0.615891 77.228 -171.1313
0.620354 77.234 -171.1619
0.624849 77.239 -171.1935
0.629377 77.245 -171.2260
0.633938 77.250 -171.2595
0.638532 77.256 -171.2940
0.643159 77.262 -171.3296
0.647819 77.268 -171.3663
0.652514 77.273 -171.4042
0.657242 77.279 -171.4432
0.662005 77.285 -171.4835
0.666802 77.291 -171.5250
0.671634 77.297 -171.5679
0.676501 77.303 -171.6122
0.681403 77.309 -171.6578
0.686341 77.315 -171.7050
0.691314 77.321 -171.7538
0.696324 77.327 -171.8041
0.701370 77.333 -171.8562
0.706452 77.339 -171.9100
0.711571 77.344 -171.9658
0.716728 77.349 -172.0236
0.721921 77.353 -172.0835
0.727153 77.355 -172.1459
0.732422 77.355 -172.2110
0.737729 77.353 -172.2791
0.743075 77.349 -172.3505
0.748460 77.343 -172.4255
0.753883 77.337 -172.5041
0.759346 77.330 -172.5865
0.764849 77.322 -172.6728
0.770391 77.315 -172.7630
0.775974 77.307 -172.8570
0.781597 77.300 -172.9549
0.787261 77.292 -173.0567
0.792966 77.285 -173.1622
0.798712 77.277 -173.2716
0.804500 77.269 -173.3846
0.810329 77.262 -173.5014
0.816201 77.253 -173.6219
0.822116 77.245 -173.7459
0.828073 77.236 -173.8735
0.834074 77.227 -174.0047
0.840118 77.217 -174.1392
0.846206 77.207 -174.2772
0.852338 77.196 -174.4184
0.858514 77.185 -174.5630
0.864735 77.172 -174.7107
0.871001 77.159 -174.8615
0.877313 77.145 -175.0153
0.883670 77.130 -175.1721
0.890074 77.114 -175.3316
0.896524 77.097 -175.4940
0.903020 77.078 -175.6590
0.909564 77.058 -175.8265
0.916155 77.036 -175.9965
0.922794 77.013 -176.1688
0.929481 76.989 -176.3433
0.936216 76.962 -176.5198
0.943000 76.934 -176.6983
0.949834 76.903 -176.8786
0.956717 76.871 -177.0605
0.963649 76.836 -177.2440
0.970632 76.798 -177.4287
0.977666 76.758 -177.6146
0.984750 76.716 -177.8015
0.991886 76.670 -177.9892
0.999074 76.622 -178.1775
1.006314 76.570 -178.3661
1.013606 76.515 -178.5549
1.020951 76.457 -178.7437
1.028349 76.395 -178.9322
1.035801 76.329 -179.1201
1.043307 76.259 -179.3073
1.050867 76.185 -179.4935
1.058482 76.106 -179.6787
1.066152 76.023 -179.8627
1.073878 75.934 179.9543
1.081660 75.840 179.7717
1.089498 75.739 179.5887
1.097393 75.632 179.4038
1.105345 75.516 179.2152
1.113355 75.392 179.0209
1.121423 75.258 178.8190
1.129549 75.115 178.6083
1.137734 74.961 178.3878
1.145979 74.798 178.1566
1.154283 74.625 177.9146
1.162647 74.442 177.6614
1.171072 74.251 177.3968
1.179558 74.051 177.1207
1.188106 73.842 176.8331
1.196715 73.626 176.5338
1.205387 73.402 176.2228
1.214122 73.172 175.9001
1.222920 72.936 175.5658
1.231782 72.695 175.2197
1.240708 72.449 174.8619
1.249699 72.198 174.4926
1.258754 71.944 174.1116
1.267876 71.688 173.7192
1.277063 71.430 173.3156
1.286318 71.170 172.9008
1.295639 70.911 172.4753
1.305027 70.652 172.0392
1.314484 70.395 171.5930
1.324009 70.141 171.1371
1.333604 69.891 170.6723
1.343268 69.645 170.1991
1.353002 69.406 169.7185
1.362806 69.174 169.2315
1.372681 68.951 168.7393
1.382628 68.737 168.2433
1.392647 68.535 167.7454
1.402739 68.345 167.2472
1.412904 68.169 166.7508
1.423142 68.009 166.2580
1.433455 67.866 165.7700
1.443843 67.739 165.2868
1.454305 67.631 164.8063
1.464844 67.541 164.3232
1.475459 67.468 163.8284
1.486150 67.412 163.3096
1.496920 67.371 162.7520
1.507767 67.344 162.1378
1.518693 67.332 161.4447
1.529698 67.334 160.6419
1.540783 67.349 159.6837
1.551948 67.377 158.4955
1.563194 67.418 156.9459
1.574521 67.472 154.7759
1.585931 67.537 151.3983
1.597423 67.615 145.1564
1.608999 67.704 129.3815
1.620658 67.805 71.1513
1.632402 67.917 15.1320
1.644232 68.040 -0.0329
1.656146 68.173 -6.1724
1.668147 68.316 -9.5739
1.680235 68.469 -11.8244
1.692411 68.631 -13.4923
1.704675 68.801 -14.8295
1.717028 68.981 -15.9641
1.729470 69.168 -16.9686
1.742003 69.363 -17.8868
1.754626 69.565 -18.7468
1.767341 69.774 -19.5674
1.780147 69.990 -20.3613
1.793047 70.214 -21.1373
1.806040 70.446 -21.9008
1.819128 70.689 -22.6548
1.832310 70.944 -23.4000
1.845587 71.213 -24.1359
1.858961 71.499 -24.8610
1.872432 71.802 -25.5740
1.886001 72.124 -26.2742
1.899667 72.462 -26.9614
1.913433 72.818 -27.6359
1.927299 73.188 -28.2981
1.941265 73.573 -28.9489
1.955332 73.969 -29.5891
1.969501 74.375 -30.2197
1.983773 74.789 -30.8417
1.998148 75.210 -31.4561
2.012627 75.634 -32.0639
2.027212 76.061 -32.6663
2.041902 76.487 -33.2641
2.056698 76.911 -33.8586
2.071602 77.330 -34.4507
2.086614 77.742 -35.0416
2.101734 78.144 -35.6323
2.116964 78.535 -36.2241
2.132304 78.913 -36.8182
2.147756 79.276 -37.4159
2.163320 79.622 -38.0185
2.178996 79.951 -38.6275
2.194786 80.264 -39.2442
2.210690 80.560 -39.8696
2.226710 80.842 -40.5043
2.242845 81.110 -41.1479
2.259098 81.366 -41.7998
2.275468 81.610 -42.4586
2.291957 81.844 -43.1227
2.308566 82.068 -43.7909
2.325295 82.282 -44.4615
2.342145 82.489 -45.1332
2.359117 82.688 -45.8049
2.376212 82.879 -46.4755
2.393431 83.065 -47.1439
2.410775 83.246 -47.8096
2.428244 83.422 -48.4718
2.445840 83.594 -49.1301
2.463564 83.764 -49.7845
2.481416 83.932 -50.4349
2.499397 84.099 -51.0817
2.517509 84.264 -51.7260
2.535752 84.429 -52.3689
2.554127 84.593 -53.0128
2.572635 84.755 -53.6599
2.591277 84.915 -54.3127
2.610055 85.072 -54.9728
2.628968 85.225 -55.6406
2.648019 85.373 -56.3160
2.667208 85.517 -56.9977
2.686535 85.657 -57.6843
2.706003 85.793 -58.3740
2.725612 85.925 -59.0650
2.745363 86.054 -59.7554
2.765257 86.179 -60.4433
2.785295 86.301 -61.1270
2.805478 86.420 -61.8050
2.825808 86.537 -62.4758
2.846285 86.651 -63.1386
2.866910 86.763 -63.7927
2.887685 86.873 -64.4385
2.908611 86.982 -65.0769
2.929688 87.088 -65.7100
2.950917 87.191 -66.3403
2.972301 87.291 -66.9703
2.993839 87.389 -67.6017
3.015534 87.483 -68.2352
3.037386 87.573 -68.8704
3.059396 87.661 -69.5065
3.081565 87.745 -70.1421
3.103896 87.827 -70.7754
3.126388 87.906 -71.4045
3.149043 87.983 -72.0275
3.171862 88.057 -72.6425
3.194847 88.129 -73.2476
3.217998 88.200 -73.8413
3.241317 88.268 -74.4227
3.264805 88.336 -74.9913
3.288463 88.401 -75.5477
3.312293 88.464 -76.0934
3.336295 88.525 -76.6301
3.360471 88.584 -77.1593
3.384822 88.640 -77.6820
3.409350 88.693 -78.1987
3.434056 88.745 -78.7092
3.458940 88.794 -79.2128
3.484005 88.841 -79.7085
3.509252 88.887 -80.1952
3.534681 88.932 -80.6716
3.560295 88.976 -81.1365
3.586094 89.019 -81.5883
3.612081 89.062 -82.0261
3.638255 89.104 -82.4491
3.664620 89.145 -82.8568
3.691175 89.186 -83.2495
3.717923 89.226 -83.6276
3.744864 89.265 -83.9921
3.772001 89.303 -84.3438
3.799335 89.340 -84.6835
3.826866 89.376 -85.0123
3.854597 89.413 -85.3309
3.882529 89.449 -85.6399
3.910664 89.486 -85.9398
3.939002 89.523 -86.2310
3.967546 89.562 -86.5134
3.996296 89.601 -86.7869
4.025255 89.642 -87.0507
4.054423 89.684 -87.3042
4.083804 89.727 -87.5471
4.113396 89.770 -87.7798
4.143204 89.815 -88.0030
4.173227 89.861 -88.2184
4.203468 89.908 -88.4280
4.233928 89.956 -88.6340
4.264609 90.005 -88.8387
4.295512 90.056 -89.0440
4.326639 90.108 -89.2516
4.357992 90.162 -89.4626
4.389572 90.217 -89.6772
4.421380 90.274 -89.8950
4.453419 90.332 -90.1156
4.485691 90.393 -90.3389
4.518196 90.455 -90.5652
4.550936 90.518 -90.7958
4.583914 90.582 -91.0321
4.617131 90.648 -91.2760
4.650589 90.714 -91.5292
4.684289 90.780 -91.7936
4.718233 90.847 -92.0703
4.752424 90.915 -92.3603
4.786862 90.982 -92.6637
4.821549 91.051 -92.9802
4.856488 91.119 -93.3094
4.891680 91.188 -93.6506
4.927127 91.256 -94.0035
4.962831 91.325 -94.3677
4.998794 91.393 -94.7430
5.035017 91.460 -95.1298
5.071503 91.526 -95.5280
5.108253 91.591 -95.9382
5.145270 91.655 -96.3608
5.182555 91.717 -96.7960
5.220110 91.778 -97.2434
5.257937 91.837 -97.7019
5.296038 91.895 -98.1700
5.334415 91.952 -98.6462
5.373071 92.007 -99.1287
5.412006 92.060 -99.6161
5.451224 92.111 -100.1074
5.490725 92.161 -100.6025
5.530514 92.208 -101.1014
5.570590 92.253 -101.6042
5.610957 92.296 -102.1105
5.651616 92.337 -102.6193
5.692570 92.377 -103.1288
5.733821 92.414 -103.6373
5.775370 92.450 -104.1429
5.817221 92.485 -104.6442
5.859375 92.518 -105.1404
5.901834 92.550 -105.6311
5.944602 92.580 -106.1165
5.987679 92.608 -106.5966
6.031068 92.636 -107.0712
6.074771 92.663 -107.5396
6.118792 92.689 -108.0011
6.163131 92.715 -108.4550
6.207792 92.740 -108.9005
6.252776 92.766 -109.3373
6.298086 92.791 -109.7654
6.343725 92.817 -110.1853
6.389694 92.842 -110.5978
6.435996 92.869 -111.0039
6.482634 92.895 -111.4044
6.529610 92.923 -111.8002
6.576926 92.952 -112.1917
6.624585 92.982 -112.5792
6.672590 93.013 -112.9632
6.720942 93.045 -113.3444
6.769645 93.079 -113.7241
6.818700 93.113 -114.1039
6.868111 93.149 -114.4854
6.917881 93.186 -114.8698
6.968010 93.224 -115.2583
7.018504 93.263 -115.6512
7.069362 93.303 -116.0492
7.120590 93.345 -116.4525
7.172189 93.387 -116.8618
7.224161 93.429 -117.2780
7.276511 93.472 -117.7017
7.329239 93.515 -118.1334
7.382350 93.558 -118.5734
7.435845 93.600 -119.0214
7.489729 93.643 -119.4770
7.544002 93.685 -119.9394
7.598669 93.727 -120.4078
7.653732 93.768 -120.8820
7.709194 93.808 -121.3611
7.765058 93.847 -121.8448
7.821327 93.885 -122.3324
7.878004 93.922 -122.8226
7.935091 93.958 -123.3140
7.992592 93.992 -123.8053
8.050510 94.026 -124.2952
8.108847 94.058 -124.7830
8.167607 94.090 -125.2681
8.226793 94.120 -125.7496
8.286408 94.149 -126.2266
8.346454 94.178 -126.6983
8.406936 94.206 -127.1637
8.467856 94.234 -127.6224
8.529218 94.262 -128.0741
8.591024 94.289 -128.5189
8.653278 94.316 -128.9569
8.715983 94.343 -129.3884
8.779143 94.371 -129.8136
8.842760 94.399 -130.2326
8.906839 94.427 -130.6461
8.971381 94.456 -131.0547
9.036392 94.485 -131.4595
9.101873 94.515 -131.8613
9.167829 94.546 -132.2609
9.234263 94.577 -132.6592
9.301178 94.608 -133.0566
9.368578 94.640 -133.4540
9.436467 94.673 -133.8521
9.504847 94.705 -134.2513
9.573723 94.737 -134.6524
9.643099 94.769 -135.0554
9.712976 94.799 -135.4603
9.783361 94.828 -135.8670
9.854255 94.854 -136.2754
9.925663 94.878 -136.6851
9.997588 94.898 -137.0959
10.070035 94.916 -137.5073
10.143007 94.931 -137.9186
10.216507 94.943 -138.3290
10.290540 94.953 -138.7379
10.365109 94.961 -139.1448
10.440219 94.967 -139.5493
10.515873 94.972 -139.9507
10.592076 94.975 -140.3486
10.668830 94.978 -140.7427
10.746141 94.979 -141.1328
10.824012 94.980 -141.5190
10.902447 94.981 -141.9014
10.981451 94.981 -142.2800
11.061027 94.981 -142.6553
11.141180 94.980 -143.0275
11.221913 94.980 -143.3971
11.303232 94.978 -143.7646
11.385140 94.977 -144.1305
11.467641 94.975 -144.4952
11.550741 94.973 -144.8591
11.634442 94.971 -145.2225
11.718750 94.968 -145.5854
11.803669 94.965 -145.9483
11.889203 94.963 -146.3110
11.975357 94.960 -146.6733
12.062136 94.956 -147.0352
12.149543 94.952 -147.3963
12.237583 94.948 -147.7565
12.326262 94.944 -148.1154
12.415583 94.939 -148.4729
12.505552 94.933 -148.8286
12.596172 94.927 -149.1826
12.687449 94.921 -149.5349
12.779387 94.914 -149.8857
12.871992 94.907 -150.2351
12.965268 94.900 -150.5836
13.059220 94.893 -150.9317
13.153852 94.886 -151.2801
13.249170 94.880 -151.6294
13.345179 94.874 -151.9802
13.441884 94.868 -152.3332
13.539289 94.862 -152.6890
13.637401 94.857 -153.0479
13.736223 94.852 -153.4104
13.835761 94.846 -153.7766
13.936021 94.840 -154.1463
14.037007 94.834 -154.5195
14.138725 94.828 -154.8957
14.241180 94.820 -155.2745
14.344377 94.813 -155.6552
14.448323 94.804 -156.0373
14.553021 94.795 -156.4202
14.658478 94.786 -156.8033
14.764700 94.776 -157.1861
14.871691 94.766 -157.5684
14.979457 94.757 -157.9499
15.088005 94.747 -158.3306
15.197339 94.737 -158.7107
15.307465 94.728 -159.0902
15.418389 94.719 -159.4696
15.530117 94.710 -159.8491
15.642655 94.702 -160.2289
15.756008 94.693 -160.6093
15.870182 94.685 -160.9904
15.985184 94.676 -161.3722
16.101019 94.668 -161.7543
16.217694 94.659 -162.1365
16.335214 94.650 -162.5182
16.453586 94.641 -162.8990
16.572815 94.632 -163.2782
16.692909 94.624 -163.6552
16.813872 94.615 -164.0295
16.935713 94.607 -164.4006
17.058436 94.599 -164.7683
17.182048 94.591 -165.1325
17.306556 94.584 -165.4932
17.431967 94.576 -165.8506
17.558286 94.570 -166.2050
17.685521 94.563 -166.5566
17.813677 94.556 -166.9060
17.942762 94.550 -167.2534
18.072783 94.543 -167.5989
18.203746 94.536 -167.9429
18.335658 94.530 -168.2853
18.468526 94.523 -168.6260
18.602356 94.516 -168.9651
18.737156 94.508 -169.3021
18.872934 94.501 -169.6371
19.009695 94.493 -169.9697
19.147447 94.485 -170.3000
19.286197 94.476 -170.6277
19.425953 94.468 -170.9528
19.566721 94.458 -171.2754
19.708510 94.449 -171.5955
19.851326 94.438 -171.9130
19.995177 94.427 -172.2280
20.140070 94.416 -172.5406
20.286013 94.404 -172.8507
20.433014 94.391 -173.1584
20.581080 94.378 -173.4639
20.730219 94.364 -173.7672
20.880439 94.350 -174.0687
21.031747 94.336 -174.3686
21.184152 94.321 -174.6675
21.337661 94.307 -174.9658
21.492282 94.293 -175.2642
21.648024 94.278 -175.5632
21.804895 94.264 -175.8632
21.962902 94.249 -176.1644
22.122054 94.233 -176.4672
22.282360 94.218 -176.7714
22.443827 94.202 -177.0769
22.606464 94.185 -177.3834
22.770280 94.168 -177.6905
22.935283 94.151 -177.9980
23.101481 94.133 -178.3057
23.268884 94.116 -178.6133
23.437500 94.098 -178.9209
23.607338 94.079 -179.2285
23.778406 94.061 -179.5361
23.950714 94.043 -179.8440
24.124271 94.024 179.8480
24.299086 94.005 179.5398
24.475167 93.987 179.2316
24.652524 93.968 178.9236
24.831166 93.949 178.6161
25.011103 93.930 178.3097
25.192344 93.912 178.0045
25.374898 93.893 177.7010
25.558775 93.874 177.3996
25.743984 93.855 177.1005
25.930536 93.836 176.8040
26.118439 93.818 176.5103
26.307704 93.799 176.2195
26.498341 93.780 175.9319
26.690359 93.761 175.6475
26.883768 93.742 175.3663
27.078579 93.723 175.0884
27.274801 93.703 174.8137
27.472446 93.684 174.5421
27.671522 93.664 174.2734
27.872042 93.644 174.0075
28.074014 93.624 173.7444
28.277450 93.603 173.4841
28.482360 93.582 173.2262
28.688755 93.560 172.9707
28.896645 93.538 172.7172
29.106042 93.516 172.4655
29.316957 93.493 172.2149
29.529400 93.470 171.9652
29.743382 93.447 171.7161
29.958915 93.423 171.4672
30.176009 93.399 171.2188
30.394677 93.375 170.9707
30.614929 93.350 170.7232
30.836778 93.325 170.4763
31.060234 93.300 170.2300
31.285309 93.274 169.9839
31.512015 93.249 169.7375
31.740364 93.223 169.4905
31.970368 93.198 169.2423
32.202039 93.172 168.9930
32.435388 93.146 168.7428
32.670428 93.119 168.4922
32.907171 93.093 168.2419
33.145630 93.066 167.9927
33.385817 93.039 167.7449
33.627745 93.012 167.4991
33.871425 92.986 167.2551
34.116871 92.959 167.0129
34.364096 92.933 166.7724
34.613113 92.906 166.5338
34.863934 92.880 166.2972
35.116572 92.854 166.0634
35.371041 92.828 165.8325
35.627354 92.802 165.6047
35.885525 92.776 165.3795
36.145566 92.750 165.1559
36.407492 92.724 164.9326
36.671316 92.699 164.7084
36.937051 92.673 164.4824
37.204712 92.647 164.2550
37.474313 92.620 164.0273
37.745867 92.592 163.8015
38.019389 92.562 163.5798
38.294893 92.532 163.3644
38.572394 92.502 163.1558
38.851905 92.471 162.9534
39.133442 92.441 162.7554
39.417019 92.412 162.5591
39.702651 92.382 162.3621
39.990353 92.353 162.1630
40.280140 92.323 161.9620
40.572026 92.293 161.7604
40.866028 92.262 161.5601
41.162160 92.230 161.3626
41.460438 92.198 161.1686
41.760877 92.166 160.9780
42.063494 92.134 160.7898
42.368303 92.102 160.6031
42.675322 92.069 160.4175
42.984565 92.037 160.2329
43.296048 92.004 160.0498
43.609789 91.971 159.8687
43.925804 91.937 159.6893
44.244108 91.904 159.5115
44.564719 91.870 159.3345
44.887654 91.836 159.1582
45.212928 91.802 158.9827
45.540560 91.768 158.8082
45.870565 91.734 158.6354
46.202962 91.699 158.4644
46.537768 91.665 158.2951
46.875000 91.630 158.1275
47.214676 91.595 157.9617
47.556813 91.561 157.7979
47.901429 91.526 157.6367
48.248542 91.492 157.4786
48.598171 91.458 157.3239
48.950334 91.424 157.1723
49.305048 91.390 157.0238
49.662333 91.357 156.8778
50.022206 91.324 156.7335
50.384688 91.291 156.5900
50.749796 91.258 156.4458
51.117550 91.225 156.3002
51.487969 91.191 156.1536
51.861072 91.156 156.0076
52.236879 91.120 155.8656
52.615409 91.083 155.7305
52.996681 91.045 155.6041
53.380717 91.008 155.4857
53.767536 90.972 155.3726
54.157158 90.936 155.2611
54.549603 90.902 155.1483
54.944892 90.868 155.0318
55.343045 90.834 154.9105
55.744084 90.801 154.7832
56.148028 90.768 154.6495
56.554900 90.735 154.5103
56.964720 90.700 154.3685
57.377510 90.665 154.2291
57.793291 90.629 154.0970
58.212085 90.592 153.9744
58.633914 90.557 153.8595
59.058799 90.523 153.7476
59.486764 90.490 153.6337
59.917829 90.457 153.5159
60.352019 90.423 153.3963
60.789354 90.387 153.2791
61.229859 90.351 153.1680
61.673556 90.314 153.0641
62.120468 90.276 152.9655
62.570618 90.239 152.8694
63.024031 90.201 152.7735
63.480729 90.163 152.6774
63.940736 90.123 152.5822
64.404077 90.083 152.4896
64.870776 90.042 152.4009
65.340856 90.000 152.3167
65.814343 89.958 152.2369
66.291261 89.917 152.1610
66.771635 89.875 152.0882
67.255489 89.834 152.0176
67.742850 89.794 151.9485
68.233743 89.753 151.8809
68.728193 89.713 151.8151
69.226226 89.673 151.7515
69.727867 89.633 151.6895
70.233144 89.594 151.6279
70.742083 89.554 151.5660
71.254709 89.514 151.5065
71.771050 89.473 151.4533
72.291132 89.431 151.4104
72.814984 89.389 151.3787
73.342631 89.348 151.3578
73.874102 89.308 151.3467
74.409424 89.270 151.3422
74.948626 89.235 151.3365
75.491734 89.203 151.3184
76.038779 89.172 151.2792
76.589787 89.141 151.2177
77.144788 89.109 151.1382
77.703811 89.076 151.0457
78.266885 89.042 150.9440
78.834039 89.005 150.8402
79.405303 88.965 150.7463
79.980706 88.924 150.6750
80.560280 88.884 150.6294
81.144053 88.847 150.5998
81.732056 88.812 150.5710
82.324320 88.778 150.5340
82.920876 88.742 150.4910
83.521755 88.704 150.4502
84.126988 88.664 150.4171
84.736607 88.623 150.3926
85.350643 88.580 150.3758
85.969129 88.538 150.3656
86.592097 88.495 150.3599
87.219579 88.454 150.3552
87.851608 88.414 150.3478
88.488217 88.377 150.3355
89.129439 88.341 150.3180
89.775308 88.307 150.2962
90.425856 88.273 150.2728
91.081119 88.241 150.2515
91.741131 88.207 150.2367
92.405925 88.173 150.2313
93.075536 88.138 150.2362
93.750000 88.101 150.2505
94.429351 88.062 150.2720
95.113625 88.021 150.2980
95.802858 87.977 150.3254
96.497085 87.933 150.3513
97.196342 87.887 150.3732
97.900667 87.842 150.3897
98.610096 87.799 150.3992
99.324665 87.757 150.4011
100.044413 87.717 150.3978
100.769376 87.679 150.3935
101.499592 87.641 150.3928
102.235100 87.604 150.4003
102.975938 87.566 150.4205
103.722144 87.529 150.4547
104.473757 87.492 150.4985
105.230817 87.455 150.5444
105.993363 87.419 150.5862
106.761435 87.384 150.6206
107.535072 87.350 150.6454
108.314315 87.318 150.6602
109.099206 87.287 150.6664
109.889783 87.257 150.6675
110.686090 87.227 150.6677
111.488167 87.196 150.6686
112.296056 87.164 150.6661
113.109800 87.130 150.6511
113.929440 87.093 150.6130
114.755020 87.052 150.5437
115.586582 87.007 150.4392
116.424170 86.958 150.3025
117.267827 86.905 150.1465
118.117598 86.848 150.0005
118.973527 86.789 149.9139
119.835658 86.733 149.9370
120.704037 86.686 150.0802
121.578708 86.654 150.3008
122.459718 86.632 150.5424
123.347111 86.615 150.7726
124.240935 86.595 150.9839
125.141236 86.570 151.1771
126.048061 86.538 151.3505
126.961458 86.501 151.4983
127.881473 86.461 151.6171
128.808154 86.420 151.7090
129.741551 86.379 151.7800
130.681712 86.339 151.8385
131.628686 86.302 151.8926
132.582521 86.267 151.9489
133.543269 86.233 152.0118
134.510979 86.199 152.0830
135.485701 86.164 152.1621
136.467486 86.126 152.2482
137.456386 86.088 152.3403
138.452451 86.049 152.4372
139.455735 86.009 152.5364
140.466288 85.970 152.6364
141.484165 85.930 152.7381
142.509418 85.891 152.8439
143.542100 85.852 152.9570
144.582265 85.813 153.0798
145.629968 85.773 153.2141
146.685262 85.733 153.3605
147.748204 85.693 153.5181
148.818849 85.653 153.6843
149.897251 85.612 153.8550
150.983469 85.571 154.0250
152.077557 85.528 154.1929
153.179574 85.486 154.3627
154.289576 85.444 154.5413
155.407622 85.405 154.7327
156.533770 85.371 154.9335
157.668078 85.344 155.1339
158.810606 85.323 155.3247
159.961413 85.306 155.5015
161.120559 85.291 155.6637
162.288105 85.276 155.8134
163.464112 85.260 155.9531
164.648640 85.242 156.0880
165.841752 85.221 156.2242
167.043510 85.199 156.3667
168.253976 85.177 156.5139
169.473213 85.156 156.6576
170.701286 85.136 156.7890
171.938258 85.116 156.9045
173.184194 85.096 157.0038
174.439158 85.075 157.0877
175.703216 85.052 157.1591
176.976434 85.027 157.2214
178.258878 85.001 157.2780
179.550615 84.973 157.3318
180.851713 84.944 157.3859
182.162239 84.913 157.4434
183.482262 84.881 157.5065
184.811850 84.848 157.5752
186.151073 84.815 157.6489
187.500000 84.783 157.7264
188.858702 84.751 157.8064
190.227250 84.719 157.8871
191.605715 84.688 157.9691
192.994169 84.656 158.0558
194.392685 84.623 158.1518
195.801334 84.589 158.2606
197.220191 84.555 158.3832
198.649330 84.521 158.5182
200.088825 84.488 158.6630
201.538751 84.455 158.8155
202.999184 84.424 158.9733
204.470200 84.394 159.1333
205.951875 84.366 159.2921
207.444287 84.338 159.4471
208.947514 84.310 159.5975
210.461634 84.282 159.7437
211.986726 84.252 159.8878
213.522869 84.221 160.0335
215.070144 84.189 160.1857
216.628631 84.155 160.3490
218.198411 84.122 160.5253
219.779567 84.089 160.7122
221.372180 84.058 160.9034
222.976334 84.028 161.0927
224.592112 83.999 161.2758
226.219600 83.971 161.4520
227.858880 83.944 161.6227
229.510039 83.917 161.7911
231.173164 83.890 161.9615
232.848340 83.862 162.1367
234.535655 83.835 162.3164
236.235197 83.809 162.4977
237.947054 83.783 162.6780
239.671317 83.758 162.8565
241.408074 83.732 163.0344
243.157416 83.706 163.2155
244.919435 83.680 163.4055
246.694223 83.653 163.6103
248.481871 83.625 163.8322
250.282473 83.597 164.0682
252.096123 83.567 164.3107
253.922915 83.539 164.5501
255.762945 83.511 164.7794
257.616309 83.486 164.9957
259.483103 83.463 165.1991
261.363424 83.441 165.3904
263.257372 83.420 165.5729
265.165043 83.398 165.7524
267.086538 83.375 165.9360
269.021957 83.350 166.1295
270.971401 83.326 166.3355
272.934972 83.303 166.5533
274.912771 83.280 166.7803
276.904902 83.259 167.0140
278.911469 83.240 167.2518
280.932577 83.224 167.4908
282.968330 83.209 167.7271
285.018835 83.196 167.9551
287.084199 83.184 168.1689
289.164530 83.174 168.3637
291.259935 83.162 168.5381
293.370525 83.148 168.6962
295.496408 83.132 168.8467
297.637697 83.112 168.9993
299.794503 83.091 169.1614
301.966937 83.068 169.3362
304.155114 83.046 169.5234
306.359147 83.023 169.7205
308.579152 83.001 169.9241
310.815244 82.978 170.1310
313.067539 82.956 170.3391
315.336156 82.933 170.5479
317.621211 82.909 170.7601
319.922826 82.885 170.9794
322.241118 82.860 171.2079
324.576210 82.837 171.4453
326.928223 82.815 171.6891
329.297280 82.794 171.9365
331.683504 82.775 172.1841
334.087019 82.756 172.4293
336.507952 82.738 172.6705
338.946427 82.720 172.9076
341.402572 82.702 173.1428
343.876516 82.683 173.3791
346.368387 82.664 173.6190
348.878315 82.644 173.8630
351.406431 82.624 174.1102
353.952867 82.605 174.3591
356.517756 82.586 174.6083
359.101230 82.567 174.8577
361.703426 82.549 175.1072
364.324478 82.531 175.3575
366.964523 82.513 175.6094
369.623699 82.495 175.8634
372.302145 82.477 176.1198
375.000000 82.459 176.3783
377.717405 82.442 176.6387
380.454501 82.425 176.9010
383.211431 82.408 177.1649
385.988339 82.392 177.4300
388.785369 82.376 177.6959
391.602668 82.360 177.9620
394.440383 82.345 178.2283
397.298660 82.330 178.4950
400.177650 82.316 178.7628
403.077502 82.302 179.0311
405.998368 82.288 179.2989
408.940400 82.275 179.5654
411.903750 82.261 179.8320
414.888575 82.246 -179.8979
417.895028 82.231 -179.6212
420.923268 82.216 -179.3364
423.973452 82.202 -179.0435
427.045738 82.190 -178.7441
430.140287 82.179 -178.4417
433.257261 82.170 -178.1396
436.396822 82.162 -177.8403
439.559133 82.155 -177.5442
442.744360 82.149 -177.2519
445.952668 82.145 -176.9656
449.184225 82.141 -176.6903
452.439199 82.138 -176.4319
455.717760 82.134 -176.1932
459.020079 82.128 -175.9701
462.346327 82.119 -175.7518
465.696680 82.108 -175.5273
469.071310 82.094 -175.2892
472.470394 82.080 -175.0362
475.894109 82.065 -174.7709
479.342634 82.051 -174.4991
482.816148 82.038 -174.2268
486.314833 82.024 -173.9559
489.838871 82.009 -173.6819
493.388445 81.993 -173.3967
496.963741 81.978 -173.0963
500.564945 81.964 -172.7836
504.192245 81.951 -172.4669
507.845830 81.940 -172.1538
511.525890 81.930 -171.8479
515.232618 81.919 -171.5480
518.966206 81.909 -171.2491
522.726849 81.897 -170.9454
526.514743 81.886 -170.6318
530.330086 81.875 -170.3064
534.173076 81.864 -169.9725
538.043915 81.855 -169.6357
541.942803 81.847 -169.2995
545.869944 81.840 -168.9630
549.825542 81.833 -168.6252
553.809805 81.828 -168.2872
557.822939 81.823 -167.9512
561.865154 81.819 -167.6188
565.936660 81.815 -167.2897
570.037671 81.810 -166.9612
574.168399 81.804 -166.6306
578.329060 81.798 -166.2960
582.519870 81.791 -165.9578
586.741049 81.785 -165.6158
590.992817 81.779 -165.2678
595.275394 81.773 -164.9114
599.589005 81.768 -164.5471
603.933874 81.763 -164.1783
608.310228 81.759 -163.8088
612.718295 81.756 -163.4398
617.158304 81.752 -163.0691
621.630488 81.749 -162.6912
626.135079 81.745 -162.3002
630.672311 81.742 -161.8938
635.242423 81.741 -161.4759
639.845651 81.743 -161.0522
644.482237 81.747 -160.6250
649.152421 81.753 -160.1937
653.856447 81.761 -159.7607
658.594560 81.772 -159.3341
663.367008 81.786 -158.9253
668.174039 81.800 -158.5419
673.015903 81.814 -158.1826
677.892854 81.826 -157.8380
682.805145 81.835 -157.4984
687.753032 81.843 -157.1566
692.736774 81.849 -156.8074
697.756631 81.854 -156.4464
702.812863 81.860 -156.0719
707.905735 81.866 -155.6859
713.035511 81.873 -155.2925
718.202461 81.881 -154.8954
723.406852 81.889 -154.4960
728.648956 81.898 -154.0937
733.929047 81.908 -153.6879
739.247399 81.918 -153.2783
744.604290 81.928 -152.8646
750.000000 81.940 -152.4471
755.434809 81.952 -152.0256
760.909001 81.965 -151.5997
766.422861 81.979 -151.1693
771.976677 81.994 -150.7349
777.570739 82.011 -150.2980
783.205337 82.029 -149.8598
788.880766 82.048 -149.4201
794.597321 82.069 -148.9777
800.355301 82.092 -148.5328
806.155005 82.117 -148.0903
811.996736 82.146 -147.6588
817.880799 82.177 -147.2490
823.807501 82.209 -146.8694
829.777150 82.240 -146.5232
835.790057 82.267 -146.2021
841.846536 82.288 -145.8855
847.946903 82.305 -145.5502
854.091476 82.320 -145.1841
860.280575 82.335 -144.7903
866.514523 82.351 -144.3790
872.793644 82.369 -143.9568
879.118267 82.388 -143.5253
885.488720 82.409 -143.0834
891.905336 82.431 -142.6288
898.368450 82.456 -142.1605
904.878398 82.484 -141.6815
911.435520 82.516 -141.1993
918.040157 82.551 -140.7228
924.692655 82.590 -140.2588
931.393359 82.632 -139.8112
938.142619 82.675 -139.3824
944.940787 82.719 -138.9720
951.788218 82.764 -138.5768
958.685268 82.808 -138.1924
965.632296 82.853 -137.8145
972.629666 82.897 -137.4391
979.677741 82.943 -137.0644
986.776890 82.989 -136.6901
993.927482 83.035 -136.3146
1001.129891 83.081 -135.9339
1008.384491 83.129 -135.5442
1015.691660 83.178 -135.1472
1023.051781 83.231 -134.7483
1030.465236 83.287 -134.3557
1037.932411 83.347 -133.9813
1045.453698 83.410 -133.6373
1053.029486 83.474 -133.3292
1060.660172 83.537 -133.0530
1068.346153 83.598 -132.7995
1076.087829 83.657 -132.5586
1083.885605 83.715 -132.3238
1091.739887 83.771 -132.0930
1099.651084 83.827 -131.8662
1107.619609 83.882 -131.6432
1115.645878 83.936 -131.4230
1123.730308 83.989 -131.2046
1131.873321 84.041 -130.9868
1140.075341 84.094 -130.7688
1148.336797 84.146 -130.5504
1156.658119 84.198 -130.3308
1165.039741 84.251 -130.1085
1173.482099 84.304 -129.8816
1181.985634 84.359 -129.6501
1190.550789 84.417 -129.4201
1199.178011 84.478 -129.2028
1207.867749 84.541 -129.0099
1216.620457 84.604 -128.8477
1225.436590 84.666 -128.7123
1234.316609 84.725 -128.5952
1243.260976 84.781 -128.4872
1252.270157 84.834 -128.3805
1261.344623 84.884 -128.2709
1270.484846 84.933 -128.1571
1279.691303 84.980 -128.0374
1288.964474 85.026 -127.9101
1298.304842 85.072 -127.7756
1307.712894 85.117 -127.6367
1317.189120 85.163 -127.4966
1326.734016 85.209 -127.3576
1336.348077 85.255 -127.2195
1346.031806 85.300 -127.0796
1355.785708 85.347 -126.9341
1365.610290 85.394 -126.7788
1375.506065 85.442 -126.6083
1385.473549 85.492 -126.4174
1395.513261 85.545 -126.2043
1405.625726 85.601 -125.9747
1415.811469 85.663 -125.7408
1426.071023 85.728 -125.5179
1436.404921 85.795 -125.3158
1446.813703 85.862 -125.1351
1457.297912 85.928 -124.9705
1467.858093 85.992 -124.8151
1478.494798 86.054 -124.6637
1489.208581 86.113 -124.5123
1500.000000 86.169 -124.3573
1510.869618 86.221 -124.1955
1521.818002 86.269 -124.0235
1532.845723 86.314 -123.8384
1543.953355 86.355 -123.6382
1555.141477 86.394 -123.4226
1566.410674 86.435 -123.1963
1577.761531 86.477 -122.9702
1589.194642 86.522 -122.7586
1600.710601 86.568 -122.5704
1612.310010 86.615 -122.4066
1623.993473 86.661 -122.2625
1635.761599 86.705 -122.1312
1647.615002 86.748 -122.0071
1659.554299 86.791 -121.8857
1671.580114 86.832 -121.7638
1683.693072 86.874 -121.6412
1695.893807 86.916 -121.5203
1708.182952 86.957 -121.4034
1720.561150 86.996 -121.2905
1733.029045 87.034 -121.1781
1745.587288 87.069 -121.0599
1758.236533 87.102 -120.9280
1770.977440 87.134 -120.7758
1783.810673 87.168 -120.6031
1796.736900 87.205 -120.4187
1809.756796 87.246 -120.2372
1822.871040 87.290 -120.0698
1836.080315 87.336 -119.9205
1849.385310 87.382 -119.7880
1862.786718 87.430 -119.6688
1876.285239 87.478 -119.5586
1889.881575 87.527 -119.4521
1903.576436 87.578 -119.3441
1917.370535 87.632 -119.2292
1931.264593 87.691 -119.1044
1945.259332 87.757 -118.9709
1959.355483 87.829 -118.8381
1973.553781 87.907 -118.7197
1987.854965 87.989 -118.6259
2002.259781 88.073 -118.5599
2016.768981 88.156 -118.5190
2031.383320 88.239 -118.4987
2046.103561 88.320 -118.4934
2060.930471 88.399 -118.4989
2075.864823 88.477 -118.5133
2090.907395 88.553 -118.5358
2106.058972 88.626 -118.5641
2121.320344 88.696 -118.5933
2136.692305 88.764 -118.6149
2152.175658 88.829 -118.6207
2167.771210 88.894 -118.6084
2183.479774 88.959 -118.5846
2199.302169 89.026 -118.5610
2215.239219 89.094 -118.5473
2231.291755 89.162 -118.5472
2247.460615 89.230 -118.5598
2263.746641 89.295 -118.5806
2280.150683 89.358 -118.6019
2296.673595 89.420 -118.6145
2313.316238 89.481 -118.6101
2330.079481 89.542 -118.5853
2346.964198 89.606 -118.5453
2363.971268 89.672 -118.5002
2381.101578 89.741 -118.4575
2398.356022 89.810 -118.4185
2415.735498 89.880 -118.3792
2433.240913 89.950 -118.3331
2450.873180 90.021 -118.2734
2468.633217 90.093 -118.1954
2486.521951 90.167 -118.0948
2504.540314 90.246 -117.9668
2522.689246 90.331 -117.8063
2540.969692 90.425 -117.6131
2559.382606 90.533 -117.4000
2577.928947 90.656 -117.1945
2596.609683 90.796 -117.0325
2615.425787 90.950 -116.9496
2634.378241 91.115 -116.9747
2653.468031 91.287 -117.1257
2672.696154 91.460 -117.4072
2692.063613 91.631 -117.8119
2711.571415 91.796 -118.3260
2731.220579 91.955 -118.9367
2751.012130 92.105 -119.6332
2770.947098 92.245 -120.4047
2791.026522 92.375 -121.2390
2811.251451 92.493 -122.1233
2831.622938 92.602 -123.0463
2852.142045 92.699 -123.9995
2872.809842 92.786 -124.9760
2893.627406 92.863 -125.9674
2914.595823 92.930 -126.9634
2935.716186 92.989 -127.9553
2956.989596 93.041 -128.9418
2978.417161 93.087 -129.9276
3000.000000 93.128 -130.9189
3021.739237 93.163 -131.9200
3043.636005 93.191 -132.9298
3065.691446 93.212 -133.9425
3087.906710 93.224 -134.9496
3110.282955 93.231 -135.9464
3132.821347 93.232 -136.9345
3155.523062 93.227 -137.9194
3178.389283 93.216 -138.9057
3201.421202 93.198 -139.8948
3224.620020 93.172 -140.8848
3247.986946 93.137 -141.8710
3271.523198 93.092 -142.8446
3295.230004 93.035 -143.7906
3319.108599 92.968 -144.6915
3343.160228 92.891 -145.5337
3367.386145 92.808 -146.3109
3391.787613 92.720 -147.0212
3416.365904 92.628 -147.6637
3441.122300 92.533 -148.2341
3466.058091 92.437 -148.7255
3491.174576 92.342 -149.1322
3516.473066 92.249 -149.4567
3541.954880 92.163 -149.7102
3567.621345 92.085 -149.9088
3593.473800 92.015 -150.0703
3619.513592 91.953 -150.2119
3645.742080 91.898 -150.3484
3672.160630 91.848 -150.4879
3698.770620 91.802 -150.6309
3725.573436 91.759 -150.7764
3752.570477 91.720 -150.9277
3779.763150 91.682 -151.0914
3807.152872 91.646 -151.2734
3834.741071 91.608 -151.4738
3862.529185 91.568 -151.6852
3890.518664 91.526 -151.8994
3918.710966 91.482 -152.1129
3947.107561 91.437 -152.3277
3975.709929 91.391 -152.5490
4004.519563 91.344 -152.7827
4033.537962 91.295 -153.0327
4062.766641 91.242 -153.2964
4092.207123 91.184 -153.5630
4121.860942 91.120 -153.8204
4151.729646 91.051 -154.0602
4181.814790 90.977 -154.2779
4212.117944 90.897 -154.4677
4242.640687 90.812 -154.6184
4273.384610 90.722 -154.7158
4304.351317 90.628 -154.7491
4335.542421 90.534 -154.7148
4366.959549 90.440 -154.6156
4398.604338 90.349 -154.4590
4430.478438 90.262 -154.2531
4462.583511 90.179 -154.0003
4494.921231 90.101 -153.6976
4527.493283 90.028 -153.3423
4560.301365 89.962 -152.9364
4593.347189 89.905 -152.4843
4626.632476 89.858 -151.9883
4660.158962 89.823 -151.4490
4693.928395 89.803 -150.8727
4727.942535 89.801 -150.2765
4762.203156 89.819 -149.6904
4796.712043 89.860 -149.1539
4831.470996 89.920 -148.7083
4866.481826 89.996 -148.3875
4901.746360 90.084 -148.2159
4937.266434 90.178 -148.2100
4973.043902 90.271 -148.3776
5009.080628 90.357 -148.7117
5045.378492 90.429 -149.1896
5081.939384 90.484 -149.7782
5118.765212 90.518 -150.4424
5155.857894 90.532 -151.1506
5193.219366 90.527 -151.8772
5230.851574 90.501 -152.6002
5268.756481 90.457 -153.2977
5306.936062 90.396 -153.9501
5345.392309 90.320 -154.5435
5384.127225 90.230 -155.0685
5423.142830 90.128 -155.5143
5462.441159 90.016 -155.8682
5502.024259 89.895 -156.1189
5541.894195 89.770 -156.2610
5582.053045 89.643 -156.2981
5622.502902 89.519 -156.2398
5663.245876 89.398 -156.0969
5704.284090 89.282 -155.8801
5745.619684 89.173 -155.6018
5787.254813 89.071 -155.2729
5829.191647 88.974 -154.8972
5871.432373 88.882 -154.4712
5913.979192 88.796 -153.9882
5956.834323 88.717 -153.4442
6000.000000 88.648 -152.8414
6043.478473 88.590 -152.1855
6087.272010 88.545 -151.4851
6131.382892 88.514 -150.7521
6175.813420 88.498 -150.0012
6220.565910 88.497 -149.2445
6265.642695 88.511 -148.4901
6311.046124 88.540 -147.7437
6356.778566 88.585 -147.0144
6402.842404 88.647 -146.3174
6449.240040 88.727 -145.6726
6495.973891 88.823 -145.1038
6543.046396 88.934 -144.6365
6590.460007 89.056 -144.2925
6638.217197 89.184 -144.0836
6686.320456 89.315 -144.0083
6734.772290 89.443 -144.0541
6783.575226 89.565 -144.2008
6832.731809 89.679 -144.4224
6882.244600 89.784 -144.6903
6932.116181 89.881 -144.9788
6982.349153 89.971 -145.2669
7032.946133 90.058 -145.5390
7083.909760 90.147 -145.7860
7135.242690 90.244 -146.0095
7186.947600 90.354 -146.2238
7239.027185 90.482 -146.4551
7291.484160 90.631 -146.7413
7344.321260 90.802 -147.1287
7397.541239 90.994 -147.6648
7451.146872 91.204 -148.3907
7505.140954 91.427 -149.3397
7559.526299 91.658 -150.5383
7614.305743 91.892 -152.0078
7669.482141 92.122 -153.7650
7725.058371 92.341 -155.8229
7781.037328 92.540 -158.1868
7837.421932 92.709 -160.8463
7894.215122 92.838 -163.7726
7951.419859 92.919 -166.9199
8009.039125 92.945 -170.2286
8067.075924 92.910 -173.6299
8125.533282 92.815 -177.0533
8184.414245 92.658 179.5699
8243.721885 92.442 176.3074
8303.459292 92.169 173.2247
8363.629581 91.847 170.3824
8424.235888 91.481 167.8325
8485.281374 91.082 165.6123
8546.769221 90.661 163.7403
8608.702634 90.227 162.2164
8671.084842 89.791 161.0292
8733.919097 89.359 160.1621
8797.208675 88.939 159.5970
8860.956876 88.536 159.3146
8925.167022 88.157 159.2897
8989.842461 87.808 159.4882
9054.986566 87.492 159.8710
9120.602731 87.213 160.3990
9186.694378 86.973 161.0378
9253.264952 86.773 161.7587
9320.317925 86.616 162.5322
9387.856790 86.504 163.3222
9455.885071 86.439 164.0865
9524.406312 86.421 164.7799
9593.424086 86.452 165.3583
9662.941992 86.531 165.7792
9732.963653 86.657 165.9965
9803.492719 86.828 165.9549
9874.532869 87.040 165.5923
9946.087805 87.285 164.8479
10018.161257 87.552 163.6716
10090.756983 87.831 162.0292
10163.878768 88.106 159.9009
10237.530423 88.365 157.2811
10311.715789 88.592 154.1819
10386.438732 88.771 150.6390
10461.703149 88.889 146.7143
10537.512962 88.935 142.4906
10613.872125 88.903 138.0602
10690.784618 88.789 133.5166
10768.254450 88.594 128.9492
10846.285661 88.319 124.4426
10924.882318 87.969 120.0745
11004.048518 87.550 115.9105
11083.788390 87.071 112.0001
11164.106090 86.539 108.3784
11245.005805 85.962 105.0717
11326.491752 85.348 102.1027
11408.568180 84.705 99.4887
11491.239368 84.040 97.2369
11574.509626 83.364 95.3423
11658.383294 82.682 93.7917
11742.864745 82.002 92.5695
11827.958384 81.329 91.6581
11913.668646 80.671 91.0343
12000.000000 80.031 90.6689
12086.956947 79.414 90.5321
12174.544019 78.822 90.5974
12262.765784 78.258 90.8406
12351.626840 77.724 91.2344
12441.131819 77.223 91.7488
12531.285389 76.757 92.3566
12622.092249 76.324 93.0345
12713.557132 75.928 93.7606
12805.684808 75.569 94.5100
12898.480079 75.246 95.2573
12991.947783 74.960 95.9805
13086.092792 74.711 96.6598
13180.920015 74.499 97.2741
13276.434395 74.322 97.8037
13372.640911 74.180 98.2382
13469.544580 74.074 98.5813
13567.150452 74.005 98.8426
13665.463617 73.984 99.0193
13764.489200 74.020 99.0714
13864.232362 74.122 98.9061
13964.698305 74.291 98.4027
14065.892266 74.520 97.4622
14167.819519 74.800 96.0300
14270.485380 75.119 94.0815
14373.895200 75.469 91.5986
14478.054370 75.843 88.5579
14582.968320 76.227 84.9364
14688.642520 76.606 80.7240
14795.082478 76.962 75.9349
14902.293745 77.276 70.6191
15010.281908 77.532 64.8723
15119.052599 77.723 58.8331
15228.611486 77.856 52.6548
15338.964283 77.953 46.4623
15450.116741 78.040 40.3198
15562.074656 78.143 34.2380
15674.843864 78.286 28.2085
15788.430244 78.492 22.2249
15902.839718 78.794 16.2633
16018.078250 79.224 10.2256
16134.151848 79.790 3.8812
16251.066563 80.454 -3.1276
16368.828491 81.125 -11.1616
16487.443769 81.698 -20.3825
16606.918584 82.089 -30.6363
16727.259161 82.257 -41.5473
16848.471777 82.197 -52.6969
16970.562748 81.922 -63.7256
17093.538442 81.455 -74.3531
17217.405268 80.825 -84.3687
17342.169684 80.062 -93.6250
17467.838194 79.197 -102.0321
17594.417350 78.263 -109.5504
17721.913751 77.289 -116.1801
17850.334044 76.303 -121.9540
17979.684923 75.327 -126.9255
18109.973131 74.381 -131.1543
18241.205462 73.478 -134.6959
18373.388756 72.631 -137.5990
18506.529905 71.854 -139.9119
18640.635849 71.168 -141.7163
18775.713581 70.596 -143.1779
18911.770141 70.157 -144.5750
19048.812624 69.844 -146.2469
19186.848172 69.616 -148.4530
19325.883983 69.419 -151.2415
19465.927305 69.210 -154.4451
19606.985439 68.979 -157.7598
19749.065738 68.750 -160.8121
19892.175609 68.561 -163.1938
20036.322514 68.455 -164.5139
