* Measurement data measured by REW V5.31
* Source: EXCL: Microphone (USB Sound Device        ), MICROPHONE (Master Volume), R, volume: 0.390
* Format: 256k Log Swept Sine, 1 sweep at -15.0 dBFS with no timing reference
* Dated: Dec 16, 2024 6:05:57 PM
* REW Settings:
*  C-weighting compensation: Off
*  Target level: 75.0 dB
* Note: zen
* Measurement: L Dec 16
* Smoothing: 1/12 octave
* Frequency Step: 96 ppo
* Start Frequency: 0.36621094 Hz
*
* Freq(Hz) SPL(dB) Phase(degrees)
0.366211 95.934 157.1620
0.368865 95.928 157.1381
0.371538 95.919 157.1024
0.374230 95.909 157.0575
0.376942 95.896 157.0057
0.379673 95.883 156.9489
0.382424 95.869 156.8879
0.385196 95.855 156.8237
0.387987 95.841 156.7565
0.390798 95.826 156.6866
0.393630 95.812 156.6140
0.396483 95.797 156.5388
0.399356 95.782 156.4610
0.402250 95.767 156.3806
0.405165 95.752 156.2976
0.408101 95.736 156.2119
0.411058 95.721 156.1236
0.414037 95.705 156.0325
0.417037 95.690 155.9388
0.420059 95.674 155.8422
0.423103 95.658 155.7430
0.426169 95.642 155.6409
0.429257 95.626 155.5360
0.432368 95.610 155.4282
0.435501 95.594 155.3176
0.438656 95.577 155.2040
0.441835 95.561 155.0876
0.445037 95.544 154.9682
0.448262 95.527 154.8458
0.451510 95.510 154.7204
0.454782 95.493 154.5921
0.458077 95.476 154.4607
0.461397 95.459 154.3262
0.464740 95.441 154.1887
0.468108 95.424 154.0481
0.471500 95.406 153.9043
0.474917 95.388 153.7575
0.478358 95.370 153.6075
0.481825 95.352 153.4543
0.485316 95.334 153.2980
0.488833 95.316 153.1385
0.492375 95.297 152.9758
0.495943 95.279 152.8100
0.499537 95.260 152.6409
0.503157 95.241 152.4686
0.506803 95.222 152.2930
0.510475 95.203 152.1143
0.514175 95.184 151.9323
0.517900 95.164 151.7471
0.521653 95.145 151.5587
0.525434 95.125 151.3670
0.529241 95.105 151.1722
0.533076 95.085 150.9741
0.536939 95.065 150.7729
0.540830 95.045 150.5685
0.544749 95.025 150.3609
0.548696 95.004 150.1502
0.552673 94.983 149.9364
0.556677 94.963 149.7195
0.560711 94.942 149.4995
0.564774 94.920 149.2765
0.568867 94.899 149.0506
0.572989 94.878 148.8216
0.577141 94.856 148.5898
0.581324 94.834 148.3551
0.585536 94.812 148.1176
0.589779 94.790 147.8774
0.594053 94.768 147.6345
0.598358 94.745 147.3890
0.602694 94.723 147.1410
0.607061 94.700 146.8904
0.611460 94.677 146.6375
0.615891 94.654 146.3824
0.620354 94.631 146.1250
0.624849 94.608 145.8655
0.629377 94.584 145.6040
0.633938 94.560 145.3407
0.638532 94.536 145.0756
0.643159 94.512 144.8089
0.647819 94.488 144.5408
0.652514 94.463 144.2713
0.657242 94.439 144.0006
0.662005 94.414 143.7289
0.666802 94.389 143.4563
0.671634 94.364 143.1831
0.676501 94.339 142.9094
0.681403 94.313 142.6355
0.686341 94.287 142.3614
0.691314 94.261 142.0875
0.696324 94.235 141.8139
0.701370 94.209 141.5408
0.706452 94.182 141.2684
0.711571 94.154 140.9968
0.716728 94.126 140.7259
0.721921 94.097 140.4554
0.727153 94.066 140.1850
0.732422 94.033 139.9137
0.737729 93.998 139.6406
0.743075 93.961 139.3646
0.748460 93.922 139.0847
0.753883 93.882 138.8002
0.759346 93.841 138.5106
0.764849 93.799 138.2154
0.770391 93.757 137.9145
0.775974 93.714 137.6076
0.781597 93.670 137.2947
0.787261 93.626 136.9757
0.792966 93.581 136.6505
0.798712 93.536 136.3189
0.804500 93.490 135.9810
0.810329 93.443 135.6367
0.816201 93.396 135.2859
0.822116 93.348 134.9286
0.828073 93.299 134.5648
0.834074 93.250 134.1943
0.840118 93.200 133.8172
0.846206 93.149 133.4335
0.852338 93.097 133.0431
0.858514 93.044 132.6460
0.864735 92.991 132.2423
0.871001 92.936 131.8319
0.877313 92.881 131.4149
0.883670 92.824 130.9912
0.890074 92.767 130.5611
0.896524 92.708 130.1244
0.903020 92.649 129.6813
0.909564 92.588 129.2318
0.916155 92.526 128.7762
0.922794 92.463 128.3144
0.929481 92.398 127.8467
0.936216 92.332 127.3733
0.943000 92.265 126.8943
0.949834 92.196 126.4099
0.956717 92.125 125.9204
0.963649 92.054 125.4260
0.970632 91.980 124.9272
0.977666 91.905 124.4241
0.984750 91.828 123.9172
0.991886 91.749 123.4069
0.999074 91.669 122.8936
1.006314 91.586 122.3779
1.013606 91.501 121.8601
1.020951 91.415 121.3411
1.028349 91.326 120.8212
1.035801 91.235 120.3013
1.043307 91.142 119.7820
1.050867 91.046 119.2641
1.058482 90.948 118.7484
1.066152 90.848 118.2355
1.073878 90.745 117.7261
1.081660 90.640 117.2208
1.089498 90.532 116.7198
1.097393 90.422 116.2230
1.105345 90.310 115.7300
1.113355 90.196 115.2400
1.121423 90.080 114.7521
1.129549 89.962 114.2657
1.137734 89.843 113.7800
1.145979 89.723 113.2943
1.154283 89.600 112.8083
1.162647 89.476 112.3212
1.171072 89.349 111.8328
1.179558 89.221 111.3424
1.188106 89.091 110.8495
1.196715 88.958 110.3536
1.205387 88.823 109.8543
1.214122 88.685 109.3508
1.222920 88.544 108.8427
1.231782 88.401 108.3292
1.240708 88.255 107.8098
1.249699 88.105 107.2836
1.258754 87.952 106.7501
1.267876 87.796 106.2084
1.277063 87.635 105.6577
1.286318 87.471 105.0972
1.295639 87.303 104.5259
1.305027 87.130 103.9430
1.314484 86.953 103.3474
1.324009 86.771 102.7382
1.333604 86.584 102.1142
1.343268 86.392 101.4743
1.353002 86.194 100.8175
1.362806 85.991 100.1425
1.372681 85.782 99.4482
1.382628 85.566 98.7335
1.392647 85.344 97.9970
1.402739 85.115 97.2378
1.412904 84.879 96.4549
1.423142 84.635 95.6474
1.433455 84.382 94.8147
1.443843 84.120 93.9565
1.454305 83.846 93.0725
1.464844 83.559 92.1629
1.475459 83.256 91.2276
1.486150 82.934 90.2658
1.496920 82.592 89.2761
1.507767 82.230 88.2559
1.518693 81.846 87.2017
1.529698 81.441 86.1091
1.540783 81.016 84.9726
1.551948 80.573 83.7859
1.563194 80.113 82.5413
1.574521 79.637 81.2299
1.585931 79.148 79.8411
1.597423 78.648 78.3624
1.608999 78.139 76.7787
1.620658 77.623 75.0723
1.632402 77.103 73.2216
1.644232 76.581 71.2006
1.656146 76.062 68.9780
1.668147 75.547 66.5155
1.680235 75.039 63.7671
1.692411 74.543 60.6771
1.704675 74.062 57.1793
1.717028 73.600 53.1965
1.729470 73.162 48.6424
1.742003 72.751 43.4279
1.754626 72.372 37.4736
1.767341 72.032 30.7328
1.780147 71.734 23.2229
1.793047 71.485 15.0575
1.806040 71.289 6.4572
1.819128 71.153 -2.2786
1.832310 71.078 -10.8387
1.845587 71.069 -18.9709
1.858961 71.126 -26.5179
1.872432 71.247 -33.4122
1.886001 71.431 -39.6511
1.899667 71.673 -45.2705
1.913433 71.970 -50.3246
1.927299 72.316 -54.8735
1.941265 72.706 -58.9756
1.955332 73.135 -62.6847
1.969501 73.597 -66.0485
1.983773 74.085 -69.1081
1.998148 74.595 -71.8989
2.012627 75.121 -74.4508
2.027212 75.656 -76.7891
2.041902 76.194 -78.9352
2.056698 76.731 -80.9071
2.071602 77.259 -82.7201
2.086614 77.773 -84.3872
2.101734 78.268 -85.9199
2.116964 78.739 -87.3283
2.132304 79.180 -88.6224
2.147756 79.589 -89.8123
2.163320 79.962 -90.9095
2.178996 80.299 -91.9275
2.194786 80.601 -92.8823
2.210690 80.870 -93.7914
2.226710 81.111 -94.6713
2.242845 81.327 -95.5351
2.259098 81.521 -96.3910
2.275468 81.695 -97.2435
2.291957 81.851 -98.0939
2.308566 81.991 -98.9415
2.325295 82.115 -99.7839
2.342145 82.225 -100.6181
2.359117 82.321 -101.4404
2.376212 82.405 -102.2465
2.393431 82.479 -103.0319
2.410775 82.542 -103.7917
2.428244 82.596 -104.5207
2.445840 82.643 -105.2136
2.463564 82.683 -105.8652
2.481416 82.718 -106.4704
2.499397 82.748 -107.0248
2.517509 82.774 -107.5252
2.535752 82.796 -107.9705
2.554127 82.813 -108.3621
2.572635 82.824 -108.7041
2.591277 82.827 -109.0024
2.610055 82.821 -109.2626
2.628968 82.804 -109.4890
2.648019 82.777 -109.6839
2.667208 82.740 -109.8478
2.686535 82.694 -109.9798
2.706003 82.639 -110.0778
2.725612 82.577 -110.1388
2.745363 82.509 -110.1592
2.765257 82.437 -110.1348
2.785295 82.363 -110.0607
2.805478 82.288 -109.9318
2.825808 82.213 -109.7425
2.846285 82.140 -109.4870
2.866910 82.071 -109.1593
2.887685 82.005 -108.7531
2.908611 81.944 -108.2625
2.929688 81.887 -107.6815
2.950917 81.832 -107.0050
2.972301 81.779 -106.2289
2.993839 81.727 -105.3512
3.015534 81.674 -104.3716
3.037386 81.623 -103.2923
3.059396 81.574 -102.1173
3.081565 81.527 -100.8529
3.103896 81.486 -99.5073
3.126388 81.451 -98.0908
3.149043 81.425 -96.6157
3.171862 81.411 -95.0958
3.194847 81.409 -93.5457
3.217998 81.423 -91.9801
3.241317 81.454 -90.4121
3.264805 81.505 -88.8521
3.288463 81.578 -87.3065
3.312293 81.673 -85.7785
3.336295 81.790 -84.2696
3.360471 81.930 -82.7837
3.384822 82.090 -81.3279
3.409350 82.269 -79.9124
3.434056 82.463 -78.5488
3.458940 82.670 -77.2494
3.484005 82.887 -76.0258
3.509252 83.111 -74.8881
3.534681 83.339 -73.8448
3.560295 83.569 -72.9025
3.586094 83.797 -72.0652
3.612081 84.022 -71.3347
3.638255 84.245 -70.7103
3.664620 84.464 -70.1884
3.691175 84.680 -69.7630
3.717923 84.896 -69.4270
3.744864 85.111 -69.1724
3.772001 85.325 -68.9918
3.799335 85.538 -68.8777
3.826866 85.749 -68.8236
3.854597 85.958 -68.8234
3.882529 86.162 -68.8716
3.910664 86.361 -68.9638
3.939002 86.554 -69.0967
3.967546 86.739 -69.2681
3.996296 86.916 -69.4772
4.025255 87.083 -69.7244
4.054423 87.242 -70.0109
4.083804 87.393 -70.3368
4.113396 87.534 -70.7004
4.143204 87.668 -71.0983
4.173227 87.794 -71.5249
4.203468 87.912 -71.9741
4.233928 88.023 -72.4391
4.264609 88.127 -72.9137
4.295512 88.224 -73.3924
4.326639 88.314 -73.8712
4.357992 88.397 -74.3484
4.389572 88.473 -74.8242
4.421380 88.541 -75.3009
4.453419 88.602 -75.7810
4.485691 88.655 -76.2656
4.518196 88.701 -76.7536
4.550936 88.739 -77.2418
4.583914 88.771 -77.7253
4.617131 88.797 -78.1984
4.650589 88.818 -78.6549
4.684289 88.834 -79.0893
4.718233 88.845 -79.4971
4.752424 88.851 -79.8757
4.786862 88.853 -80.2245
4.821549 88.850 -80.5444
4.856488 88.842 -80.8365
4.891680 88.829 -81.1018
4.927127 88.813 -81.3402
4.962831 88.794 -81.5511
4.998794 88.774 -81.7329
5.035017 88.753 -81.8836
5.071503 88.732 -82.0010
5.108253 88.713 -82.0825
5.145270 88.695 -82.1264
5.182555 88.678 -82.1317
5.220110 88.662 -82.0996
5.257937 88.648 -82.0331
5.296038 88.636 -81.9369
5.334415 88.628 -81.8167
5.373071 88.623 -81.6785
5.412006 88.623 -81.5280
5.451224 88.629 -81.3691
5.490725 88.641 -81.2045
5.530514 88.660 -81.0355
5.570590 88.686 -80.8635
5.610957 88.718 -80.6915
5.651616 88.755 -80.5248
5.692570 88.799 -80.3704
5.733821 88.847 -80.2359
5.775370 88.899 -80.1288
5.817221 88.956 -80.0549
5.859375 89.017 -80.0183
5.901834 89.082 -80.0205
5.944602 89.151 -80.0618
5.987679 89.223 -80.1422
6.031068 89.297 -80.2619
6.074771 89.373 -80.4219
6.118792 89.450 -80.6234
6.163131 89.525 -80.8680
6.207792 89.600 -81.1568
6.252776 89.672 -81.4906
6.298086 89.743 -81.8684
6.343725 89.811 -82.2878
6.389694 89.877 -82.7448
6.435996 89.940 -83.2350
6.482634 90.000 -83.7538
6.529610 90.056 -84.2976
6.576926 90.107 -84.8639
6.624585 90.154 -85.4515
6.672590 90.196 -86.0592
6.720942 90.234 -86.6847
6.769645 90.267 -87.3238
6.818700 90.297 -87.9713
6.868111 90.322 -88.6219
6.917881 90.343 -89.2708
6.968010 90.361 -89.9149
7.018504 90.376 -90.5526
7.069362 90.387 -91.1827
7.120590 90.395 -91.8036
7.172189 90.402 -92.4128
7.224161 90.407 -93.0074
7.276511 90.411 -93.5842
7.329239 90.415 -94.1409
7.382350 90.420 -94.6763
7.435845 90.425 -95.1906
7.489729 90.432 -95.6849
7.544002 90.440 -96.1609
7.598669 90.451 -96.6201
7.653732 90.466 -97.0637
7.709194 90.485 -97.4929
7.765058 90.507 -97.9089
7.821327 90.534 -98.3139
7.878004 90.566 -98.7113
7.935091 90.602 -99.1054
7.992592 90.643 -99.5003
8.050510 90.689 -99.8993
8.108847 90.740 -100.3050
8.167607 90.795 -100.7189
8.226793 90.854 -101.1431
8.286408 90.917 -101.5797
8.346454 90.983 -102.0311
8.406936 91.052 -102.4991
8.467856 91.123 -102.9847
8.529218 91.195 -103.4877
8.591024 91.269 -104.0071
8.653278 91.344 -104.5416
8.715983 91.418 -105.0895
8.779143 91.493 -105.6495
8.842760 91.566 -106.2200
8.906839 91.638 -106.7991
8.971381 91.710 -107.3838
9.036392 91.779 -107.9709
9.101873 91.847 -108.5570
9.167829 91.914 -109.1394
9.234263 91.979 -109.7157
9.301178 92.042 -110.2839
9.368578 92.103 -110.8415
9.436467 92.164 -111.3862
9.504847 92.223 -111.9157
9.573723 92.281 -112.4287
9.643099 92.338 -112.9243
9.712976 92.394 -113.4023
9.783361 92.448 -113.8625
9.854255 92.501 -114.3052
9.925663 92.552 -114.7308
9.997588 92.601 -115.1399
10.070035 92.649 -115.5340
10.143007 92.696 -115.9147
10.216507 92.743 -116.2838
10.290540 92.789 -116.6429
10.365109 92.834 -116.9934
10.440219 92.879 -117.3370
10.515873 92.924 -117.6750
10.592076 92.970 -118.0089
10.668830 93.014 -118.3398
10.746141 93.059 -118.6684
10.824012 93.103 -118.9951
10.902447 93.147 -119.3200
10.981451 93.189 -119.6433
11.061027 93.230 -119.9647
11.141180 93.270 -120.2839
11.221913 93.308 -120.6004
11.303232 93.345 -120.9136
11.385140 93.380 -121.2230
11.467641 93.414 -121.5282
11.550741 93.447 -121.8289
11.634442 93.478 -122.1249
11.718750 93.508 -122.4162
11.803669 93.537 -122.7030
11.889203 93.565 -122.9856
11.975357 93.592 -123.2646
12.062136 93.618 -123.5408
12.149543 93.644 -123.8150
12.237583 93.669 -124.0878
12.326262 93.692 -124.3603
12.415583 93.715 -124.6331
12.505552 93.737 -124.9071
12.596172 93.757 -125.1828
12.687449 93.775 -125.4605
12.779387 93.793 -125.7406
12.871992 93.808 -126.0232
12.965268 93.822 -126.3081
13.059220 93.835 -126.5953
13.153852 93.846 -126.8846
13.249170 93.856 -127.1757
13.345179 93.866 -127.4687
13.441884 93.874 -127.7635
13.539289 93.881 -128.0603
13.637401 93.888 -128.3595
13.736223 93.895 -128.6616
13.835761 93.901 -128.9676
13.936021 93.907 -129.2783
14.037007 93.913 -129.5949
14.138725 93.918 -129.9184
14.241180 93.924 -130.2500
14.344377 93.929 -130.5908
14.448323 93.934 -130.9415
14.553021 93.938 -131.3026
14.658478 93.943 -131.6743
14.764700 93.947 -132.0564
14.871691 93.950 -132.4486
14.979457 93.954 -132.8499
15.088005 93.956 -133.2593
15.197339 93.959 -133.6755
15.307465 93.961 -134.0972
15.418389 93.963 -134.5230
15.530117 93.965 -134.9518
15.642655 93.967 -135.3826
15.756008 93.969 -135.8146
15.870182 93.973 -136.2474
15.985184 93.977 -136.6809
16.101019 93.982 -137.1154
16.217694 93.988 -137.5511
16.335214 93.996 -137.9884
16.453586 94.005 -138.4279
16.572815 94.016 -138.8700
16.692909 94.028 -139.3146
16.813872 94.042 -139.7617
16.935713 94.057 -140.2107
17.058436 94.072 -140.6608
17.182048 94.089 -141.1109
17.306556 94.106 -141.5596
17.431967 94.123 -142.0054
17.558286 94.141 -142.4468
17.685521 94.159 -142.8825
17.813677 94.177 -143.3112
17.942762 94.196 -143.7322
18.072783 94.215 -144.1447
18.203746 94.234 -144.5486
18.335658 94.253 -144.9437
18.468526 94.273 -145.3304
18.602356 94.293 -145.7089
18.737156 94.314 -146.0798
18.872934 94.335 -146.4433
19.009695 94.355 -146.7997
19.147447 94.376 -147.1494
19.286197 94.396 -147.4923
19.425953 94.416 -147.8286
19.566721 94.435 -148.1584
19.708510 94.453 -148.4817
19.851326 94.470 -148.7988
19.995177 94.486 -149.1102
20.140070 94.501 -149.4163
20.286013 94.515 -149.7179
20.433014 94.528 -150.0158
20.581080 94.540 -150.3106
20.730219 94.550 -150.6031
20.880439 94.559 -150.8940
21.031747 94.567 -151.1838
21.184152 94.574 -151.4730
21.337661 94.580 -151.7620
21.492282 94.584 -152.0512
21.648024 94.588 -152.3412
21.804895 94.590 -152.6327
21.962902 94.592 -152.9265
22.122054 94.593 -153.2234
22.282360 94.593 -153.5247
22.443827 94.592 -153.8313
22.606464 94.591 -154.1441
22.770280 94.589 -154.4637
22.935283 94.586 -154.7904
23.101481 94.583 -155.1241
23.268884 94.579 -155.4644
23.437500 94.575 -155.8106
23.607338 94.570 -156.1621
23.778406 94.564 -156.5180
23.950714 94.559 -156.8776
24.124271 94.553 -157.2406
24.299086 94.548 -157.6068
24.475167 94.544 -157.9760
24.652524 94.540 -158.3481
24.831166 94.537 -158.7231
25.011103 94.534 -159.1006
25.192344 94.532 -159.4799
25.374898 94.531 -159.8600
25.558775 94.530 -160.2399
25.743984 94.530 -160.6180
25.930536 94.530 -160.9931
26.118439 94.531 -161.3640
26.307704 94.532 -161.7296
26.498341 94.534 -162.0893
26.690359 94.536 -162.4425
26.883768 94.538 -162.7892
27.078579 94.541 -163.1293
27.274801 94.543 -163.4629
27.472446 94.546 -163.7901
27.671522 94.549 -164.1111
27.872042 94.551 -164.4261
28.074014 94.553 -164.7352
28.277450 94.554 -165.0388
28.482360 94.554 -165.3370
28.688755 94.553 -165.6302
28.896645 94.551 -165.9186
29.106042 94.549 -166.2027
29.316957 94.545 -166.4830
29.529400 94.540 -166.7601
29.743382 94.534 -167.0349
29.958915 94.528 -167.3086
30.176009 94.520 -167.5823
30.394677 94.513 -167.8574
30.614929 94.504 -168.1352
30.836778 94.495 -168.4166
31.060234 94.485 -168.7021
31.285309 94.474 -168.9921
31.512015 94.462 -169.2865
31.740364 94.450 -169.5848
31.970368 94.437 -169.8868
32.202039 94.424 -170.1921
32.435388 94.410 -170.5007
32.670428 94.397 -170.8125
32.907171 94.384 -171.1272
33.145630 94.371 -171.4448
33.385817 94.358 -171.7646
33.627745 94.346 -172.0858
33.871425 94.334 -172.4074
34.116871 94.322 -172.7283
34.364096 94.310 -173.0474
34.613113 94.298 -173.3637
34.863934 94.287 -173.6765
35.116572 94.276 -173.9850
35.371041 94.265 -174.2885
35.627354 94.254 -174.5864
35.885525 94.243 -174.8782
36.145566 94.232 -175.1636
36.407492 94.220 -175.4427
36.671316 94.209 -175.7159
36.937051 94.197 -175.9836
37.204712 94.184 -176.2465
37.474313 94.172 -176.5048
37.745867 94.158 -176.7588
38.019389 94.144 -177.0084
38.294893 94.130 -177.2536
38.572394 94.115 -177.4948
38.851905 94.099 -177.7331
39.133442 94.084 -177.9701
39.417019 94.069 -178.2078
39.702651 94.053 -178.4482
39.990353 94.038 -178.6925
40.280140 94.022 -178.9416
40.572026 94.006 -179.1950
40.866028 93.989 -179.4520
41.162160 93.972 -179.7117
41.460438 93.954 -179.9730
41.760877 93.936 179.7646
42.063494 93.918 179.5020
42.368303 93.899 179.2398
42.675322 93.880 178.9788
42.984565 93.861 178.7195
43.296048 93.842 178.4615
43.609789 93.824 178.2038
43.925804 93.805 177.9440
44.244108 93.786 177.6805
44.564719 93.766 177.4127
44.887654 93.745 177.1424
45.212928 93.722 176.8735
45.540560 93.697 176.6106
45.870565 93.671 176.3569
46.202962 93.644 176.1132
46.537768 93.618 175.8766
46.875000 93.592 175.6429
47.214676 93.566 175.4079
47.556813 93.540 175.1699
47.901429 93.513 174.9302
48.248542 93.485 174.6927
48.598171 93.456 174.4608
48.950334 93.427 174.2361
49.305048 93.398 174.0181
49.662333 93.369 173.8043
50.022206 93.341 173.5923
50.384688 93.313 173.3816
50.749796 93.284 173.1732
51.117550 93.255 172.9691
51.487969 93.224 172.7704
51.861072 93.194 172.5772
52.236879 93.163 172.3880
52.615409 93.130 172.2020
52.996681 93.096 172.0204
53.380717 93.060 171.8474
53.767536 93.021 171.6889
54.157158 92.981 171.5507
54.549603 92.941 171.4357
54.944892 92.900 171.3428
55.343045 92.862 171.2665
55.744084 92.826 171.1987
56.148028 92.791 171.1319
56.554900 92.758 171.0620
56.964720 92.725 170.9896
57.377510 92.691 170.9184
57.793291 92.658 170.8515
58.212085 92.625 170.7885
58.633914 92.593 170.7247
59.058799 92.561 170.6558
59.486764 92.527 170.5825
59.917829 92.491 170.5147
60.352019 92.450 170.4684
60.789354 92.408 170.4586
61.229859 92.366 170.4923
61.673556 92.327 170.5660
62.120468 92.293 170.6708
62.570618 92.262 170.7996
63.024031 92.236 170.9522
63.480729 92.215 171.1335
63.940736 92.201 171.3464
64.404077 92.196 171.5858
64.870776 92.204 171.8347
65.340856 92.225 172.0676
65.814343 92.259 172.2559
66.291261 92.303 172.3737
66.771635 92.353 172.4030
67.255489 92.406 172.3366
67.742850 92.457 172.1786
68.233743 92.503 171.9416
68.728193 92.540 171.6427
69.226226 92.570 171.2986
69.727867 92.590 170.9239
70.233144 92.601 170.5310
70.742083 92.605 170.1313
71.254709 92.601 169.7347
71.771050 92.590 169.3484
72.291132 92.575 168.9759
72.814984 92.556 168.6184
73.342631 92.534 168.2759
73.874102 92.510 167.9488
74.409424 92.483 167.6376
74.948626 92.455 167.3427
75.491734 92.426 167.0637
76.038779 92.396 166.7987
76.589787 92.365 166.5449
77.144788 92.334 166.2990
77.703811 92.303 166.0587
78.266885 92.271 165.8227
78.834039 92.239 165.5899
79.405303 92.206 165.3585
79.980706 92.172 165.1263
80.560280 92.139 164.8917
81.144053 92.104 164.6541
81.732056 92.069 164.4149
82.324320 92.032 164.1780
82.920876 91.993 163.9503
83.521755 91.954 163.7391
84.126988 91.914 163.5483
84.736607 91.875 163.3760
85.350643 91.837 163.2174
85.969129 91.800 163.0688
86.592097 91.763 162.9289
87.219579 91.726 162.7974
87.851608 91.689 162.6742
88.488217 91.651 162.5598
89.129439 91.613 162.4545
89.775308 91.575 162.3576
90.425856 91.536 162.2671
91.081119 91.498 162.1806
91.741131 91.459 162.0972
92.405925 91.420 162.0169
93.075536 91.381 161.9407
93.750000 91.342 161.8695
94.429351 91.303 161.8037
95.113625 91.263 161.7426
95.802858 91.224 161.6852
96.497085 91.186 161.6307
97.196342 91.147 161.5798
97.900667 91.109 161.5345
98.610096 91.071 161.4980
99.324665 91.033 161.4734
100.044413 90.997 161.4620
100.769376 90.962 161.4630
101.499592 90.930 161.4739
102.235100 90.901 161.4907
102.975938 90.873 161.5077
103.722144 90.848 161.5184
104.473757 90.825 161.5169
105.230817 90.802 161.4995
105.993363 90.779 161.4634
106.761435 90.757 161.4078
107.535072 90.733 161.3342
108.314315 90.709 161.2463
109.099206 90.684 161.1483
109.889783 90.659 161.0440
110.686090 90.632 160.9370
111.488167 90.604 160.8304
112.296056 90.573 160.7275
113.109800 90.538 160.6310
113.929440 90.498 160.5435
114.755020 90.453 160.4669
115.586582 90.401 160.4032
116.424170 90.345 160.3561
117.267827 90.284 160.3321
118.117598 90.224 160.3387
118.973527 90.168 160.3788
119.835658 90.122 160.4398
120.704037 90.088 160.4933
121.578708 90.063 160.5158
122.459718 90.043 160.5064
123.347111 90.025 160.4805
124.240935 90.006 160.4547
125.141236 89.983 160.4398
126.048061 89.958 160.4395
126.961458 89.929 160.4508
127.881473 89.898 160.4677
128.808154 89.865 160.4844
129.741551 89.831 160.4984
130.681712 89.796 160.5097
131.628686 89.763 160.5200
132.582521 89.730 160.5311
133.543269 89.698 160.5450
134.510979 89.666 160.5636
135.485701 89.634 160.5876
136.467486 89.602 160.6173
137.456386 89.569 160.6519
138.452451 89.536 160.6902
139.455735 89.503 160.7308
140.466288 89.472 160.7722
141.484165 89.441 160.8130
142.509418 89.412 160.8523
143.542100 89.383 160.8897
144.582265 89.354 160.9253
145.629968 89.325 160.9589
146.685262 89.295 160.9899
147.748204 89.263 161.0181
148.818849 89.231 161.0443
149.897251 89.197 161.0712
150.983469 89.162 161.1024
152.077557 89.126 161.1422
153.179574 89.090 161.1943
154.289576 89.053 161.2598
155.407622 89.018 161.3363
156.533770 88.984 161.4177
157.668078 88.951 161.4969
158.810606 88.920 161.5688
159.961413 88.890 161.6316
161.120559 88.860 161.6866
162.288105 88.830 161.7364
163.464112 88.799 161.7834
164.648640 88.768 161.8298
165.841752 88.735 161.8778
167.043510 88.701 161.9298
168.253976 88.665 161.9887
169.473213 88.629 162.0571
170.701286 88.592 162.1358
171.938258 88.556 162.2239
173.184194 88.521 162.3184
174.439158 88.487 162.4162
175.703216 88.455 162.5150
176.976434 88.424 162.6134
178.258878 88.393 162.7110
179.550615 88.363 162.8073
180.851713 88.333 162.9022
182.162239 88.303 162.9954
183.482262 88.272 163.0869
184.811850 88.242 163.1767
186.151073 88.212 163.2650
187.500000 88.182 163.3519
188.858702 88.152 163.4382
190.227250 88.122 163.5251
191.605715 88.093 163.6145
192.994169 88.063 163.7083
194.392685 88.033 163.8074
195.801334 88.003 163.9126
197.220191 87.973 164.0242
198.649330 87.944 164.1424
200.088825 87.914 164.2675
201.538751 87.886 164.3994
202.999184 87.858 164.5362
204.470200 87.832 164.6743
205.951875 87.807 164.8087
207.444287 87.782 164.9349
208.947514 87.758 165.0518
210.461634 87.732 165.1619
211.986726 87.705 165.2701
213.522869 87.677 165.3828
215.070144 87.646 165.5058
216.628631 87.615 165.6432
218.198411 87.584 165.7958
219.779567 87.553 165.9607
221.372180 87.524 166.1322
222.976334 87.496 166.3039
224.592112 87.470 166.4714
226.219600 87.445 166.6330
227.858880 87.420 166.7897
229.510039 87.395 166.9431
231.173164 87.371 167.0947
232.848340 87.346 167.2446
234.535655 87.321 167.3921
236.235197 87.297 167.5358
237.947054 87.272 167.6755
239.671317 87.247 167.8123
241.408074 87.221 167.9488
243.157416 87.194 168.0884
244.919435 87.166 168.2346
246.694223 87.137 168.3905
248.481871 87.108 168.5590
250.282473 87.079 168.7430
252.096123 87.051 168.9433
253.922915 87.025 169.1575
255.762945 87.001 169.3783
257.616309 86.980 169.5958
259.483103 86.962 169.8000
261.363424 86.944 169.9862
263.257372 86.926 170.1564
265.165043 86.906 170.3176
267.086538 86.885 170.4788
269.021957 86.863 170.6475
270.971401 86.841 170.8281
272.934972 86.819 171.0213
274.912771 86.799 171.2253
276.904902 86.780 171.4366
278.911469 86.762 171.6524
280.932577 86.747 171.8697
282.968330 86.733 172.0847
285.018835 86.722 172.2918
287.084199 86.712 172.4840
289.164530 86.703 172.6548
291.259935 86.693 172.8031
293.370525 86.681 172.9345
295.496408 86.666 173.0596
297.637697 86.649 173.1885
299.794503 86.630 173.3283
301.966937 86.609 173.4811
304.155114 86.588 173.6458
306.359147 86.567 173.8189
308.579152 86.547 173.9964
310.815244 86.526 174.1749
313.067539 86.506 174.3530
315.336156 86.485 174.5324
317.621211 86.463 174.7168
319.922826 86.440 174.9103
322.241118 86.418 175.1147
324.576210 86.396 175.3288
326.928223 86.375 175.5495
329.297280 86.356 175.7733
331.683504 86.338 175.9968
334.087019 86.321 176.2172
336.507952 86.304 176.4327
338.946427 86.287 176.6430
341.402572 86.270 176.8496
343.876516 86.252 177.0557
346.368387 86.234 177.2642
348.878315 86.216 177.4767
351.406431 86.197 177.6927
353.952867 86.178 177.9117
356.517756 86.159 178.1329
359.101230 86.141 178.3564
361.703426 86.123 178.5820
364.324478 86.105 178.8094
366.964523 86.087 179.0387
369.623699 86.070 179.2703
372.302145 86.052 179.5047
375.000000 86.035 179.7421
377.717405 86.019 179.9821
380.454501 86.002 -179.7757
383.211431 85.986 -179.5321
385.988339 85.970 -179.2878
388.785369 85.955 -179.0428
391.602668 85.940 -178.7972
394.440383 85.925 -178.5508
397.298660 85.911 -178.3032
400.177650 85.898 -178.0542
403.077502 85.885 -177.8039
405.998368 85.872 -177.5533
408.940400 85.860 -177.3034
411.903750 85.847 -177.0538
414.888575 85.833 -176.8023
417.895028 85.818 -176.5455
420.923268 85.804 -176.2803
423.973452 85.790 -176.0052
427.045738 85.778 -175.7215
430.140287 85.767 -175.4334
433.257261 85.759 -175.1459
436.396822 85.752 -174.8624
439.559133 85.746 -174.5837
442.744360 85.741 -174.3100
445.952668 85.738 -174.0435
449.184225 85.735 -173.7890
452.439199 85.733 -173.5516
455.717760 85.730 -173.3337
459.020079 85.725 -173.1309
462.346327 85.716 -172.9329
465.696680 85.704 -172.7282
469.071310 85.691 -172.5098
472.470394 85.677 -172.2764
475.894109 85.663 -172.0310
479.342634 85.650 -171.7787
482.816148 85.637 -171.5251
486.314833 85.623 -171.2716
489.838871 85.609 -171.0135
493.388445 85.594 -170.7429
496.963741 85.579 -170.4561
500.564945 85.566 -170.1572
504.192245 85.554 -169.8541
507.845830 85.544 -169.5537
511.525890 85.535 -169.2587
515.232618 85.525 -168.9678
518.966206 85.515 -168.6774
522.726849 85.504 -168.3833
526.514743 85.493 -168.0815
530.330086 85.482 -167.7698
534.173076 85.471 -167.4501
538.043915 85.462 -167.1269
541.942803 85.454 -166.8026
545.869944 85.447 -166.4765
549.825542 85.441 -166.1479
553.809805 85.436 -165.8179
557.822939 85.431 -165.4900
561.865154 85.427 -165.1664
565.936660 85.423 -164.8470
570.037671 85.418 -164.5286
574.168399 85.412 -164.2074
578.329060 85.406 -163.8812
582.519870 85.400 -163.5502
586.741049 85.394 -163.2147
590.992817 85.388 -162.8734
595.275394 85.382 -162.5241
599.589005 85.378 -162.1679
603.933874 85.375 -161.8083
608.310228 85.372 -161.4485
612.718295 85.370 -161.0892
617.158304 85.367 -160.7276
621.630488 85.364 -160.3580
626.135079 85.361 -159.9744
630.672311 85.358 -159.5749
635.242423 85.358 -159.1641
639.845651 85.360 -158.7480
644.482237 85.363 -158.3288
649.152421 85.369 -157.9059
653.856447 85.377 -157.4810
658.594560 85.389 -157.0610
663.367008 85.403 -156.6564
668.174039 85.418 -156.2751
673.015903 85.432 -155.9166
677.892854 85.445 -155.5723
682.805145 85.454 -155.2323
687.753032 85.462 -154.8884
692.736774 85.467 -154.5348
697.756631 85.471 -154.1674
702.812863 85.474 -153.7849
707.905735 85.478 -153.3898
713.035511 85.483 -152.9862
718.202461 85.490 -152.5763
723.406852 85.497 -152.1592
728.648956 85.505 -151.7315
733.929047 85.514 -151.2904
739.247399 85.524 -150.8351
744.604290 85.536 -150.3668
750.000000 85.550 -149.8880
755.434809 85.567 -149.4023
760.909001 85.587 -148.9139
766.422861 85.609 -148.4270
771.976677 85.633 -147.9453
777.570739 85.660 -147.4723
783.205337 85.688 -147.0105
788.880766 85.718 -146.5600
794.597321 85.747 -146.1170
800.355301 85.778 -145.6765
806.155005 85.809 -145.2355
811.996736 85.842 -144.7956
817.880799 85.878 -144.3620
823.807501 85.916 -143.9422
829.777150 85.955 -143.5435
835.790057 85.994 -143.1681
841.846536 86.031 -142.8092
847.946903 86.066 -142.4561
854.091476 86.099 -142.1005
860.280575 86.132 -141.7389
866.514523 86.163 -141.3688
872.793644 86.194 -140.9875
879.118267 86.226 -140.5960
885.488720 86.259 -140.1991
891.905336 86.293 -139.8013
898.368450 86.328 -139.4028
904.878398 86.365 -139.0013
911.435520 86.403 -138.5956
918.040157 86.444 -138.1879
924.692655 86.486 -137.7816
931.393359 86.531 -137.3806
938.142619 86.577 -136.9888
944.940787 86.625 -136.6080
951.788218 86.673 -136.2370
958.685268 86.722 -135.8732
965.632296 86.771 -135.5144
972.629666 86.821 -135.1585
979.677741 86.872 -134.8045
986.776890 86.923 -134.4526
993.927482 86.976 -134.1013
1001.129891 87.029 -133.7462
1008.384491 87.083 -133.3834
1015.691660 87.140 -133.0141
1023.051781 87.200 -132.6439
1030.465236 87.265 -132.2810
1037.932411 87.333 -131.9374
1045.453698 87.404 -131.6257
1053.029486 87.477 -131.3511
1060.660172 87.548 -131.1098
1068.346153 87.618 -130.8929
1076.087829 87.685 -130.6909
1083.885605 87.751 -130.4971
1091.739887 87.815 -130.3092
1099.651084 87.879 -130.1268
1107.619609 87.941 -129.9493
1115.645878 88.003 -129.7757
1123.730308 88.064 -129.6048
1131.873321 88.124 -129.4356
1140.075341 88.183 -129.2671
1148.336797 88.242 -129.0986
1156.658119 88.302 -128.9298
1165.039741 88.361 -128.7596
1173.482099 88.421 -128.5861
1181.985634 88.483 -128.4096
1190.550789 88.548 -128.2357
1199.178011 88.616 -128.0753
1207.867749 88.687 -127.9402
1216.620457 88.757 -127.8362
1225.436590 88.826 -127.7599
1234.316609 88.892 -127.7029
1243.260976 88.954 -127.6564
1252.270157 89.014 -127.6126
1261.344623 89.071 -127.5668
1270.484846 89.127 -127.5172
1279.691303 89.181 -127.4621
1288.964474 89.234 -127.4000
1298.304842 89.286 -127.3315
1307.712894 89.339 -127.2592
1317.189120 89.392 -127.1866
1326.734016 89.445 -127.1158
1336.348077 89.498 -127.0461
1346.031806 89.551 -126.9746
1355.785708 89.604 -126.8975
1365.610290 89.658 -126.8112
1375.506065 89.713 -126.7112
1385.473549 89.770 -126.5928
1395.513261 89.830 -126.4551
1405.625726 89.894 -126.3033
1415.811469 89.962 -126.1490
1426.071023 90.034 -126.0066
1436.404921 90.108 -125.8852
1446.813703 90.182 -125.7853
1457.297912 90.255 -125.7017
1467.858093 90.327 -125.6283
1478.494798 90.396 -125.5601
1489.208581 90.463 -125.4934
1500.000000 90.526 -125.4245
1510.869618 90.586 -125.3500
1521.818002 90.641 -125.2675
1532.845723 90.693 -125.1749
1543.953355 90.742 -125.0709
1555.141477 90.790 -124.9554
1566.410674 90.839 -124.8325
1577.761531 90.890 -124.7129
1589.194642 90.944 -124.6109
1600.710601 91.000 -124.5364
1612.310010 91.056 -124.4909
1623.993473 91.110 -124.4704
1635.761599 91.163 -124.4684
1647.615002 91.215 -124.4793
1659.554299 91.265 -124.4983
1671.580114 91.314 -124.5220
1683.693072 91.362 -124.5491
1695.893807 91.410 -124.5804
1708.182952 91.456 -124.6171
1720.561150 91.501 -124.6581
1733.029045 91.544 -124.6996
1745.587288 91.583 -124.7361
1758.236533 91.621 -124.7612
1770.977440 91.658 -124.7694
1783.810673 91.697 -124.7614
1796.736900 91.739 -124.7465
1809.756796 91.784 -124.7388
1822.871040 91.832 -124.7495
1836.080315 91.882 -124.7827
1849.385310 91.932 -124.8371
1862.786718 91.982 -124.9094
1876.285239 92.032 -124.9951
1889.881575 92.082 -125.0885
1903.576436 92.134 -125.1842
1917.370535 92.189 -125.2770
1931.264593 92.248 -125.3639
1945.259332 92.313 -125.4461
1959.355483 92.384 -125.5324
1973.553781 92.460 -125.6365
1987.854965 92.540 -125.7691
2002.259781 92.622 -125.9343
2016.768981 92.702 -126.1299
2031.383320 92.782 -126.3513
2046.103561 92.858 -126.5929
2060.930471 92.933 -126.8506
2075.864823 93.005 -127.1226
2090.907395 93.075 -127.4085
2106.058972 93.142 -127.7062
2121.320344 93.204 -128.0107
2136.692305 93.263 -128.3142
2152.175658 93.319 -128.6085
2167.771210 93.373 -128.8912
2183.479774 93.427 -129.1686
2199.302169 93.482 -129.4522
2215.239219 93.536 -129.7516
2231.291755 93.590 -130.0714
2247.460615 93.642 -130.4113
2263.746641 93.691 -130.7674
2280.150683 93.737 -131.1329
2296.673595 93.780 -131.5000
2313.316238 93.821 -131.8617
2330.079481 93.862 -132.2167
2346.964198 93.904 -132.5714
2363.971268 93.946 -132.9376
2381.101578 93.989 -133.3246
2398.356022 94.030 -133.7368
2415.735498 94.069 -134.1736
2433.240913 94.104 -134.6318
2450.873180 94.135 -135.1075
2468.633217 94.162 -135.5976
2486.521951 94.184 -136.0980
2504.540314 94.201 -136.6016
2522.689246 94.211 -137.0978
2540.969692 94.218 -137.5760
2559.382606 94.221 -138.0322
2577.928947 94.223 -138.4703
2596.609683 94.223 -138.8982
2615.425787 94.223 -139.3214
2634.378241 94.220 -139.7417
2653.468031 94.214 -140.1557
2672.696154 94.205 -140.5556
2692.063613 94.193 -140.9318
2711.571415 94.180 -141.2776
2731.220579 94.167 -141.5947
2751.012130 94.156 -141.8920
2770.947098 94.148 -142.1806
2791.026522 94.142 -142.4692
2811.251451 94.137 -142.7634
2831.622938 94.133 -143.0673
2852.142045 94.129 -143.3845
2872.809842 94.125 -143.7172
2893.627406 94.118 -144.0634
2914.595823 94.108 -144.4164
2935.716186 94.096 -144.7692
2956.989596 94.082 -145.1196
2978.417161 94.065 -145.4703
3000.000000 94.047 -145.8242
3021.739237 94.024 -146.1805
3043.636005 93.998 -146.5328
3065.691446 93.966 -146.8694
3087.906710 93.931 -147.1763
3110.282955 93.892 -147.4442
3132.821347 93.853 -147.6725
3155.523062 93.815 -147.8663
3178.389283 93.778 -148.0317
3201.421202 93.742 -148.1737
3224.620020 93.708 -148.2955
3247.986946 93.676 -148.3994
3271.523198 93.645 -148.4853
3295.230004 93.615 -148.5484
3319.108599 93.588 -148.5833
3343.160228 93.566 -148.5912
3367.386145 93.550 -148.5817
3391.787613 93.541 -148.5703
3416.365904 93.540 -148.5723
3441.122300 93.544 -148.5979
3466.058091 93.552 -148.6501
3491.174576 93.564 -148.7284
3516.473066 93.578 -148.8348
3541.954880 93.595 -148.9742
3567.621345 93.613 -149.1518
3593.473800 93.631 -149.3702
3619.513592 93.647 -149.6299
3645.742080 93.659 -149.9279
3672.160630 93.665 -150.2553
3698.770620 93.666 -150.5980
3725.573436 93.660 -150.9430
3752.570477 93.650 -151.2838
3779.763150 93.635 -151.6198
3807.152872 93.616 -151.9521
3834.741071 93.592 -152.2777
3862.529185 93.562 -152.5886
3890.518664 93.529 -152.8773
3918.710966 93.493 -153.1420
3947.107561 93.457 -153.3874
3975.709929 93.421 -153.6219
4004.519563 93.385 -153.8558
4033.537962 93.349 -154.0980
4062.766641 93.312 -154.3515
4092.207123 93.272 -154.6118
4121.860942 93.230 -154.8730
4151.729646 93.185 -155.1323
4181.814790 93.136 -155.3897
4212.117944 93.085 -155.6440
4242.640687 93.028 -155.8876
4273.384610 92.968 -156.1099
4304.351317 92.905 -156.3039
4335.542421 92.840 -156.4698
4366.959549 92.774 -156.6147
4398.604338 92.710 -156.7495
4430.478438 92.646 -156.8857
4462.583511 92.580 -157.0282
4494.921231 92.513 -157.1756
4527.493283 92.444 -157.3251
4560.301365 92.371 -157.4758
4593.347189 92.295 -157.6263
4626.632476 92.214 -157.7696
4660.158962 92.128 -157.8931
4693.928395 92.037 -157.9843
4727.942535 91.943 -158.0364
4762.203156 91.848 -158.0496
4796.712043 91.754 -158.0310
4831.470996 91.659 -157.9888
4866.481826 91.565 -157.9264
4901.746360 91.470 -157.8432
4937.266434 91.374 -157.7385
4973.043902 91.276 -157.6125
5009.080628 91.175 -157.4608
5045.378492 91.071 -157.2717
5081.939384 90.963 -157.0304
5118.765212 90.853 -156.7243
5155.857894 90.744 -156.3483
5193.219366 90.638 -155.9055
5230.851574 90.535 -155.4035
5268.756481 90.437 -154.8484
5306.936062 90.345 -154.2454
5345.392309 90.258 -153.6020
5384.127225 90.176 -152.9250
5423.142830 90.098 -152.2157
5462.441159 90.024 -151.4689
5502.024259 89.955 -150.6777
5541.894195 89.894 -149.8398
5582.053045 89.841 -148.9618
5622.502902 89.799 -148.0569
5663.245876 89.768 -147.1395
5704.284090 89.749 -146.2243
5745.619684 89.741 -145.3269
5787.254813 89.743 -144.4601
5829.191647 89.752 -143.6286
5871.432373 89.767 -142.8285
5913.979192 89.787 -142.0511
5956.834323 89.812 -141.2902
6000.000000 89.842 -140.5440
6043.478473 89.878 -139.8135
6087.272010 89.920 -139.1006
6131.382892 89.967 -138.4093
6175.813420 90.020 -137.7445
6220.565910 90.076 -137.1067
6265.642695 90.135 -136.4901
6311.046124 90.197 -135.8847
6356.778566 90.262 -135.2815
6402.842404 90.331 -134.6747
6449.240040 90.405 -134.0606
6495.973891 90.485 -133.4370
6543.046396 90.574 -132.8039
6590.460007 90.672 -132.1616
6638.217197 90.782 -131.5105
6686.320456 90.907 -130.8559
6734.772290 91.049 -130.2176
6783.575226 91.209 -129.6319
6832.731809 91.384 -129.1351
6882.244600 91.568 -128.7399
6932.116181 91.760 -128.4357
6982.349153 91.957 -128.2071
7032.946133 92.162 -128.0459
7083.909760 92.378 -127.9534
7135.242690 92.608 -127.9399
7186.947600 92.853 -128.0232
7239.027185 93.115 -128.2273
7291.484160 93.395 -128.5824
7344.321260 93.692 -129.1247
7397.541239 94.003 -129.8910
7451.146872 94.326 -130.9137
7505.140954 94.654 -132.2194
7559.526299 94.983 -133.8310
7614.305743 95.307 -135.7681
7669.482141 95.620 -138.0467
7725.058371 95.913 -140.6791
7781.037328 96.178 -143.6683
7837.421932 96.402 -147.0005
7894.215122 96.576 -150.6399
7951.419859 96.690 -154.5304
8009.039125 96.738 -158.5986
8067.075924 96.715 -162.7599
8125.533282 96.620 -166.9275
8184.414245 96.456 -171.0175
8243.721885 96.224 -174.9506
8303.459292 95.929 -178.6538
8363.629581 95.580 177.9363
8424.235888 95.183 174.8704
8485.281374 94.750 172.1810
8546.769221 94.292 169.8793
8608.702634 93.820 167.9573
8671.084842 93.343 166.3950
8733.919097 92.869 165.1675
8797.208675 92.403 164.2490
8860.956876 91.952 163.6136
8925.167022 91.521 163.2311
8989.842461 91.115 163.0640
9054.986566 90.736 163.0710
9120.602731 90.385 163.2130
9186.694378 90.065 163.4569
9253.264952 89.773 163.7775
9320.317925 89.511 164.1524
9387.856790 89.278 164.5560
9455.885071 89.076 164.9597
9524.406312 88.903 165.3350
9593.424086 88.758 165.6584
9662.941992 88.640 165.9127
9732.963653 88.548 166.0806
9803.492719 88.481 166.1395
9874.532869 88.439 166.0603
9946.087805 88.417 165.8120
10018.161257 88.411 165.3687
10090.756983 88.416 164.7115
10163.878768 88.428 163.8243
10237.530423 88.441 162.6909
10311.715789 88.448 161.2968
10386.438732 88.442 159.6360
10461.703149 88.412 157.7178
10537.512962 88.352 155.5663
10613.872125 88.252 153.2150
10690.784618 88.107 150.7045
10768.254450 87.911 148.0826
10846.285661 87.657 145.4071
10924.882318 87.342 142.7454
11004.048518 86.965 140.1671
11083.788390 86.527 137.7379
11164.106090 86.030 135.5157
11245.005805 85.477 133.5563
11326.491752 84.870 131.9181
11408.568180 84.213 130.6680
11491.239368 83.511 129.8898
11574.509626 82.773 129.7069
11658.383294 82.017 130.3282
11742.864745 81.280 132.1133
11827.958384 80.643 135.6275
11913.668646 80.240 141.5517
12000.000000 80.225 150.0883
12086.956947 80.658 159.7692
12174.544019 81.417 167.4868
12262.765784 82.259 171.0266
12351.626840 82.957 170.4520
12441.131819 83.372 167.1108
12531.285389 83.463 162.5273
12622.092249 83.269 157.8640
12713.557132 82.863 153.8099
12805.684808 82.329 150.6761
12898.480079 81.739 148.5243
12991.947783 81.151 147.2690
13086.092792 80.606 146.7494
13180.920015 80.128 146.7760
13276.434395 79.727 147.1640
13372.640911 79.402 147.7550
13469.544580 79.147 148.4250
13567.150452 78.955 149.0774
13665.463617 78.817 149.6341
13764.489200 78.725 150.0317
13864.232362 78.673 150.2206
13964.698305 78.653 150.1603
14065.892266 78.659 149.8140
14167.819519 78.683 149.1497
14270.485380 78.716 148.1450
14373.895200 78.749 146.7885
14478.054370 78.772 145.0793
14582.968320 78.774 143.0309
14688.642520 78.746 140.6753
14795.082478 78.678 138.0604
14902.293745 78.565 135.2438
15010.281908 78.401 132.2927
15119.052599 78.186 129.2813
15228.611486 77.922 126.2840
15338.964283 77.615 123.3669
15450.116741 77.274 120.5834
15562.074656 76.909 117.9704
15674.843864 76.534 115.5427
15788.430244 76.159 113.2878
15902.839718 75.798 111.1649
16018.078250 75.460 109.1068
16134.151848 75.154 107.0228
16251.066563 74.883 104.8052
16368.828491 74.644 102.3413
16487.443769 74.428 99.5272
16606.918584 74.216 96.2824
16727.259161 73.985 92.5684
16848.471777 73.708 88.4044
16970.562748 73.358 83.8726
17093.538442 72.912 79.1107
17217.405268 72.358 74.2919
17342.169684 71.693 69.5906
17467.838194 70.927 65.1473
17594.417350 70.074 61.0488
17721.913751 69.151 57.3283
17850.334044 68.174 53.9792
17979.684923 67.154 50.9771
18109.973131 66.095 48.3017
18241.205462 64.998 45.9475
18373.388756 63.863 43.9252
18506.529905 62.691 42.2618
18640.635849 61.485 40.9945
18775.713581 60.252 40.1521
18911.770141 58.996 39.7319
19048.812624 57.726 39.6873
19186.848172 56.448 39.9376
19325.883983 55.169 40.3914
19465.927305 53.908 40.9616
19606.985439 52.702 41.5640
19749.065738 51.620 42.1141
19892.175609 50.775 42.5287
20036.322514 50.302 42.7455
