* Measurement data measured by REW V5.30 beta 5
* Source: EXCL: Microphone (Realtek(R) Audio), MICROPHONE (Master Volume), L, volume: 1.000
* Format: 256k Log Swept Sine, 1 sweep at -18.0 dBFS with no timing reference
* Dated: Dec 30, 2023 1:20:04 AM
* REW Settings:
*  C-weighting compensation: Off
*  Target level: 75.0 dB
* Note: KZ ZSN Pro 2 L
* Measurement: L Dec 30
* Smoothing: 1/12 octave
* Frequency Step: 96 ppo
* Start Frequency: 0.36621094 Hz
*
* Freq(Hz) SPL(dB) Phase(degrees)
0.366211 72.573 -32.0604
0.368865 72.567 -32.1103
0.371538 72.557 -32.1848
0.374230 72.545 -32.2783
0.376942 72.531 -32.3859
0.379673 72.517 -32.5038
0.382424 72.502 -32.6297
0.385196 72.486 -32.7621
0.387987 72.470 -32.9003
0.390798 72.454 -33.0437
0.393630 72.438 -33.1923
0.396483 72.421 -33.3458
0.399356 72.405 -33.5044
0.402250 72.388 -33.6680
0.405165 72.371 -33.8367
0.408101 72.354 -34.0106
0.411058 72.337 -34.1897
0.414037 72.320 -34.3742
0.417037 72.303 -34.5641
0.420059 72.286 -34.7595
0.423103 72.268 -34.9605
0.426169 72.250 -35.1671
0.429257 72.233 -35.3795
0.432367 72.215 -35.5977
0.435501 72.197 -35.8218
0.438656 72.179 -36.0518
0.441835 72.160 -36.2880
0.445037 72.142 -36.5304
0.448262 72.123 -36.7790
0.451510 72.105 -37.0339
0.454782 72.086 -37.2953
0.458077 72.067 -37.5633
0.461397 72.048 -37.8378
0.464740 72.028 -38.1190
0.468108 72.009 -38.4071
0.471500 71.990 -38.7020
0.474917 71.970 -39.0040
0.478358 71.950 -39.3130
0.481825 71.930 -39.6291
0.485316 71.910 -39.9526
0.488833 71.890 -40.2834
0.492375 71.869 -40.6216
0.495943 71.849 -40.9674
0.499537 71.828 -41.3208
0.503157 71.807 -41.6819
0.506803 71.786 -42.0509
0.510475 71.765 -42.4277
0.514174 71.744 -42.8125
0.517900 71.723 -43.2055
0.521653 71.701 -43.6066
0.525433 71.679 -44.0159
0.529241 71.657 -44.4336
0.533076 71.635 -44.8598
0.536939 71.613 -45.2944
0.540830 71.591 -45.7376
0.544749 71.568 -46.1895
0.548696 71.545 -46.6502
0.552673 71.522 -47.1197
0.556677 71.499 -47.5981
0.560711 71.476 -48.0855
0.564774 71.453 -48.5819
0.568867 71.429 -49.0875
0.572989 71.406 -49.6022
0.577141 71.382 -50.1261
0.581324 71.358 -50.6594
0.585536 71.333 -51.2020
0.589779 71.309 -51.7540
0.594053 71.284 -52.3155
0.598358 71.260 -52.8865
0.602694 71.235 -53.4670
0.607061 71.209 -54.0572
0.611460 71.184 -54.6569
0.615891 71.159 -55.2663
0.620354 71.133 -55.8855
0.624849 71.107 -56.5143
0.629377 71.081 -57.1529
0.633938 71.055 -57.8012
0.638532 71.028 -58.4593
0.643159 71.002 -59.1272
0.647819 70.975 -59.8049
0.652514 70.948 -60.4924
0.657242 70.921 -61.1897
0.662005 70.893 -61.8969
0.666802 70.866 -62.6139
0.671634 70.838 -63.3407
0.676501 70.810 -64.0773
0.681403 70.782 -64.8238
0.686341 70.753 -65.5801
0.691314 70.725 -66.3463
0.696324 70.696 -67.1224
0.701369 70.668 -67.9086
0.706452 70.640 -68.7048
0.711571 70.613 -69.5116
0.716727 70.586 -70.3291
0.721921 70.563 -71.1583
0.727153 70.542 -72.0000
0.732422 70.527 -72.8556
0.737729 70.516 -73.7268
0.743075 70.511 -74.6152
0.748460 70.509 -75.5220
0.753883 70.512 -76.4481
0.759346 70.516 -77.3941
0.764849 70.523 -78.3603
0.770391 70.532 -79.3467
0.775974 70.542 -80.3532
0.781597 70.554 -81.3795
0.787261 70.567 -82.4254
0.792965 70.582 -83.4904
0.798712 70.597 -84.5741
0.804499 70.615 -85.6760
0.810329 70.633 -86.7954
0.816201 70.653 -87.9317
0.822116 70.675 -89.0842
0.828073 70.698 -90.2521
0.834073 70.722 -91.4346
0.840118 70.748 -92.6307
0.846205 70.775 -93.8395
0.852337 70.803 -95.0600
0.858514 70.833 -96.2912
0.864735 70.865 -97.5321
0.871001 70.898 -98.7814
0.877313 70.932 -100.0381
0.883670 70.968 -101.3010
0.890074 71.005 -102.5689
0.896523 71.044 -103.8408
0.903020 71.084 -105.1153
0.909564 71.126 -106.3914
0.916155 71.169 -107.6679
0.922793 71.214 -108.9437
0.929480 71.260 -110.2178
0.936216 71.308 -111.4890
0.943000 71.357 -112.7564
0.949833 71.408 -114.0189
0.956716 71.460 -115.2758
0.963649 71.514 -116.5261
0.970632 71.569 -117.7691
0.977666 71.626 -119.0041
0.984750 71.684 -120.2304
0.991886 71.743 -121.4474
0.999074 71.804 -122.6546
1.006313 71.867 -123.8515
1.013605 71.930 -125.0379
1.020950 71.996 -126.2133
1.028349 72.062 -127.3775
1.035801 72.130 -128.5305
1.043306 72.200 -129.6720
1.050867 72.271 -130.8022
1.058482 72.343 -131.9210
1.066152 72.416 -133.0288
1.073878 72.492 -134.1257
1.081659 72.568 -135.2124
1.089498 72.647 -136.2896
1.097393 72.728 -137.3580
1.105345 72.811 -138.4186
1.113355 72.897 -139.4723
1.121422 72.986 -140.5195
1.129549 73.078 -141.5605
1.137734 73.174 -142.5954
1.145978 73.273 -143.6241
1.154283 73.375 -144.6464
1.162647 73.480 -145.6618
1.171072 73.589 -146.6700
1.179558 73.700 -147.6707
1.188106 73.815 -148.6636
1.196715 73.933 -149.6482
1.205387 74.053 -150.6242
1.214122 74.177 -151.5914
1.222920 74.302 -152.5494
1.231781 74.431 -153.4978
1.240708 74.561 -154.4365
1.249698 74.694 -155.3652
1.258754 74.829 -156.2836
1.267875 74.966 -157.1914
1.277063 75.105 -158.0886
1.286317 75.245 -158.9748
1.295638 75.386 -159.8499
1.305027 75.529 -160.7138
1.314484 75.673 -161.5663
1.324009 75.818 -162.4073
1.333603 75.963 -163.2366
1.343267 76.109 -164.0542
1.353001 76.255 -164.8600
1.362805 76.400 -165.6540
1.372681 76.546 -166.4359
1.382628 76.691 -167.2060
1.392647 76.835 -167.9641
1.402739 76.978 -168.7102
1.412904 77.120 -169.4445
1.423142 77.261 -170.1670
1.433455 77.400 -170.8779
1.443842 77.537 -171.5776
1.454305 77.673 -172.2665
1.464843 77.807 -172.9452
1.475458 77.940 -173.6145
1.486150 78.072 -174.2749
1.496919 78.203 -174.9273
1.507766 78.335 -175.5719
1.518692 78.466 -176.2094
1.529697 78.596 -176.8398
1.540782 78.727 -177.4634
1.551947 78.857 -178.0806
1.563193 78.988 -178.6913
1.574521 79.118 -179.2959
1.585931 79.248 -179.8944
1.597423 79.379 179.5129
1.608998 79.508 178.9259
1.620658 79.638 178.3445
1.632402 79.768 177.7684
1.644231 79.898 177.1975
1.656146 80.027 176.6317
1.668147 80.156 176.0707
1.680235 80.285 175.5145
1.692410 80.414 174.9627
1.704674 80.543 174.4154
1.717027 80.671 173.8722
1.729469 80.800 173.3331
1.742002 80.928 172.7979
1.754625 81.056 172.2663
1.767340 81.183 171.7382
1.780147 81.311 171.2135
1.793046 81.438 170.6918
1.806040 81.564 170.1731
1.819127 81.691 169.6569
1.832309 81.816 169.1431
1.845587 81.942 168.6314
1.858961 82.066 168.1216
1.872431 82.190 167.6136
1.886000 82.314 167.1073
1.899666 82.436 166.6028
1.913432 82.558 166.1002
1.927298 82.680 165.5995
1.941264 82.800 165.1009
1.955331 82.920 164.6044
1.969500 83.040 164.1101
1.983772 83.159 163.6183
1.998147 83.277 163.1288
2.012626 83.395 162.6420
2.027211 83.513 162.1579
2.041901 83.630 161.6765
2.056697 83.747 161.1979
2.071601 83.863 160.7222
2.086613 83.980 160.2496
2.101733 84.096 159.7799
2.116963 84.212 159.3133
2.132303 84.328 158.8499
2.147755 84.444 158.3894
2.163318 84.560 157.9320
2.178995 84.676 157.4774
2.194785 84.791 157.0255
2.210689 84.906 156.5760
2.226709 85.021 156.1287
2.242844 85.136 155.6832
2.259097 85.250 155.2396
2.275467 85.363 154.7975
2.291956 85.476 154.3571
2.308565 85.588 153.9182
2.325294 85.700 153.4808
2.342144 85.812 153.0448
2.359116 85.922 152.6103
2.376211 86.033 152.1772
2.393430 86.143 151.7456
2.410774 86.253 151.3153
2.428243 86.363 150.8864
2.445839 86.472 150.4589
2.463562 86.581 150.0327
2.481415 86.690 149.6077
2.499396 86.800 149.1841
2.517508 86.909 148.7617
2.535750 87.018 148.3405
2.554126 87.126 147.9204
2.572634 87.235 147.5016
2.591276 87.344 147.0837
2.610054 87.452 146.6670
2.628967 87.560 146.2512
2.648018 87.667 145.8362
2.667206 87.774 145.4219
2.686534 87.881 145.0082
2.706002 87.987 144.5950
2.725610 88.093 144.1821
2.745361 88.199 143.7693
2.765255 88.304 143.3565
2.785294 88.410 142.9435
2.805477 88.515 142.5303
2.825807 88.619 142.1165
2.846284 88.724 141.7021
2.866909 88.829 141.2870
2.887684 88.933 140.8710
2.908609 89.037 140.4540
2.929686 89.142 140.0361
2.950916 89.246 139.6171
2.972299 89.349 139.1972
2.993838 89.453 138.7764
3.015532 89.556 138.3546
3.037384 89.659 137.9319
3.059394 89.761 137.5083
3.081564 89.863 137.0837
3.103894 89.965 136.6581
3.126386 90.066 136.2314
3.149041 90.168 135.8035
3.171861 90.269 135.3744
3.194845 90.369 134.9439
3.217996 90.469 134.5120
3.241315 90.569 134.0784
3.264803 90.669 133.6430
3.288461 90.769 133.2058
3.312291 90.868 132.7666
3.336293 90.966 132.3254
3.360469 91.065 131.8821
3.384820 91.162 131.4367
3.409348 91.260 130.9894
3.434054 91.357 130.5401
3.458938 91.453 130.0891
3.484003 91.549 129.6361
3.509250 91.645 129.1815
3.534679 91.740 128.7250
3.560293 91.834 128.2667
3.586092 91.928 127.8065
3.612079 92.022 127.3442
3.638253 92.115 126.8795
3.664618 92.207 126.4122
3.691173 92.299 125.9420
3.717921 92.390 125.4687
3.744862 92.480 124.9924
3.771999 92.570 124.5132
3.799332 92.659 124.0314
3.826864 92.747 123.5475
3.854595 92.835 123.0619
3.882527 92.921 122.5749
3.910661 93.008 122.0869
3.938999 93.093 121.5981
3.967543 93.177 121.1087
3.996294 93.261 120.6186
4.025252 93.344 120.1273
4.054421 93.426 119.6346
4.083801 93.507 119.1402
4.113394 93.588 118.6438
4.143201 93.667 118.1456
4.173225 93.745 117.6460
4.203466 93.823 117.1455
4.233926 93.899 116.6448
4.264606 93.975 116.1446
4.295509 94.050 115.6452
4.326636 94.124 115.1471
4.357989 94.197 114.6504
4.389569 94.269 114.1550
4.421378 94.340 113.6604
4.453417 94.410 113.1664
4.485688 94.479 112.6728
4.518193 94.548 112.1796
4.550934 94.615 111.6873
4.583912 94.681 111.1965
4.617129 94.747 110.7078
4.650587 94.812 110.2219
4.684287 94.876 109.7395
4.718231 94.939 109.2609
4.752421 95.001 108.7862
4.786859 95.063 108.3152
4.821547 95.124 107.8478
4.856485 95.185 107.3837
4.891677 95.244 106.9228
4.927125 95.303 106.4653
4.962829 95.362 106.0114
4.998791 95.420 105.5615
5.035015 95.477 105.1160
5.071500 95.535 104.6753
5.108251 95.592 104.2395
5.145267 95.649 103.8089
5.182552 95.705 103.3832
5.220107 95.762 102.9623
5.257934 95.818 102.5458
5.296035 95.874 102.1335
5.334412 95.931 101.7250
5.373067 95.987 101.3202
5.412003 96.043 100.9189
5.451221 96.100 100.5209
5.490722 96.158 100.1264
5.530510 96.215 99.7354
5.570587 96.273 99.3477
5.610953 96.332 98.9629
5.651613 96.390 98.5804
5.692567 96.450 98.1996
5.733818 96.509 97.8198
5.775367 96.570 97.4401
5.817218 96.630 97.0601
5.859372 96.692 96.6795
5.901831 96.754 96.2982
5.944598 96.817 95.9160
5.987675 96.880 95.5326
6.031065 96.944 95.1473
6.074768 97.009 94.7596
6.118788 97.073 94.3684
6.163127 97.139 93.9732
6.207788 97.204 93.5733
6.252772 97.270 93.1686
6.298082 97.336 92.7588
6.343721 97.403 92.3440
6.389690 97.469 91.9240
6.435992 97.536 91.4985
6.482630 97.603 91.0675
6.529606 97.669 90.6305
6.576922 97.735 90.1873
6.624581 97.801 89.7378
6.672585 97.866 89.2820
6.720938 97.931 88.8201
6.769640 97.995 88.3526
6.818696 98.059 87.8799
6.868107 98.122 87.4025
6.917876 98.184 86.9207
6.968006 98.245 86.4346
7.018499 98.305 85.9445
7.069358 98.364 85.4506
7.120586 98.422 84.9537
7.172184 98.479 84.4546
7.224157 98.534 83.9542
7.276506 98.589 83.4534
7.329235 98.642 82.9528
7.382345 98.694 82.4526
7.435841 98.745 81.9533
7.489724 98.794 81.4555
7.543997 98.843 80.9601
7.598664 98.890 80.4678
7.653728 98.937 79.9795
7.709189 98.983 79.4958
7.765053 99.027 79.0170
7.821322 99.071 78.5433
7.877998 99.115 78.0750
7.935086 99.157 77.6124
7.992587 99.200 77.1559
8.050504 99.242 76.7058
8.108841 99.284 76.2622
8.167601 99.325 75.8250
8.226787 99.367 75.3939
8.286402 99.409 74.9686
8.346449 99.451 74.5488
8.406931 99.493 74.1341
8.467851 99.536 73.7241
8.529212 99.579 73.3185
8.591018 99.623 72.9167
8.653272 99.667 72.5177
8.715977 99.712 72.1209
8.779137 99.757 71.7255
8.842754 99.803 71.3308
8.906833 99.850 70.9363
8.971375 99.897 70.5414
9.036386 99.945 70.1453
9.101867 99.993 69.7473
9.167823 100.041 69.3468
9.234257 100.090 68.9434
9.301172 100.139 68.5367
9.368572 100.188 68.1265
9.436460 100.237 67.7126
9.504841 100.286 67.2948
9.573717 100.334 66.8730
9.643092 100.383 66.4473
9.712970 100.430 66.0179
9.783354 100.477 65.5851
9.854248 100.524 65.1493
9.925656 100.570 64.7109
9.997581 100.615 64.2702
10.070028 100.659 63.8277
10.143000 100.702 63.3841
10.216500 100.744 62.9400
10.290533 100.785 62.4960
10.365103 100.826 62.0527
10.440212 100.865 61.6105
10.515866 100.903 61.1701
10.592069 100.941 60.7321
10.668823 100.977 60.2969
10.746134 101.013 59.8649
10.824005 101.049 59.4364
10.902440 101.083 59.0117
10.981443 101.117 58.5911
11.061020 101.151 58.1746
11.141172 101.184 57.7623
11.221906 101.217 57.3540
11.303225 101.249 56.9495
11.385133 101.282 56.5487
11.467634 101.315 56.1512
11.550734 101.347 55.7566
11.634435 101.380 55.3643
11.718742 101.413 54.9737
11.803661 101.445 54.5844
11.889195 101.478 54.1956
11.975349 101.512 53.8067
12.062128 101.545 53.4170
12.149535 101.578 53.0258
12.237576 101.612 52.6327
12.326254 101.646 52.2369
12.415575 101.679 51.8380
12.505544 101.712 51.4357
12.596164 101.745 51.0297
12.687441 101.778 50.6198
12.779379 101.810 50.2060
12.871984 101.841 49.7884
12.965260 101.872 49.3673
13.059211 101.902 48.9431
13.153843 101.930 48.5164
13.249161 101.958 48.0876
13.345170 101.985 47.6577
13.441875 102.011 47.2271
13.539280 102.036 46.7969
13.637391 102.060 46.3676
13.736214 102.083 45.9400
13.835752 102.105 45.5146
13.936011 102.126 45.0919
14.036998 102.147 44.6723
14.138716 102.168 44.2556
14.241171 102.188 43.8420
14.344368 102.208 43.4310
14.448313 102.227 43.0222
14.553011 102.247 42.6151
14.658468 102.267 42.2088
14.764689 102.287 41.8026
14.871680 102.306 41.3957
14.979446 102.326 40.9875
15.087994 102.346 40.5774
15.197328 102.365 40.1651
15.307454 102.384 39.7505
15.418378 102.402 39.3339
15.530106 102.420 38.9157
15.642643 102.437 38.4968
15.755996 102.452 38.0783
15.870171 102.467 37.6613
15.985172 102.481 37.2473
16.101007 102.494 36.8375
16.217682 102.506 36.4333
16.335201 102.518 36.0355
16.453573 102.530 35.6448
16.572803 102.541 35.2614
16.692898 102.553 34.8849
16.813862 102.566 34.5145
16.935701 102.579 34.1487
17.058424 102.593 33.7857
17.182035 102.609 33.4232
17.306543 102.625 33.0589
17.431953 102.643 32.6905
17.558273 102.661 32.3156
17.685509 102.680 31.9328
17.813665 102.699 31.5408
17.942751 102.717 31.1394
18.072771 102.734 30.7290
18.203733 102.749 30.3111
18.335646 102.763 29.8879
18.468513 102.774 29.4623
18.602345 102.783 29.0377
18.737144 102.790 28.6177
18.872921 102.794 28.2061
19.009682 102.796 27.8062
19.147434 102.797 27.4205
19.286184 102.797 27.0508
19.425940 102.797 26.6979
19.566708 102.797 26.3611
19.708496 102.799 26.0387
19.851313 102.802 25.7278
19.995163 102.807 25.4247
20.140057 102.814 25.1251
20.285999 102.823 24.8244
20.433001 102.834 24.5186
20.581066 102.847 24.2040
20.730206 102.860 23.8781
20.880424 102.874 23.5393
21.031733 102.888 23.1877
21.184137 102.900 22.8245
21.337646 102.911 22.4517
21.492268 102.920 22.0724
21.648010 102.927 21.6901
21.804880 102.932 21.3084
21.962887 102.935 20.9305
22.122040 102.936 20.5592
22.282345 102.937 20.1962
22.443811 102.937 19.8423
22.606449 102.937 19.4971
22.770266 102.938 19.1593
22.935268 102.939 18.8270
23.101467 102.942 18.4976
23.268869 102.945 18.1683
23.437485 102.949 17.8365
23.607323 102.954 17.5002
23.778391 102.959 17.1580
23.950699 102.965 16.8092
24.124256 102.969 16.4541
24.299070 102.973 16.0938
24.475151 102.976 15.7300
24.652508 102.977 15.3652
24.831150 102.978 15.0018
25.011087 102.977 14.6423
25.192327 102.975 14.2888
25.374882 102.972 13.9426
25.558758 102.969 13.6047
25.743967 102.966 13.2748
25.930519 102.963 12.9520
26.118422 102.961 12.6345
26.307686 102.960 12.3207
26.498322 102.959 12.0083
26.690340 102.958 11.6962
26.883749 102.958 11.3835
27.078560 102.957 11.0706
27.274782 102.956 10.7585
27.472427 102.954 10.4493
27.671503 102.951 10.1448
27.872023 102.948 9.8464
28.073996 102.946 9.5549
28.277431 102.944 9.2692
28.482342 102.942 8.9868
28.688736 102.943 8.7039
28.896626 102.944 8.4159
29.106022 102.946 8.1187
29.316936 102.947 7.8095
29.529379 102.948 7.4874
29.743361 102.947 7.1542
29.958893 102.944 6.8138
30.175987 102.937 6.4720
30.394655 102.927 6.1351
30.614908 102.915 5.8088
30.836756 102.902 5.4971
31.060211 102.887 5.2012
31.285286 102.874 4.9195
31.511992 102.861 4.6481
31.740341 102.850 4.3812
31.970345 102.841 4.1130
32.202015 102.833 3.8383
32.435364 102.826 3.5536
32.670403 102.818 3.2577
32.907146 102.810 2.9514
33.145607 102.801 2.6376
33.385796 102.790 2.3198
33.627724 102.777 2.0026
33.871403 102.763 1.6895
34.116848 102.748 1.3837
34.364071 102.733 1.0865
34.613087 102.718 0.7976
34.863907 102.704 0.5145
35.116547 102.692 0.2335
35.371017 102.681 -0.0504
35.627331 102.672 -0.3413
35.885502 102.663 -0.6420
36.145542 102.653 -0.9526
36.407467 102.642 -1.2700
36.671291 102.629 -1.5886
36.937027 102.614 -1.9013
37.204689 102.598 -2.2014
37.474289 102.580 -2.4847
37.745842 102.563 -2.7512
38.019363 102.548 -3.0045
38.294868 102.534 -3.2513
38.572369 102.522 -3.4987
38.851879 102.510 -3.7509
39.133415 102.497 -4.0079
39.416992 102.482 -4.2646
39.702625 102.464 -4.5129
39.990326 102.444 -4.7444
40.280113 102.424 -4.9550
40.571999 102.405 -5.1466
40.866001 102.387 -5.3276
41.162132 102.372 -5.5105
41.460411 102.359 -5.7060
41.760849 102.345 -5.9196
42.063465 102.328 -6.1482
42.368275 102.308 -6.3821
42.675293 102.285 -6.6093
42.984535 102.261 -6.8220
43.296021 102.238 -7.0211
43.609760 102.219 -7.2177
43.925774 102.203 -7.4286
44.244080 102.191 -7.6707
44.564690 102.179 -7.9523
44.887623 102.166 -8.2700
45.212898 102.150 -8.6103
45.540531 102.130 -8.9557
45.870537 102.109 -9.2930
46.202934 102.090 -9.6202
46.537739 102.076 -9.9490
46.874969 102.066 -10.2995
47.214645 102.058 -10.6904
47.556782 102.048 -11.1270
47.901398 102.030 -11.5931
48.248512 102.000 -12.0515
48.598141 101.958 -12.4533
48.950302 101.908 -12.7540
49.305016 101.857 -12.9296
49.662300 101.812 -12.9861
50.022175 101.780 -12.9563
50.384655 101.762 -12.8857
50.749763 101.756 -12.8151
51.117516 101.759 -12.7692
51.487934 101.765 -12.7581
51.861038 101.773 -12.7864
52.236843 101.781 -12.8601
52.615372 101.786 -12.9869
52.996643 101.784 -13.1680
53.380680 101.772 -13.3911
53.767498 101.749 -13.6310
54.157120 101.714 -13.8608
54.549564 101.674 -14.0667
54.944855 101.633 -14.2552
55.343006 101.593 -14.4503
55.744045 101.556 -14.6779
56.147991 101.517 -14.9520
56.554863 101.476 -15.2688
56.964684 101.430 -15.6115
57.377472 101.380 -15.9596
57.793251 101.326 -16.2950
58.212044 101.272 -16.6035
58.633873 101.218 -16.8735
59.058758 101.168 -17.0978
59.486721 101.124 -17.2769
59.917786 101.088 -17.4230
60.351974 101.061 -17.5552
60.789310 101.040 -17.6907
61.229816 101.023 -17.8362
61.673512 101.005 -17.9859
62.120422 100.987 -18.1285
62.570572 100.967 -18.2557
63.023983 100.947 -18.3659
63.480682 100.927 -18.4645
63.940689 100.908 -18.5621
64.404030 100.891 -18.6748
64.870728 100.874 -18.8214
65.340805 100.854 -19.0143
65.814293 100.828 -19.2476
66.291214 100.793 -19.4933
66.771591 100.751 -19.7152
67.255447 100.706 -19.8929
67.742805 100.666 -20.0372
68.233696 100.631 -20.1794
68.728142 100.599 -20.3433
69.226173 100.565 -20.5241
69.727814 100.528 -20.6954
70.233093 100.489 -20.8345
70.742035 100.451 -20.9390
71.254662 100.416 -21.0216
71.771004 100.382 -21.0938
72.291084 100.351 -21.1613
72.814934 100.323 -21.2319
73.342583 100.297 -21.3190
73.874054 100.272 -21.4313
74.409378 100.249 -21.5646
74.948578 100.227 -21.7065
75.491684 100.208 -21.8511
76.038727 100.197 -22.0031
76.589737 100.192 -22.1714
77.144737 100.194 -22.3610
77.703758 100.201 -22.5695
78.266830 100.210 -22.7882
78.833984 100.222 -23.0107
79.405251 100.234 -23.2498
79.980652 100.243 -23.5356
80.560226 100.238 -23.8807
81.143997 100.208 -24.2396
81.732002 100.151 -24.5228
82.324265 100.076 -24.6627
82.920822 99.998 -24.6674
83.521698 99.928 -24.6030
84.126930 99.866 -24.5356
84.736549 99.813 -24.4973
85.350586 99.765 -24.4937
85.969070 99.723 -24.5160
86.592041 99.683 -24.5433
87.219521 99.647 -24.5474
87.851547 99.616 -24.5082
88.488159 99.589 -24.4254
89.129379 99.567 -24.3171
89.775246 99.547 -24.2134
90.425797 99.525 -24.1492
91.081062 99.494 -24.1543
91.741074 99.451 -24.2371
92.405869 99.392 -24.3762
93.075478 99.323 -24.5440
93.749939 99.253 -24.7420
94.429291 99.190 -24.9999
95.113564 99.133 -25.3289
95.802795 99.079 -25.6832
96.497025 99.028 -25.9750
97.196281 98.983 -26.1279
97.900604 98.952 -26.1273
98.610031 98.937 -26.0250
99.324600 98.929 -25.8940
100.044350 98.920 -25.7826
100.769310 98.903 -25.7122
101.499527 98.879 -25.7029
102.235031 98.850 -25.7889
102.975868 98.824 -26.0140
103.722076 98.802 -26.4058
104.473686 98.783 -26.9456
105.230743 98.767 -27.5685
105.993286 98.749 -28.1962
106.761360 98.725 -28.7632
107.534996 98.684 -29.2196
108.314240 98.613 -29.5112
109.099129 98.500 -29.5597
109.889709 98.346 -29.2770
110.686012 98.171 -28.6271
111.488091 98.004 -27.6798
112.295982 97.878 -26.6080
113.109726 97.814 -25.6544
113.929367 97.815 -25.0856
114.754944 97.851 -25.0483
115.586502 97.883 -25.3970
116.424088 97.895 -25.7594
117.267746 97.904 -25.8251
118.117516 97.934 -25.5154
118.973442 97.997 -24.9110
119.835571 98.086 -24.1241
120.703949 98.195 -23.2314
121.578621 98.323 -22.2878
122.459633 98.474 -21.3938
123.347023 98.649 -20.7179
124.240845 98.836 -20.4192
125.141144 99.012 -20.5389
126.047966 99.161 -21.0095
126.961365 99.272 -21.7593
127.881378 99.332 -22.7343
128.808060 99.324 -23.8810
129.741455 99.229 -25.1396
130.681610 99.030 -26.3702
131.628586 98.731 -27.3636
132.582428 98.365 -27.9902
133.543182 97.987 -28.2815
134.510895 97.657 -28.4261
135.485611 97.421 -28.6727
136.467392 97.301 -29.0900
137.456284 97.295 -29.4280
138.452347 97.399 -29.2822
139.455627 97.592 -28.3458
140.466187 97.835 -26.4893
141.484070 98.074 -23.7206
142.509323 98.266 -20.1806
143.542007 98.381 -16.1696
144.582169 98.403 -12.0912
145.629868 98.332 -8.3884
146.685165 98.188 -5.5385
147.748108 98.006 -4.0406
148.818756 97.825 -4.3488
149.897156 97.658 -6.6088
150.983368 97.502 -10.2971
152.077454 97.366 -14.3467
153.179474 97.267 -17.7961
154.289474 97.208 -20.2314
155.407516 97.165 -21.7402
156.533661 97.106 -22.6312
157.667969 97.019 -23.2207
158.810501 96.912 -23.7443
159.961304 96.806 -24.3086
161.120453 96.722 -24.8911
162.287994 96.669 -25.3949
163.464005 96.641 -25.7327
164.648529 96.623 -25.8793
165.841644 96.600 -25.8826
167.043396 96.564 -25.8367
168.253860 96.515 -25.8344
169.473099 96.461 -25.9284
170.701172 96.419 -26.1284
171.938141 96.407 -26.4128
173.184082 96.438 -26.7380
174.439041 96.517 -27.0531
175.703094 96.631 -27.3207
176.976318 96.749 -27.5319
178.258759 96.830 -27.6859
179.550491 96.831 -27.7324
180.851593 96.736 -27.5632
182.162125 96.565 -27.1489
183.482147 96.363 -26.6190
184.811737 96.165 -26.1216
186.150955 95.991 -25.7196
187.499878 95.833 -25.4258
188.858582 95.668 -25.2785
190.227127 95.474 -25.3656
191.605591 95.246 -25.7683
192.994049 95.014 -26.4322
194.392563 94.835 -27.0568
195.801208 94.767 -27.2173
197.220062 94.830 -26.8021
198.649200 94.988 -26.1632
200.088699 95.171 -25.5885
201.538620 95.326 -25.1075
202.999054 95.432 -24.7126
204.470062 95.491 -24.4442
205.951736 95.517 -24.3409
207.444153 95.527 -24.3866
208.947372 95.524 -24.5076
210.461487 95.506 -24.6147
211.986572 95.469 -24.6421
213.522720 95.413 -24.5613
215.069992 95.347 -24.3932
216.628479 95.282 -24.1983
218.198257 95.225 -24.0272
219.779419 95.177 -23.8834
221.372025 95.138 -23.7386
222.976181 95.107 -23.5685
224.591965 95.080 -23.3689
226.219452 95.053 -23.1495
227.858734 95.022 -22.9226
229.509888 94.982 -22.6979
231.173004 94.939 -22.4810
232.848175 94.896 -22.2783
234.535492 94.861 -22.0928
236.235031 94.833 -21.9253
237.946884 94.809 -21.7770
239.671143 94.782 -21.6448
241.407898 94.748 -21.5200
243.157242 94.710 -21.3909
244.919266 94.673 -21.2485
246.694046 94.643 -21.0925
248.481689 94.619 -20.9199
250.282288 94.598 -20.7040
252.095932 94.572 -20.4031
253.922729 94.538 -19.9918
255.762756 94.489 -19.4919
257.616119 94.427 -18.9824
259.482910 94.356 -18.5674
261.363220 94.291 -18.3276
263.257172 94.247 -18.2991
265.164856 94.226 -18.4540
267.086365 94.219 -18.6875
269.021790 94.215 -18.8911
270.971222 94.207 -19.0255
272.934784 94.195 -19.1052
274.912567 94.182 -19.1435
276.904694 94.169 -19.1325
278.911255 94.158 -19.0662
280.932373 94.150 -18.9553
282.968140 94.144 -18.8171
285.018646 94.139 -18.6626
287.084015 94.133 -18.5028
289.164337 94.126 -18.3538
291.259735 94.115 -18.2299
293.370331 94.101 -18.1337
295.496216 94.082 -18.0540
297.637512 94.059 -17.9738
299.794312 94.031 -17.8785
301.966736 94.000 -17.7607
304.154907 93.966 -17.6184
306.358948 93.933 -17.4562
308.578949 93.900 -17.2842
310.815033 93.869 -17.1138
313.067322 93.839 -16.9530
315.335938 93.809 -16.8025
317.621002 93.777 -16.6545
319.922607 93.745 -16.4992
322.240906 93.713 -16.3302
324.575989 93.682 -16.1458
326.928009 93.654 -15.9484
329.297058 93.630 -15.7420
331.683289 93.610 -15.5309
334.086792 93.592 -15.3182
336.507721 93.575 -15.1063
338.946198 93.557 -14.8975
341.402344 93.537 -14.6958
343.876282 93.516 -14.5052
346.368164 93.493 -14.3273
348.878082 93.470 -14.1571
351.406189 93.448 -13.9861
353.952637 93.426 -13.8088
356.517517 93.405 -13.6249
359.100983 93.385 -13.4363
361.703186 93.363 -13.2449
364.324249 93.340 -13.0510
366.964294 93.317 -12.8544
369.623474 93.293 -12.6537
372.301910 93.270 -12.4471
374.999756 93.247 -12.2322
377.717163 93.225 -12.0073
380.454254 93.204 -11.7739
383.211182 93.183 -11.5358
385.988098 93.163 -11.2954
388.785126 93.143 -11.0536
391.602417 93.123 -10.8115
394.440125 93.103 -10.5721
397.298401 93.084 -10.3383
400.177399 93.065 -10.1110
403.077240 93.047 -9.8889
405.998108 93.029 -9.6703
408.940125 93.012 -9.4539
411.903473 92.994 -9.2368
414.888306 92.976 -9.0148
417.894745 92.957 -8.7832
420.922974 92.938 -8.5408
423.973145 92.919 -8.2898
427.045441 92.901 -8.0353
430.139984 92.885 -7.7833
433.256958 92.870 -7.5368
436.396515 92.856 -7.2946
439.558838 92.844 -7.0524
442.744049 92.834 -6.8068
445.952362 92.825 -6.5583
449.183929 92.819 -6.3126
452.438904 92.814 -6.0781
455.717468 92.808 -5.8605
459.019775 92.801 -5.6587
462.346008 92.791 -5.4645
465.696350 92.777 -5.2671
469.070984 92.761 -5.0581
472.470062 92.745 -4.8351
475.893768 92.728 -4.6006
479.342285 92.712 -4.3604
482.815796 92.696 -4.1207
486.314484 92.680 -3.8840
489.838531 92.662 -3.6465
493.388092 92.644 -3.3997
496.963379 92.626 -3.1389
500.564575 92.609 -2.8669
504.191864 92.594 -2.5898
507.845459 92.581 -2.3130
511.525513 92.569 -2.0391
515.232239 92.557 -1.7672
518.965820 92.544 -1.4945
522.726440 92.530 -1.2172
526.514343 92.515 -0.9318
530.329712 92.501 -0.6373
534.172729 92.488 -0.3369
538.043579 92.475 -0.0342
541.942444 92.463 0.2709
545.869568 92.453 0.5801
549.825134 92.443 0.8940
553.809387 92.436 1.2096
557.822510 92.430 1.5214
561.864746 92.425 1.8248
565.936279 92.419 2.1205
570.037292 92.413 2.4126
574.168030 92.405 2.7070
578.328674 92.397 3.0073
582.519470 92.388 3.3134
586.740662 92.379 3.6237
590.992432 92.370 3.9401
595.275024 92.363 4.2675
599.588623 92.357 4.6071
603.933472 92.353 4.9526
608.309814 92.350 5.2958
612.717896 92.347 5.6333
617.157898 92.344 5.9694
621.630066 92.340 6.3137
626.134644 92.336 6.6748
630.671875 92.332 7.0548
635.242004 92.331 7.4481
639.845215 92.332 7.8465
644.481812 92.335 8.2453
649.151978 92.340 8.6442
653.856018 92.348 9.0421
658.594116 92.359 9.4336
663.366577 92.371 9.8087
668.173584 92.386 10.1594
673.015442 92.399 10.4864
677.892395 92.412 10.7982
682.804688 92.423 11.1053
687.752563 92.432 11.4159
692.736328 92.440 11.7355
697.756165 92.448 12.0671
702.812378 92.455 12.4111
707.905273 92.463 12.7650
713.035034 92.471 13.1242
718.201965 92.480 13.4860
723.406372 92.490 13.8504
728.648499 92.500 14.2192
733.928589 92.512 14.5917
739.246948 92.526 14.9642
744.603821 92.541 15.3319
749.999512 92.558 15.6902
755.434326 92.575 16.0363
760.908508 92.593 16.3698
766.422363 92.610 16.6912
771.976196 92.625 17.0022
777.570251 92.639 17.3061
783.204834 92.649 17.6081
788.880249 92.657 17.9166
794.596802 92.661 18.2451
800.354797 92.662 18.6086
806.154480 92.663 19.0173
811.996216 92.666 19.4719
817.880249 92.673 19.9647
823.806946 92.686 20.4807
829.776611 92.706 21.0016
835.789490 92.732 21.5132
841.845947 92.762 22.0121
847.946289 92.795 22.5013
854.090881 92.832 22.9828
860.279968 92.871 23.4557
866.513916 92.912 23.9204
872.793030 92.955 24.3809
879.117676 93.000 24.8384
885.488098 93.047 25.2881
891.904724 93.095 25.7244
898.367859 93.144 26.1453
904.877808 93.193 26.5527
911.434937 93.243 26.9494
918.039551 93.293 27.3362
924.692017 93.344 27.7137
931.392700 93.395 28.0816
938.141968 93.448 28.4388
944.940125 93.502 28.7851
951.787537 93.557 29.1213
958.684570 93.611 29.4489
965.631592 93.666 29.7699
972.628967 93.721 30.0871
979.677063 93.775 30.4028
986.776184 93.830 30.7183
993.926758 93.885 31.0361
1001.129150 93.939 31.3602
1008.383728 93.995 31.6932
1015.690918 94.053 32.0324
1023.051025 94.113 32.3713
1030.464478 94.177 32.7015
1037.931641 94.245 33.0121
1045.452881 94.315 33.2929
1053.028687 94.387 33.5407
1060.659424 94.458 33.7609
1068.345459 94.527 33.9627
1076.087158 94.594 34.1553
1083.884888 94.658 34.3443
1091.739136 94.722 34.5305
1099.650269 94.784 34.7135
1107.618774 94.846 34.8950
1115.645020 94.907 35.0773
1123.729492 94.968 35.2617
1131.872559 95.029 35.4482
1140.074585 95.091 35.6364
1148.336060 95.154 35.8255
1156.657349 95.218 36.0154
1165.038940 95.283 36.2055
1173.481323 95.349 36.3943
1181.984863 95.418 36.5783
1190.550049 95.489 36.7497
1199.177246 95.563 36.8973
1207.866943 95.639 37.0112
1216.619629 95.714 37.0883
1225.435791 95.787 37.1346
1234.315796 95.857 37.1602
1243.260132 95.923 37.1758
1252.269287 95.985 37.1909
1261.343750 96.044 37.2120
1270.484009 96.101 37.2420
1279.690430 96.155 37.2819
1288.963623 96.209 37.3313
1298.303955 96.261 37.3876
1307.712036 96.314 37.4474
1317.188232 96.367 37.5074
1326.733154 96.419 37.5664
1336.347168 96.470 37.6265
1346.030884 96.519 37.6919
1355.784790 96.567 37.7664
1365.609375 96.614 37.8525
1375.505127 96.660 37.9522
1385.472656 96.706 38.0690
1395.512329 96.754 38.2043
1405.624756 96.805 38.3541
1415.810547 96.861 38.5076
1426.070068 96.921 38.6501
1436.403931 96.983 38.7717
1446.812744 97.047 38.8712
1457.296997 97.110 38.9529
1467.857178 97.172 39.0215
1478.493896 97.233 39.0818
1489.207642 97.292 39.1393
1499.999023 97.351 39.1998
1510.868652 97.409 39.2676
1521.817017 97.466 39.3453
1532.844727 97.524 39.4348
1543.952393 97.583 39.5376
1555.140503 97.643 39.6535
1566.409668 97.707 39.7774
1577.760498 97.775 39.8974
1589.193604 97.846 39.9987
1600.709595 97.920 40.0713
1612.308960 97.994 40.1139
1623.992432 98.067 40.1316
1635.760498 98.138 40.1323
1647.613892 98.207 40.1240
1659.553223 98.275 40.1130
1671.578979 98.343 40.1034
1683.691895 98.410 40.0956
1695.892578 98.477 40.0867
1708.181763 98.543 40.0732
1720.559937 98.609 40.0546
1733.027832 98.673 40.0342
1745.586060 98.735 40.0184
1758.235352 98.797 40.0146
1770.976196 98.859 40.0280
1783.809448 98.924 40.0570
1796.735718 98.993 40.0913
1809.755615 99.066 40.1155
1822.869873 99.141 40.1179
1836.079102 99.218 40.0940
1849.384033 99.294 40.0456
1862.785400 99.369 39.9775
1876.283936 99.443 39.8957
1889.880249 99.515 39.8066
1903.575073 99.586 39.7160
1917.369141 99.655 39.6284
1931.263184 99.725 39.5464
1945.257935 99.796 39.4688
1959.354126 99.869 39.3878
1973.552368 99.945 39.2912
1987.853516 100.022 39.1700
2002.258301 100.098 39.0224
2016.767456 100.172 38.8521
2031.381836 100.242 38.6653
2046.102051 100.309 38.4691
2060.928955 100.372 38.2703
2075.863281 100.432 38.0739
2090.905762 100.489 37.8846
2106.057373 100.544 37.7085
2121.318848 100.595 37.5544
2136.690918 100.645 37.4332
2152.174316 100.696 37.3541
2167.769775 100.750 37.3184
2183.478271 100.811 37.3155
2199.300537 100.879 37.3269
2215.237549 100.956 37.3332
2231.290039 101.039 37.3181
2247.458984 101.129 37.2683
2263.745117 101.223 37.1743
2280.149170 101.319 37.0317
2296.672119 101.416 36.8419
2313.314697 101.513 36.6110
2330.077881 101.608 36.3453
2346.962646 101.701 36.0468
2363.969727 101.792 35.7155
2381.100098 101.879 35.3541
2398.354492 101.963 34.9712
2415.733887 102.041 34.5778
2433.239258 102.117 34.1844
2450.871582 102.191 33.7968
2468.631592 102.265 33.4144
2486.520264 102.339 33.0322
2504.538574 102.415 32.6434
2522.687500 102.494 32.2416
2540.968018 102.574 31.8202
2559.380859 102.657 31.3686
2577.927246 102.741 30.8725
2596.607910 102.823 30.3214
2615.424072 102.902 29.7126
2634.376465 102.973 29.0525
2653.466309 103.035 28.3556
2672.694336 103.088 27.6421
2692.061768 103.130 26.9327
2711.569580 103.166 26.2426
2731.218750 103.197 25.5748
2751.010254 103.225 24.9231
2770.945312 103.252 24.2779
2791.024658 103.276 23.6313
2811.249512 103.299 22.9791
2831.621094 103.318 22.3192
2852.140137 103.333 21.6512
2872.807861 103.343 20.9778
2893.625488 103.347 20.3059
2914.593994 103.344 19.6477
2935.714355 103.334 19.0142
2956.987793 103.321 18.4098
2978.415283 103.305 17.8313
2999.998047 103.286 17.2724
3021.737305 103.266 16.7277
3043.634033 103.243 16.1960
3065.689453 103.217 15.6808
3087.904785 103.189 15.1875
3110.281006 103.160 14.7178
3132.819336 103.129 14.2679
3155.520996 103.098 13.8325
3178.387207 103.064 13.4097
3201.419189 103.027 13.0023
3224.617920 102.986 12.6172
3247.984863 102.942 12.2627
3271.520996 102.894 11.9485
3295.227783 102.843 11.6851
3319.106445 102.793 11.4807
3343.157959 102.746 11.3329
3367.383789 102.705 11.2281
3391.785156 102.670 11.1466
3416.363525 102.642 11.0705
3441.119873 102.619 10.9907
3466.055664 102.599 10.9078
3491.172119 102.582 10.8268
3516.470703 102.567 10.7490
3541.952393 102.555 10.6713
3567.618896 102.547 10.5872
3593.471436 102.542 10.4909
3619.511230 102.539 10.3767
3645.739746 102.537 10.2411
3672.158203 102.534 10.0861
3698.768066 102.531 9.9199
3725.570801 102.526 9.7506
3752.567871 102.520 9.5809
3779.760498 102.515 9.4081
3807.150146 102.509 9.2290
3834.738281 102.502 9.0455
3862.526367 102.493 8.8650
3890.515869 102.483 8.6945
3918.708252 102.474 8.5344
3947.104736 102.467 8.3785
3975.707031 102.462 8.2167
4004.516602 102.459 8.0372
4033.534912 102.457 7.8304
4062.763672 102.454 7.5941
4092.204102 102.447 7.3356
4121.857910 102.437 7.0647
4151.726562 102.422 6.7892
4181.811523 102.403 6.5145
4212.114746 102.378 6.2480
4242.637695 102.349 6.0029
4273.381836 102.315 5.7949
4304.348633 102.280 5.6339
4335.539551 102.247 5.5197
4366.956543 102.219 5.4417
4398.601074 102.199 5.3796
4430.475098 102.186 5.3085
4462.580078 102.178 5.2067
4494.917969 102.175 5.0608
4527.490234 102.173 4.8632
4560.298340 102.170 4.6111
4593.344238 102.161 4.3085
4626.629395 102.146 3.9689
4660.155762 102.123 3.6133
4693.925293 102.091 3.2605
4727.939453 102.054 2.9214
4762.200195 102.013 2.5970
4796.708984 101.968 2.2799
4831.467773 101.921 1.9611
4866.478516 101.869 1.6361
4901.743164 101.812 1.3056
4937.263184 101.749 0.9713
4973.040527 101.678 0.6357
5009.077148 101.598 0.3073
5045.375000 101.508 0.0021
5081.936035 101.406 -0.2607
5118.761719 101.296 -0.4645
5155.854492 101.179 -0.5999
5193.215820 101.057 -0.6647
5230.848145 100.933 -0.6610
5268.752930 100.807 -0.5896
5306.932617 100.680 -0.4515
5345.388672 100.553 -0.2513
5384.123535 100.426 0.0064
5423.139160 100.299 0.3222
5462.437500 100.171 0.7035
5502.020508 100.044 1.1598
5541.890625 99.919 1.6973
5582.049316 99.798 2.3153
5622.499023 99.683 3.0071
5663.242188 99.575 3.7648
5704.280273 99.476 4.5803
5745.615723 99.384 5.4423
5787.250977 99.300 6.3405
5829.187988 99.222 7.2709
5871.428711 99.151 8.2380
5913.975586 99.085 9.2500
5956.830566 99.026 10.3129
5999.996094 98.976 11.4274
6043.474609 98.936 12.5897
6087.268066 98.908 13.7930
6131.378906 98.892 15.0264
6175.809570 98.888 16.2785
6220.562012 98.895 17.5427
6265.638672 98.913 18.8202
6311.041992 98.941 20.1163
6356.774414 98.980 21.4350
6402.838379 99.031 22.7748
6449.235840 99.097 24.1312
6495.969727 99.177 25.4972
6543.041992 99.273 26.8629
6590.455566 99.386 28.2181
6638.212891 99.514 29.5567
6686.315918 99.657 30.8777
6734.767578 99.817 32.1817
6783.570312 99.995 33.4656
6832.727051 100.191 34.7221
6882.239746 100.408 35.9376
6932.111328 100.648 37.0928
6982.344238 100.909 38.1662
7032.941406 101.193 39.1392
7083.904785 101.498 39.9976
7135.237793 101.825 40.7275
7186.942871 102.175 41.3109
7239.022461 102.546 41.7242
7291.479492 102.939 41.9361
7344.316406 103.351 41.9096
7397.536133 103.779 41.6067
7451.141602 104.217 40.9945
7505.135742 104.658 40.0473
7559.520996 105.095 38.7455
7614.300293 105.520 37.0764
7669.476562 105.923 35.0355
7725.052734 106.296 32.6257
7781.031738 106.625 29.8635
7837.416504 106.901 26.7850
7894.209473 107.112 23.4493
7951.414062 107.251 19.9332
8009.033203 107.312 16.3270
8067.069824 107.295 12.7264
8125.527344 107.203 9.2222
8184.408203 107.041 5.8954
8243.715820 106.816 2.8166
8303.453125 106.538 0.0457
8363.623047 106.215 -2.3704
8424.229492 105.861 -4.3984
8485.275391 105.486 -6.0232
8546.763672 105.103 -7.2501
8608.697266 104.724 -8.1024
8671.079102 104.356 -8.6127
8733.913086 104.007 -8.8162
8797.202148 103.682 -8.7463
8860.950195 103.384 -8.4339
8925.160156 103.119 -7.9131
8989.835938 102.890 -7.2241
9054.980469 102.699 -6.4098
9120.596680 102.549 -5.5116
9186.688477 102.440 -4.5663
9253.258789 102.372 -3.6060
9320.311523 102.346 -2.6649
9387.850586 102.365 -1.7857
9455.878906 102.427 -1.0190
9524.400391 102.533 -0.4199
9593.417969 102.679 -0.0424
9662.935547 102.862 0.0627
9732.957031 103.077 -0.1570
9803.486328 103.317 -0.7582
9874.526367 103.574 -1.7966
9946.081055 103.833 -3.3184
10018.154297 104.079 -5.3494
10090.750000 104.296 -7.8900
10163.872070 104.464 -10.9146
10237.523438 104.568 -14.3721
10311.708984 104.591 -18.1849
10386.431641 104.519 -22.2466
10461.696289 104.342 -26.4256
10537.505859 104.056 -30.5757
10613.865234 103.664 -34.5526
10690.777344 103.172 -38.2279
10768.247070 102.592 -41.4966
10846.278320 101.938 -44.2777
10924.875000 101.224 -46.5142
11004.041016 100.468 -48.1741
11083.781250 99.685 -49.2521
11164.098633 98.891 -49.7667
11244.998047 98.099 -49.7513
11326.484375 97.319 -49.2444
11408.560547 96.560 -48.2864
11491.231445 95.829 -46.9208
11574.501953 95.132 -45.1948
11658.375977 94.472 -43.1541
11742.857422 93.852 -40.8367
11827.951172 93.274 -38.2764
11913.661133 92.740 -35.5107
11999.992188 92.250 -32.5836
12086.949219 91.805 -29.5391
12174.536133 91.404 -26.4117
12262.757812 91.046 -23.2230
12351.619141 90.731 -19.9897
12441.124023 90.456 -16.7296
12531.277344 90.221 -13.4584
12622.083984 90.025 -10.1880
12713.548828 89.867 -6.9313
12805.676758 89.748 -3.7059
12898.471680 89.669 -0.5328
12991.939453 89.629 2.5691
13086.083984 89.628 5.5809
13180.911133 89.667 8.4777
13276.425781 89.746 11.2268
13372.631836 89.864 13.7925
13469.535156 90.018 16.1365
13567.140625 90.206 18.2153
13665.454102 90.425 19.9805
13764.479492 90.668 21.3869
13864.222656 90.926 22.4013
13964.688477 91.191 23.0035
14065.882812 91.451 23.1857
14167.809570 91.696 22.9550
14270.475586 91.914 22.3375
14373.885742 92.094 21.3768
14478.044922 92.229 20.1318
14582.958984 92.310 18.6793
14688.632812 92.334 17.1132
14795.072266 92.301 15.5353
14902.283203 92.219 14.0425
15010.271484 92.099 12.7142
15119.041992 91.957 11.6017
15228.600586 91.812 10.7144
15338.953125 91.686 10.0125
15450.105469 91.598 9.4120
15562.063477 91.564 8.7920
15674.833008 91.596 8.0006
15788.418945 91.699 6.8600
15902.828125 91.868 5.1780
16018.066406 92.088 2.7669
16134.139648 92.325 -0.5330
16251.054688 92.538 -4.8218
16368.816406 92.670 -10.1057
16487.431641 92.666 -16.2698
16606.906250 92.472 -23.0684
16727.246094 92.052 -30.1420
16848.458984 91.390 -37.0702
16970.550781 90.490 -43.4469
17093.527344 89.377 -48.9374
17217.394531 88.084 -53.2963
17342.158203 86.647 -56.3638
17467.826172 85.107 -58.0576
17594.404297 83.505 -58.3682
17721.900391 81.885 -57.3596
17850.320312 80.289 -55.1703
17979.671875 78.758 -51.9987
18109.960938 77.319 -48.0702
18241.193359 75.982 -43.6220
18373.376953 74.747 -38.9050
18506.517578 73.610 -34.1378
18640.623047 72.567 -29.4608
18775.701172 71.613 -24.9360
18911.757812 70.739 -20.5704
19048.800781 69.930 -16.3557
19186.835938 69.175 -12.2950
19325.871094 68.463 -8.4033
19465.914062 67.794 -4.7146
19606.972656 67.182 -1.3096
19749.052734 66.660 1.6443
19892.162109 66.272 3.8860
20036.308594 66.064 5.1165
