* Measurement data measured by REW V5.31
* Source: EXCL: Microphone (USB Sound Device        ), MICROPHONE (Master Volume), L, volume: 0.560
* Format: 256k Log Swept Sine, 1 sweep at 0.0 dBFS with no timing reference
* Dated: Apr 18, 2024 12:19:09 PM
* REW Settings:
*  C-weighting compensation: Off
*  Target level: 75.0 dB
* Note: KZ ZS10 Pro 2 0001 L
* Measurement: L KZ ZS10 Pro 2 0001
* Smoothing: 1/12 octave
* Frequency Step: 96 ppo
* Start Frequency: 0.36621094 Hz
*
* Freq(Hz) SPL(dB) Phase(degrees)
0.366211 83.286 158.3630
0.368865 83.280 158.3400
0.371538 83.270 158.3055
0.374230 83.258 158.2621
0.376942 83.244 158.2121
0.379673 83.230 158.1572
0.382424 83.215 158.0983
0.385196 83.199 158.0362
0.387987 83.183 157.9713
0.390798 83.167 157.9037
0.393630 83.151 157.8335
0.396483 83.135 157.7608
0.399356 83.118 157.6856
0.402250 83.102 157.6079
0.405165 83.085 157.5276
0.408101 83.068 157.4448
0.411058 83.051 157.3593
0.414037 83.034 157.2713
0.417037 83.017 157.1805
0.420059 83.000 157.0871
0.423103 82.982 156.9911
0.426169 82.965 156.8923
0.429257 82.947 156.7907
0.432368 82.929 156.6864
0.435501 82.911 156.5792
0.438656 82.893 156.4693
0.441835 82.875 156.3565
0.445037 82.856 156.2408
0.448262 82.838 156.1222
0.451510 82.819 156.0007
0.454782 82.801 155.8762
0.458077 82.782 155.7488
0.461397 82.763 155.6184
0.464740 82.744 155.4850
0.468108 82.724 155.3486
0.471500 82.705 155.2091
0.474917 82.685 155.0666
0.478358 82.665 154.9209
0.481825 82.646 154.7722
0.485316 82.626 154.6204
0.488833 82.605 154.4654
0.492375 82.585 154.3073
0.495943 82.565 154.1460
0.499537 82.544 153.9816
0.503157 82.523 153.8139
0.506803 82.502 153.6431
0.510475 82.481 153.4691
0.514175 82.460 153.2919
0.517900 82.439 153.1115
0.521653 82.417 152.9279
0.525434 82.396 152.7411
0.529241 82.374 152.5511
0.533076 82.352 152.3579
0.536939 82.330 152.1615
0.540830 82.307 151.9620
0.544749 82.285 151.7592
0.548696 82.262 151.5533
0.552673 82.240 151.3443
0.556677 82.217 151.1321
0.560711 82.193 150.9169
0.564774 82.170 150.6986
0.568867 82.147 150.4772
0.572989 82.123 150.2528
0.577141 82.099 150.0255
0.581324 82.075 149.7952
0.585536 82.051 149.5620
0.589779 82.027 149.3260
0.594053 82.002 149.0872
0.598358 81.978 148.8457
0.602694 81.953 148.6015
0.607061 81.928 148.3546
0.611460 81.903 148.1053
0.615891 81.877 147.8535
0.620354 81.852 147.5993
0.624849 81.826 147.3429
0.629377 81.800 147.0843
0.633938 81.774 146.8236
0.638532 81.747 146.5609
0.643159 81.721 146.2963
0.647819 81.694 146.0301
0.652514 81.667 145.7622
0.657242 81.640 145.4928
0.662005 81.613 145.2222
0.666802 81.585 144.9503
0.671634 81.558 144.6775
0.676501 81.530 144.4038
0.681403 81.502 144.1295
0.686341 81.473 143.8548
0.691314 81.445 143.5797
0.696324 81.416 143.3046
0.701370 81.387 143.0296
0.706452 81.357 142.7547
0.711571 81.327 142.4802
0.716728 81.296 142.2059
0.721921 81.263 141.9315
0.727153 81.229 141.6566
0.732422 81.192 141.3803
0.737729 81.153 141.1016
0.743075 81.112 140.8194
0.748460 81.068 140.5327
0.753883 81.023 140.2407
0.759346 80.976 139.9428
0.764849 80.929 139.6387
0.770391 80.880 139.3281
0.775974 80.831 139.0108
0.781597 80.781 138.6866
0.787261 80.731 138.3555
0.792966 80.679 138.0171
0.798712 80.628 137.6716
0.804500 80.575 137.3187
0.810329 80.521 136.9583
0.816201 80.467 136.5905
0.822116 80.412 136.2149
0.828073 80.356 135.8317
0.834074 80.299 135.4406
0.840118 80.242 135.0416
0.846206 80.183 134.6346
0.852338 80.123 134.2196
0.858514 80.063 133.7964
0.864735 80.001 133.3651
0.871001 79.938 132.9255
0.877313 79.875 132.4776
0.883670 79.810 132.0213
0.890074 79.743 131.5567
0.896524 79.676 131.0837
0.903020 79.607 130.6023
0.909564 79.537 130.1125
0.916155 79.466 129.6144
0.922794 79.393 129.1080
0.929481 79.319 128.5932
0.936216 79.243 128.0703
0.943000 79.166 127.5393
0.949834 79.087 127.0003
0.956717 79.007 126.4535
0.963649 78.924 125.8990
0.970632 78.840 125.3370
0.977666 78.755 124.7677
0.984750 78.667 124.1914
0.991886 78.577 123.6084
0.999074 78.486 123.0190
1.006314 78.392 122.4236
1.013606 78.296 121.8225
1.020951 78.198 121.2163
1.028349 78.098 120.6053
1.035801 77.995 119.9902
1.043307 77.890 119.3714
1.050867 77.782 118.7496
1.058482 77.672 118.1254
1.066152 77.559 117.4993
1.073878 77.443 116.8718
1.081660 77.323 116.2430
1.089498 77.200 115.6129
1.097393 77.073 114.9809
1.105345 76.940 114.3459
1.113355 76.802 113.7065
1.121423 76.657 113.0612
1.129549 76.506 112.4086
1.137734 76.349 111.7473
1.145979 76.185 111.0760
1.154283 76.014 110.3936
1.162647 75.837 109.6986
1.171072 75.654 108.9900
1.179558 75.465 108.2664
1.188106 75.271 107.5263
1.196715 75.072 106.7683
1.205387 74.868 105.9909
1.214122 74.659 105.1922
1.222920 74.447 104.3706
1.231782 74.231 103.5239
1.240708 74.012 102.6502
1.249699 73.791 101.7470
1.258754 73.567 100.8121
1.267876 73.342 99.8427
1.277063 73.116 98.8360
1.286318 72.890 97.7890
1.295639 72.664 96.6985
1.305027 72.439 95.5609
1.314484 72.215 94.3727
1.324009 71.993 93.1299
1.333604 71.775 91.8283
1.343268 71.560 90.4638
1.353002 71.350 89.0316
1.362806 71.145 87.5273
1.372681 70.946 85.9461
1.382628 70.755 84.2833
1.392647 70.572 82.5343
1.402739 70.397 80.6945
1.412904 70.233 78.7599
1.423142 70.079 76.7266
1.433455 69.938 74.5910
1.443843 69.808 72.3498
1.454305 69.692 69.9994
1.464844 69.588 67.5354
1.475459 69.497 64.9524
1.486150 69.419 62.2446
1.496920 69.352 59.4056
1.507767 69.297 56.4306
1.518693 69.253 53.3162
1.529698 69.219 50.0617
1.540783 69.195 46.6693
1.551948 69.182 43.1451
1.563194 69.178 39.4991
1.574521 69.184 35.7455
1.585931 69.199 31.9030
1.597423 69.223 27.9941
1.608999 69.255 24.0446
1.620658 69.296 20.0824
1.632402 69.344 16.1366
1.644232 69.401 12.2357
1.656146 69.464 8.4065
1.668147 69.534 4.6730
1.680235 69.611 1.0556
1.692411 69.694 -2.4295
1.704675 69.782 -5.7704
1.717028 69.875 -8.9591
1.729470 69.972 -11.9917
1.742003 70.074 -14.8671
1.754626 70.179 -17.5875
1.767341 70.288 -20.1570
1.780147 70.400 -22.5820
1.793047 70.515 -24.8706
1.806040 70.633 -27.0327
1.819128 70.756 -29.0800
1.832310 70.885 -31.0254
1.845587 71.021 -32.8823
1.858961 71.165 -34.6629
1.872432 71.320 -36.3773
1.886001 71.484 -38.0329
1.899667 71.658 -39.6350
1.913433 71.843 -41.1872
1.927299 72.036 -42.6921
1.941265 72.237 -44.1514
1.955332 72.446 -45.5661
1.969501 72.661 -46.9372
1.983773 72.882 -48.2653
1.998148 73.107 -49.5506
2.012627 73.334 -50.7934
2.027212 73.564 -51.9938
2.041902 73.794 -53.1518
2.056698 74.024 -54.2673
2.071602 74.251 -55.3401
2.086614 74.476 -56.3702
2.101734 74.695 -57.3574
2.116964 74.909 -58.3019
2.132304 75.116 -59.2039
2.147756 75.314 -60.0645
2.163320 75.503 -60.8854
2.178996 75.683 -61.6692
2.194786 75.853 -62.4201
2.210690 76.015 -63.1431
2.226710 76.167 -63.8432
2.242845 76.313 -64.5248
2.259098 76.451 -65.1910
2.275468 76.583 -65.8438
2.291957 76.710 -66.4840
2.308566 76.831 -67.1121
2.325295 76.947 -67.7278
2.342145 77.058 -68.3307
2.359117 77.165 -68.9200
2.376212 77.269 -69.4948
2.393431 77.369 -70.0543
2.410775 77.466 -70.5971
2.428244 77.561 -71.1222
2.445840 77.654 -71.6282
2.463564 77.746 -72.1139
2.481416 77.836 -72.5781
2.499397 77.925 -73.0197
2.517509 78.014 -73.4378
2.535752 78.103 -73.8322
2.554127 78.190 -74.2029
2.572635 78.277 -74.5510
2.591277 78.362 -74.8777
2.610055 78.444 -75.1849
2.628968 78.524 -75.4740
2.648019 78.602 -75.7463
2.667208 78.677 -76.0031
2.686535 78.750 -76.2453
2.706003 78.820 -76.4737
2.725612 78.889 -76.6889
2.745363 78.957 -76.8917
2.765257 79.023 -77.0824
2.785295 79.089 -77.2616
2.805478 79.154 -77.4295
2.825808 79.220 -77.5866
2.846285 79.286 -77.7328
2.866910 79.354 -77.8682
2.887685 79.422 -77.9925
2.908611 79.491 -78.1052
2.929688 79.562 -78.2055
2.950917 79.633 -78.2925
2.972301 79.705 -78.3657
2.993839 79.778 -78.4250
3.015534 79.851 -78.4712
3.037386 79.924 -78.5052
3.059396 79.998 -78.5287
3.081565 80.072 -78.5434
3.103896 80.146 -78.5512
3.126388 80.221 -78.5541
3.149043 80.297 -78.5540
3.171862 80.374 -78.5529
3.194847 80.452 -78.5524
3.217998 80.531 -78.5541
3.241317 80.612 -78.5587
3.264805 80.694 -78.5667
3.288463 80.778 -78.5775
3.312293 80.864 -78.5901
3.336295 80.951 -78.6033
3.360471 81.040 -78.6163
3.384822 81.131 -78.6293
3.409350 81.223 -78.6431
3.434056 81.316 -78.6590
3.458940 81.411 -78.6791
3.484005 81.506 -78.7053
3.509252 81.602 -78.7399
3.534681 81.698 -78.7850
3.560295 81.795 -78.8426
3.586094 81.892 -78.9147
3.612081 81.988 -79.0024
3.638255 82.085 -79.1066
3.664620 82.181 -79.2273
3.691175 82.278 -79.3641
3.717923 82.374 -79.5159
3.744864 82.471 -79.6819
3.772001 82.568 -79.8611
3.799335 82.665 -80.0529
3.826866 82.761 -80.2569
3.854597 82.857 -80.4727
3.882529 82.952 -80.7002
3.910664 83.046 -80.9394
3.939002 83.139 -81.1903
3.967546 83.230 -81.4534
3.996296 83.319 -81.7289
4.025255 83.407 -82.0175
4.054423 83.492 -82.3195
4.083804 83.576 -82.6351
4.113396 83.659 -82.9641
4.143204 83.739 -83.3054
4.173227 83.818 -83.6578
4.203468 83.894 -84.0199
4.233928 83.969 -84.3901
4.264609 84.042 -84.7670
4.295512 84.113 -85.1492
4.326639 84.181 -85.5359
4.357992 84.247 -85.9269
4.389572 84.311 -86.3224
4.421380 84.372 -86.7231
4.453419 84.431 -87.1297
4.485691 84.487 -87.5423
4.518196 84.541 -87.9603
4.550936 84.592 -88.3824
4.583914 84.641 -88.8071
4.617131 84.688 -89.2322
4.650589 84.733 -89.6559
4.684289 84.776 -90.0765
4.718233 84.817 -90.4928
4.752424 84.857 -90.9042
4.786862 84.894 -91.3110
4.821549 84.929 -91.7137
4.856488 84.962 -92.1126
4.891680 84.993 -92.5080
4.927127 85.023 -92.8994
4.962831 85.051 -93.2862
4.998794 85.078 -93.6676
5.035017 85.104 -94.0425
5.071503 85.130 -94.4099
5.108253 85.155 -94.7691
5.145270 85.179 -95.1198
5.182555 85.203 -95.4619
5.220110 85.226 -95.7959
5.257937 85.249 -96.1225
5.296038 85.272 -96.4425
5.334415 85.295 -96.7570
5.373071 85.318 -97.0666
5.412006 85.341 -97.3720
5.451224 85.365 -97.6735
5.490725 85.391 -97.9712
5.530514 85.417 -98.2651
5.570590 85.444 -98.5553
5.610957 85.472 -98.8427
5.651616 85.501 -99.1283
5.692570 85.531 -99.4137
5.733821 85.562 -99.7009
5.775370 85.595 -99.9912
5.817221 85.628 -100.2862
5.859375 85.663 -100.5866
5.901834 85.699 -100.8928
5.944602 85.736 -101.2049
5.987679 85.774 -101.5234
6.031068 85.814 -101.8489
6.074771 85.854 -102.1824
6.118792 85.895 -102.5251
6.163131 85.936 -102.8781
6.207792 85.978 -103.2422
6.252776 86.020 -103.6178
6.298086 86.062 -104.0052
6.343725 86.104 -104.4039
6.389694 86.147 -104.8134
6.435996 86.189 -105.2332
6.482634 86.231 -105.6629
6.529610 86.272 -106.1020
6.576926 86.313 -106.5504
6.624585 86.353 -107.0080
6.672590 86.392 -107.4746
6.720942 86.430 -107.9493
6.769645 86.468 -108.4311
6.818700 86.504 -108.9186
6.868111 86.540 -109.4102
6.917881 86.574 -109.9048
6.968010 86.607 -110.4016
7.018504 86.640 -110.9001
7.069362 86.671 -111.3997
7.120590 86.701 -111.8997
7.172189 86.731 -112.3989
7.224161 86.759 -112.8959
7.276511 86.787 -113.3895
7.329239 86.815 -113.8789
7.382350 86.842 -114.3636
7.435845 86.869 -114.8433
7.489729 86.896 -115.3178
7.544002 86.923 -115.7871
7.598669 86.950 -116.2508
7.653732 86.978 -116.7088
7.709194 87.006 -117.1607
7.765058 87.034 -117.6067
7.821327 87.063 -118.0472
7.878004 87.094 -118.4826
7.935091 87.125 -118.9138
7.992592 87.157 -119.3414
8.050510 87.190 -119.7661
8.108847 87.224 -120.1882
8.167607 87.259 -120.6083
8.226793 87.296 -121.0270
8.286408 87.333 -121.4450
8.346454 87.371 -121.8631
8.406936 87.410 -122.2821
8.467856 87.450 -122.7024
8.529218 87.491 -123.1242
8.591024 87.532 -123.5477
8.653278 87.573 -123.9728
8.715983 87.615 -124.3997
8.779143 87.656 -124.8284
8.842760 87.698 -125.2587
8.906839 87.740 -125.6904
8.971381 87.781 -126.1229
9.036392 87.822 -126.5556
9.101873 87.862 -126.9876
9.167829 87.902 -127.4185
9.234263 87.941 -127.8476
9.301178 87.979 -128.2744
9.368578 88.017 -128.6980
9.436467 88.054 -129.1176
9.504847 88.090 -129.5324
9.573723 88.126 -129.9419
9.643099 88.160 -130.3457
9.712976 88.192 -130.7434
9.783361 88.223 -131.1346
9.854255 88.251 -131.5191
9.925663 88.277 -131.8967
9.997588 88.300 -132.2674
10.070035 88.321 -132.6313
10.143007 88.339 -132.9888
10.216507 88.356 -133.3399
10.290540 88.371 -133.6852
10.365109 88.385 -134.0249
10.440219 88.397 -134.3595
10.515873 88.409 -134.6894
10.592076 88.421 -135.0152
10.668830 88.431 -135.3372
10.746141 88.442 -135.6559
10.824012 88.452 -135.9716
10.902447 88.462 -136.2845
10.981451 88.471 -136.5951
11.061027 88.480 -136.9035
11.141180 88.488 -137.2099
11.221913 88.495 -137.5145
11.303232 88.502 -137.8173
11.385140 88.508 -138.1184
11.467641 88.514 -138.4179
11.550741 88.519 -138.7160
11.634442 88.523 -139.0127
11.718750 88.527 -139.3082
11.803669 88.531 -139.6026
11.889203 88.535 -139.8960
11.975357 88.538 -140.1889
12.062136 88.540 -140.4812
12.149543 88.543 -140.7735
12.237583 88.544 -141.0658
12.326262 88.546 -141.3584
12.415583 88.546 -141.6515
12.505552 88.546 -141.9453
12.596172 88.545 -142.2400
12.687449 88.544 -142.5356
12.779387 88.541 -142.8321
12.871992 88.537 -143.1294
12.965268 88.533 -143.4276
13.059220 88.528 -143.7264
13.153852 88.522 -144.0257
13.249170 88.516 -144.3253
13.345179 88.509 -144.6252
13.441884 88.503 -144.9252
13.539289 88.496 -145.2254
13.637401 88.488 -145.5257
13.736223 88.481 -145.8264
13.835761 88.473 -146.1276
13.936021 88.466 -146.4298
14.037007 88.458 -146.7334
14.138725 88.451 -147.0387
14.241180 88.443 -147.3464
14.344377 88.436 -147.6570
14.448323 88.428 -147.9709
14.553021 88.421 -148.2884
14.658478 88.414 -148.6098
14.764700 88.407 -148.9354
14.871691 88.400 -149.2649
14.979457 88.393 -149.5982
15.088005 88.386 -149.9351
15.197339 88.379 -150.2749
15.307465 88.372 -150.6171
15.418389 88.366 -150.9610
15.530117 88.359 -151.3060
15.642655 88.352 -151.6514
15.756008 88.345 -151.9964
15.870182 88.339 -152.3407
15.985184 88.332 -152.6838
16.101019 88.326 -153.0253
16.217694 88.320 -153.3652
16.335214 88.315 -153.7033
16.453586 88.310 -154.0397
16.572815 88.307 -154.3744
16.692909 88.303 -154.7075
16.813872 88.301 -155.0390
16.935713 88.299 -155.3689
17.058436 88.298 -155.6970
17.182048 88.298 -156.0232
17.306556 88.298 -156.3471
17.431967 88.298 -156.6682
17.558286 88.299 -156.9861
17.685521 88.299 -157.3003
17.813677 88.299 -157.6103
17.942762 88.299 -157.9155
18.072783 88.299 -158.2155
18.203746 88.299 -158.5100
18.335658 88.299 -158.7988
18.468526 88.299 -159.0817
18.602356 88.298 -159.3586
18.737156 88.298 -159.6298
18.872934 88.298 -159.8953
19.009695 88.298 -160.1553
19.147447 88.298 -160.4101
19.286197 88.298 -160.6601
19.425953 88.297 -160.9056
19.566721 88.296 -161.1471
19.708510 88.295 -161.3849
19.851326 88.294 -161.6196
19.995177 88.292 -161.8518
20.140070 88.289 -162.0818
20.286013 88.286 -162.3103
20.433014 88.282 -162.5375
20.581080 88.278 -162.7640
20.730219 88.272 -162.9898
20.880439 88.266 -163.2152
21.031747 88.259 -163.4401
21.184152 88.252 -163.6645
21.337661 88.243 -163.8884
21.492282 88.234 -164.1116
21.648024 88.225 -164.3342
21.804895 88.215 -164.5564
21.962902 88.205 -164.7785
22.122054 88.194 -165.0011
22.282360 88.183 -165.2246
22.443827 88.172 -165.4499
22.606464 88.160 -165.6775
22.770280 88.149 -165.9081
22.935283 88.137 -166.1419
23.101481 88.125 -166.3789
23.268884 88.112 -166.6189
23.437500 88.099 -166.8613
23.607338 88.085 -167.1051
23.778406 88.071 -167.3493
23.950714 88.057 -167.5928
24.124271 88.042 -167.8347
24.299086 88.028 -168.0742
24.475167 88.014 -168.3109
24.652524 88.000 -168.5448
24.831166 87.988 -168.7761
25.011103 87.976 -169.0054
25.192344 87.965 -169.2333
25.374898 87.954 -169.4605
25.558775 87.945 -169.6873
25.743984 87.936 -169.9140
25.930536 87.928 -170.1403
26.118439 87.919 -170.3654
26.307704 87.911 -170.5885
26.498341 87.903 -170.8081
26.690359 87.894 -171.0231
26.883768 87.886 -171.2324
27.078579 87.878 -171.4352
27.274801 87.869 -171.6313
27.472446 87.861 -171.8211
27.671522 87.853 -172.0056
27.872042 87.845 -172.1861
28.074014 87.838 -172.3642
28.277450 87.831 -172.5413
28.482360 87.823 -172.7185
28.688755 87.815 -172.8965
28.896645 87.805 -173.0753
29.106042 87.795 -173.2541
29.316957 87.784 -173.4322
29.529400 87.772 -173.6085
29.743382 87.759 -173.7824
29.958915 87.745 -173.9533
30.176009 87.730 -174.1217
30.394677 87.715 -174.2883
30.614929 87.700 -174.4542
30.836778 87.685 -174.6205
31.060234 87.670 -174.7882
31.285309 87.654 -174.9580
31.512015 87.638 -175.1298
31.740364 87.621 -175.3035
31.970368 87.605 -175.4783
32.202039 87.588 -175.6538
32.435388 87.570 -175.8294
32.670428 87.553 -176.0052
32.907171 87.537 -176.1814
33.145630 87.520 -176.3582
33.385817 87.504 -176.5362
33.627745 87.488 -176.7154
33.871425 87.473 -176.8956
34.116871 87.457 -177.0760
34.364096 87.441 -177.2552
34.613113 87.425 -177.4317
34.863934 87.409 -177.6038
35.116572 87.392 -177.7701
35.371041 87.376 -177.9300
35.627354 87.360 -178.0836
35.885525 87.345 -178.2319
36.145566 87.330 -178.3768
36.407492 87.315 -178.5203
36.671316 87.301 -178.6639
36.937051 87.286 -178.8083
37.204712 87.271 -178.9529
37.474313 87.254 -179.0963
37.745867 87.237 -179.2364
38.019389 87.219 -179.3721
38.294893 87.200 -179.5035
38.572394 87.182 -179.6323
38.851905 87.163 -179.7612
39.133442 87.144 -179.8926
39.417019 87.123 179.9728
39.702651 87.101 179.8370
39.990353 87.077 179.7046
40.280140 87.051 179.5817
40.572026 87.024 179.4739
40.866028 86.997 179.3839
41.162160 86.971 179.3105
41.460438 86.947 179.2493
41.760877 86.925 179.1942
42.063494 86.906 179.1399
42.368303 86.888 179.0839
42.675322 86.871 179.0266
42.984565 86.856 178.9702
43.296048 86.842 178.9158
43.609789 86.830 178.8616
43.925804 86.820 178.8025
44.244108 86.813 178.7314
44.564719 86.808 178.6426
44.887654 86.802 178.5344
45.212928 86.795 178.4105
45.540560 86.785 178.2782
45.870565 86.773 178.1463
46.202962 86.759 178.0212
46.537768 86.745 177.9052
46.875000 86.731 177.7971
47.214676 86.716 177.6937
47.556813 86.702 177.5931
47.901429 86.687 177.4958
48.248542 86.672 177.4036
48.598171 86.658 177.3177
48.950334 86.644 177.2360
49.305048 86.630 177.1530
49.662333 86.618 177.0618
50.022206 86.604 176.9583
50.384688 86.589 176.8443
50.749796 86.569 176.7282
51.117550 86.547 176.6215
51.487969 86.522 176.5339
51.861072 86.496 176.4695
52.236879 86.471 176.4245
52.615409 86.449 176.3902
52.996681 86.429 176.3572
53.380717 86.411 176.3194
53.767536 86.394 176.2753
54.157158 86.378 176.2263
54.549603 86.363 176.1745
54.944892 86.348 176.1205
55.343045 86.335 176.0634
55.744084 86.323 176.0022
56.148028 86.311 175.9376
56.554900 86.299 175.8719
56.964720 86.287 175.8087
57.377510 86.275 175.7507
57.793291 86.263 175.6987
58.212085 86.251 175.6523
58.633914 86.239 175.6104
59.058799 86.226 175.5726
59.486764 86.213 175.5382
59.917829 86.198 175.5057
60.352019 86.183 175.4728
60.789354 86.165 175.4380
61.229859 86.146 175.4034
61.673556 86.124 175.3745
62.120468 86.101 175.3564
62.570618 86.078 175.3499
63.024031 86.057 175.3490
63.480729 86.039 175.3446
63.940736 86.023 175.3291
64.404077 86.009 175.2997
64.870776 85.997 175.2574
65.340856 85.987 175.2047
65.814343 85.977 175.1446
66.291261 85.968 175.0809
66.771635 85.960 175.0189
67.255489 85.952 174.9633
67.742850 85.945 174.9144
68.233743 85.938 174.8674
68.728193 85.931 174.8151
69.226226 85.923 174.7535
69.727867 85.910 174.6865
70.233144 85.891 174.6242
70.742083 85.868 174.5775
71.254709 85.842 174.5513
71.771050 85.815 174.5413
72.291132 85.788 174.5361
72.814984 85.763 174.5229
73.342631 85.738 174.4943
73.874102 85.712 174.4523
74.409424 85.687 174.4077
74.948626 85.664 174.3716
75.491734 85.644 174.3462
76.038779 85.630 174.3225
76.589787 85.622 174.2881
77.144788 85.617 174.2368
77.703811 85.613 174.1730
78.266885 85.608 174.1080
78.834039 85.603 174.0544
79.405303 85.597 174.0179
79.980706 85.592 173.9918
80.560280 85.588 173.9583
81.144053 85.583 173.9006
81.732056 85.573 173.8156
82.324320 85.556 173.7139
82.920876 85.534 173.6101
83.521755 85.507 173.5126
84.126988 85.477 173.4229
84.736607 85.446 173.3406
85.350643 85.414 173.2667
85.969129 85.383 173.2026
86.592097 85.352 173.1498
87.219579 85.322 173.1097
87.851608 85.293 173.0839
88.488217 85.266 173.0739
89.129439 85.240 173.0789
89.775308 85.216 173.0955
90.425856 85.194 173.1183
91.081119 85.173 173.1434
91.741131 85.152 173.1688
92.405925 85.132 173.1953
93.075536 85.112 173.2238
93.750000 85.092 173.2543
94.429351 85.073 173.2855
95.113625 85.053 173.3165
95.802858 85.034 173.3474
96.497085 85.013 173.3795
97.196342 84.991 173.4140
97.900667 84.969 173.4516
98.610096 84.945 173.4926
99.324665 84.920 173.5395
100.044413 84.897 173.5957
100.769376 84.876 173.6611
101.499592 84.859 173.7274
102.235100 84.847 173.7828
102.975938 84.839 173.8211
103.722144 84.832 173.8440
104.473757 84.826 173.8578
105.230817 84.819 173.8691
105.993363 84.810 173.8831
106.761435 84.799 173.9005
107.535072 84.786 173.9171
108.314315 84.772 173.9263
109.099206 84.757 173.9221
109.889783 84.741 173.9031
110.686090 84.725 173.8746
111.488167 84.708 173.8486
112.296056 84.690 173.8415
113.109800 84.670 173.8700
113.929440 84.648 173.9483
114.755020 84.619 174.0876
115.586582 84.585 174.2986
116.424170 84.543 174.5918
117.267827 84.499 174.9677
118.117598 84.460 175.4000
118.973527 84.433 175.8211
119.835658 84.422 176.1258
120.704037 84.421 176.2242
121.578708 84.419 176.1125
122.459718 84.410 175.8682
123.347111 84.395 175.5840
124.240935 84.377 175.3253
125.141236 84.360 175.1250
126.048061 84.346 174.9915
126.961458 84.334 174.9196
127.881473 84.322 174.8977
128.808154 84.309 174.9093
129.741551 84.295 174.9377
130.681712 84.278 174.9714
131.628686 84.261 175.0059
132.582521 84.245 175.0413
133.543269 84.230 175.0781
134.510979 84.217 175.1177
135.485701 84.206 175.1646
136.467486 84.196 175.2242
137.456386 84.185 175.2972
138.452451 84.176 175.3774
139.455735 84.166 175.4546
140.466288 84.155 175.5210
141.484165 84.142 175.5759
142.509418 84.128 175.6256
143.542100 84.113 175.6792
144.582265 84.097 175.7433
145.629968 84.083 175.8199
146.685262 84.069 175.9065
147.748204 84.054 175.9990
148.818849 84.038 176.0940
149.897251 84.019 176.1884
150.983469 83.996 176.2801
152.077557 83.971 176.3711
153.179574 83.944 176.4673
154.289576 83.918 176.5744
155.407622 83.895 176.6956
156.533770 83.877 176.8312
157.668078 83.864 176.9771
158.810606 83.855 177.1211
159.961413 83.846 177.2446
161.120559 83.833 177.3367
162.288105 83.812 177.4062
163.464112 83.783 177.4691
164.648640 83.749 177.5342
165.841752 83.715 177.6045
167.043510 83.683 177.6832
168.253976 83.654 177.7761
169.473213 83.629 177.8889
170.701286 83.607 178.0234
171.938258 83.589 178.1757
173.184194 83.573 178.3386
174.439158 83.560 178.5051
175.703216 83.548 178.6700
176.976434 83.539 178.8303
178.258878 83.531 178.9831
179.550615 83.524 179.1259
180.851713 83.518 179.2543
182.162239 83.513 179.3635
183.482262 83.507 179.4516
184.811850 83.500 179.5211
186.151073 83.492 179.5785
187.500000 83.484 179.6308
188.858702 83.474 179.6849
190.227250 83.464 179.7454
191.605715 83.452 179.8137
192.994169 83.439 179.8882
194.392685 83.425 179.9670
195.801334 83.411 -179.9503
197.220191 83.396 -179.8621
198.649330 83.380 -179.7652
200.088825 83.365 -179.6580
201.538751 83.351 -179.5413
202.999184 83.338 -179.4180
204.470200 83.327 -179.2927
205.951875 83.317 -179.1699
207.444287 83.308 -179.0530
208.947514 83.299 -178.9438
210.461634 83.289 -178.8420
211.986726 83.278 -178.7453
213.522869 83.265 -178.6499
215.070144 83.250 -178.5508
216.628631 83.234 -178.4434
218.198411 83.217 -178.3253
219.779567 83.201 -178.1982
221.372180 83.185 -178.0674
222.976334 83.170 -177.9385
224.592112 83.155 -177.8150
226.219600 83.141 -177.6976
227.858880 83.126 -177.5849
229.510039 83.111 -177.4750
231.173164 83.095 -177.3655
232.848340 83.078 -177.2550
234.535655 83.061 -177.1429
236.235197 83.043 -177.0297
237.947054 83.024 -176.9157
239.671317 83.004 -176.8007
241.408074 82.984 -176.6839
243.157416 82.964 -176.5635
244.919435 82.943 -176.4363
246.694223 82.921 -176.2989
248.481871 82.899 -176.1482
250.282473 82.877 -175.9818
252.096123 82.855 -175.7986
253.922915 82.836 -175.6004
255.762945 82.819 -175.3931
257.616309 82.805 -175.1862
259.483103 82.793 -174.9893
261.363424 82.782 -174.8080
263.257372 82.771 -174.6410
265.165043 82.758 -174.4823
267.086538 82.743 -174.3243
269.021957 82.727 -174.1599
270.971401 82.711 -173.9846
272.934972 82.695 -173.7972
274.912771 82.680 -173.5993
276.904902 82.667 -173.3932
278.911469 82.655 -173.1809
280.932577 82.646 -172.9649
282.968330 82.638 -172.7492
285.018835 82.632 -172.5401
287.084199 82.628 -172.3448
289.164530 82.624 -172.1692
291.259935 82.620 -172.0148
293.370525 82.614 -171.8764
295.496408 82.606 -171.7445
297.637697 82.594 -171.6089
299.794503 82.579 -171.4633
301.966937 82.564 -171.3055
304.155114 82.547 -171.1365
306.359147 82.531 -170.9591
308.579152 82.515 -170.7758
310.815244 82.499 -170.5892
313.067539 82.482 -170.4008
315.336156 82.466 -170.2104
317.621211 82.448 -170.0149
319.922826 82.431 -169.8104
322.241118 82.413 -169.5952
324.576210 82.396 -169.3704
326.928223 82.381 -169.1388
329.297280 82.366 -168.9031
331.683504 82.353 -168.6664
334.087019 82.340 -168.4315
336.507952 82.328 -168.2009
338.946427 82.316 -167.9752
341.402572 82.303 -167.7521
343.876516 82.289 -167.5278
346.368387 82.275 -167.2992
348.878315 82.261 -167.0650
351.406431 82.247 -166.8255
353.952867 82.233 -166.5824
356.517756 82.219 -166.3370
359.101230 82.205 -166.0908
361.703426 82.191 -165.8442
364.324478 82.178 -165.5967
366.964523 82.164 -165.3470
369.623699 82.150 -165.0940
372.302145 82.137 -164.8378
375.000000 82.125 -164.5785
377.717405 82.113 -164.3167
380.454501 82.101 -164.0530
383.211431 82.089 -163.7878
385.988339 82.078 -163.5214
388.785369 82.066 -163.2537
391.602668 82.055 -162.9845
394.440383 82.044 -162.7125
397.298660 82.033 -162.4366
400.177650 82.023 -162.1568
403.077502 82.014 -161.8743
405.998368 82.004 -161.5913
408.940400 81.995 -161.3089
411.903750 81.986 -161.0263
414.888575 81.976 -160.7408
417.895028 81.965 -160.4497
420.923268 81.954 -160.1516
423.973452 81.944 -159.8456
427.045738 81.934 -159.5326
430.140287 81.927 -159.2151
433.257261 81.921 -158.8971
436.396822 81.917 -158.5812
439.559133 81.914 -158.2682
442.744360 81.913 -157.9586
445.952668 81.913 -157.6550
449.184225 81.913 -157.3628
452.439199 81.914 -157.0878
455.717760 81.914 -156.8326
459.020079 81.911 -156.5928
462.346327 81.906 -156.3572
465.696680 81.897 -156.1136
469.071310 81.887 -155.8550
472.470394 81.876 -155.5802
475.894109 81.865 -155.2920
479.342634 81.855 -154.9955
482.816148 81.844 -154.6965
486.314833 81.834 -154.3970
489.838871 81.822 -154.0925
493.388445 81.810 -153.7752
496.963741 81.798 -153.4411
500.564945 81.786 -153.0941
504.192245 81.777 -152.7423
507.845830 81.769 -152.3929
511.525890 81.761 -152.0491
515.232618 81.753 -151.7097
518.966206 81.745 -151.3703
522.726849 81.736 -151.0255
526.514743 81.728 -150.6708
530.330086 81.719 -150.3051
534.173076 81.712 -149.9311
538.043915 81.706 -149.5533
541.942803 81.700 -149.1739
545.869944 81.696 -148.7920
549.825542 81.691 -148.4072
553.809805 81.688 -148.0214
557.822939 81.685 -147.6377
561.865154 81.683 -147.2574
565.936660 81.681 -146.8795
570.037671 81.678 -146.5010
574.168399 81.674 -146.1186
578.329060 81.671 -145.7304
582.519870 81.667 -145.3364
586.741049 81.663 -144.9372
590.992817 81.660 -144.5310
595.275394 81.657 -144.1156
599.589005 81.654 -143.6922
603.933874 81.653 -143.2647
608.310228 81.652 -142.8376
612.718295 81.651 -142.4120
617.158304 81.649 -141.9854
621.630488 81.647 -141.5514
626.135079 81.645 -141.1031
630.672311 81.644 -140.6376
635.242423 81.646 -140.1591
639.845651 81.650 -139.6739
644.482237 81.655 -139.1845
649.152421 81.663 -138.6905
653.856447 81.674 -138.1939
658.594560 81.687 -137.7016
663.367008 81.703 -137.2240
668.174039 81.720 -136.7685
673.015903 81.736 -136.3343
677.892854 81.750 -135.9138
682.805145 81.763 -135.4986
687.753032 81.773 -135.0822
692.736774 81.781 -134.6590
697.756631 81.788 -134.2239
702.812863 81.795 -133.7749
707.905735 81.803 -133.3144
713.035511 81.811 -132.8466
718.202461 81.821 -132.3743
723.406852 81.831 -131.8978
728.648956 81.841 -131.4156
733.929047 81.851 -130.9269
739.247399 81.862 -130.4317
744.604290 81.874 -129.9307
750.000000 81.886 -129.4241
755.434809 81.900 -128.9117
760.909001 81.915 -128.3938
766.422861 81.930 -127.8707
771.976677 81.947 -127.3434
777.570739 81.966 -126.8131
783.205337 81.986 -126.2805
788.880766 82.007 -125.7453
794.597321 82.029 -125.2059
800.355301 82.053 -124.6622
806.155005 82.080 -124.1182
811.996736 82.110 -123.5826
817.880799 82.142 -123.0662
823.807501 82.176 -122.5793
829.777150 82.208 -122.1271
835.790057 82.237 -121.7030
841.846536 82.261 -121.2867
847.946903 82.279 -120.8526
854.091476 82.295 -120.3850
860.280575 82.310 -119.8841
866.514523 82.326 -119.3599
872.793644 82.345 -118.8214
879.118267 82.365 -118.2733
885.488720 82.386 -117.7170
891.905336 82.410 -117.1503
898.368450 82.435 -116.5704
904.878398 82.463 -115.9781
911.435520 82.495 -115.3787
918.040157 82.531 -114.7811
924.692655 82.570 -114.1929
931.393359 82.611 -113.6196
938.142619 82.655 -113.0640
944.940787 82.700 -112.5253
951.788218 82.745 -111.9997
958.685268 82.790 -111.4825
965.632296 82.835 -110.9693
972.629666 82.880 -110.4565
979.677741 82.926 -109.9427
986.776890 82.972 -109.4286
993.927482 83.018 -108.9134
1001.129891 83.064 -108.3936
1008.384491 83.112 -107.8659
1015.691660 83.162 -107.3305
1023.051781 83.215 -106.7917
1030.465236 83.273 -106.2566
1037.932411 83.334 -105.7363
1045.453698 83.399 -105.2435
1053.029486 83.464 -104.7844
1060.660172 83.529 -104.3563
1068.346153 83.592 -103.9504
1076.087829 83.652 -103.5568
1083.885605 83.711 -103.1682
1091.739887 83.768 -102.7817
1099.651084 83.824 -102.3968
1107.619609 83.880 -102.0131
1115.645878 83.935 -101.6302
1123.730308 83.988 -101.2471
1131.873321 84.042 -100.8631
1140.075341 84.094 -100.4775
1148.336797 84.147 -100.0898
1156.658119 84.200 -99.6996
1165.039741 84.253 -99.3057
1173.482099 84.307 -98.9061
1181.985634 84.362 -98.5014
1190.550789 84.421 -98.0972
1199.178011 84.482 -97.7047
1207.867749 84.546 -97.3358
1216.620457 84.610 -96.9961
1225.436590 84.673 -96.6821
1234.316609 84.733 -96.3848
1243.260976 84.789 -96.0947
1252.270157 84.843 -95.8040
1261.344623 84.894 -95.5084
1270.484846 84.943 -95.2065
1279.691303 84.991 -94.8966
1288.964474 85.038 -94.5773
1298.304842 85.084 -94.2490
1307.712894 85.131 -93.9145
1317.189120 85.178 -93.5776
1326.734016 85.224 -93.2405
1336.348077 85.271 -92.9027
1346.031806 85.318 -92.5607
1355.785708 85.365 -92.2102
1365.610290 85.413 -91.8469
1375.506065 85.461 -91.4663
1385.473549 85.512 -91.0638
1395.513261 85.565 -90.6382
1405.625726 85.622 -90.1948
1415.811469 85.684 -89.7456
1426.071023 85.750 -89.3057
1436.404921 85.817 -88.8850
1446.813703 85.885 -88.4840
1457.297912 85.952 -88.0972
1467.858093 86.016 -87.7178
1478.494798 86.079 -87.3408
1489.208581 86.139 -86.9622
1500.000000 86.196 -86.5785
1510.869618 86.249 -86.1862
1521.818002 86.298 -85.7823
1532.845723 86.343 -85.3640
1543.953355 86.385 -84.9292
1555.141477 86.426 -84.4775
1566.410674 86.467 -84.0130
1577.761531 86.510 -83.5470
1589.194642 86.556 -83.0934
1600.710601 86.603 -82.6616
1612.310010 86.650 -82.2524
1623.993473 86.695 -81.8606
1635.761599 86.739 -81.4787
1647.615002 86.782 -81.1006
1659.554299 86.824 -80.7219
1671.580114 86.865 -80.3398
1683.693072 86.905 -79.9542
1695.893807 86.947 -79.5674
1708.182952 86.987 -79.1821
1720.561150 87.027 -78.7983
1733.029045 87.065 -78.4126
1745.587288 87.100 -78.0188
1758.236533 87.134 -77.6092
1770.977440 87.166 -77.1769
1783.810673 87.201 -76.7220
1796.736900 87.238 -76.2532
1809.756796 87.280 -75.7848
1822.871040 87.324 -75.3281
1836.080315 87.370 -74.8873
1849.385310 87.417 -74.4615
1862.786718 87.465 -74.0474
1876.285239 87.513 -73.6408
1889.881575 87.563 -73.2360
1903.576436 87.614 -72.8272
1917.370535 87.669 -72.4094
1931.264593 87.729 -71.9792
1945.259332 87.795 -71.5379
1959.355483 87.867 -71.0946
1973.553781 87.946 -70.6633
1987.854965 88.028 -70.2548
2002.259781 88.113 -69.8729
2016.768981 88.197 -69.5150
2031.383320 88.280 -69.1756
2046.103561 88.362 -68.8487
2060.930471 88.442 -68.5296
2075.864823 88.520 -68.2166
2090.907395 88.596 -67.9091
2106.058972 88.669 -67.6048
2121.320344 88.740 -67.2980
2136.692305 88.808 -66.9800
2152.175658 88.873 -66.6422
2167.771210 88.939 -66.2825
2183.479774 89.005 -65.9082
2199.302169 89.072 -65.5319
2215.239219 89.141 -65.1635
2231.291755 89.210 -64.8072
2247.460615 89.278 -64.4619
2263.746641 89.344 -64.1225
2280.150683 89.409 -63.7810
2296.673595 89.472 -63.4280
2313.316238 89.534 -63.0555
2330.079481 89.597 -62.6608
2346.964198 89.663 -62.2501
2363.971268 89.732 -61.8343
2381.101578 89.803 -61.4223
2398.356022 89.876 -61.0168
2415.735498 89.949 -60.6155
2433.240913 90.022 -60.2132
2450.873180 90.095 -59.8046
2468.633217 90.169 -59.3858
2486.521951 90.243 -58.9520
2504.540314 90.319 -58.4957
2522.689246 90.397 -58.0070
2540.969692 90.481 -57.4787
2559.382606 90.574 -56.9145
2577.928947 90.680 -56.3322
2596.609683 90.799 -55.7591
2615.425787 90.933 -55.2252
2634.378241 91.080 -54.7592
2653.468031 91.236 -54.3842
2672.696154 91.399 -54.1148
2692.063613 91.564 -53.9563
2711.571415 91.730 -53.9079
2731.220579 91.893 -53.9673
2751.012130 92.050 -54.1307
2770.947098 92.199 -54.3900
2791.026522 92.339 -54.7316
2811.251451 92.467 -55.1390
2831.622938 92.583 -55.5963
2852.142045 92.687 -56.0907
2872.809842 92.780 -56.6113
2893.627406 92.861 -57.1469
2914.595823 92.931 -57.6843
2935.716186 92.992 -58.2134
2956.989596 93.045 -58.7319
2978.417161 93.092 -59.2446
3000.000000 93.134 -59.7584
3021.739237 93.169 -60.2774
3043.636005 93.197 -60.8011
3065.691446 93.216 -61.3229
3087.906710 93.229 -61.8341
3110.282955 93.234 -62.3296
3132.821347 93.234 -62.8114
3155.523062 93.229 -63.2852
3178.389283 93.217 -63.7561
3201.421202 93.198 -64.2257
3224.620020 93.171 -64.6921
3247.986946 93.134 -65.1506
3271.523198 93.087 -65.5915
3295.230004 93.029 -65.9990
3319.108599 92.959 -66.3541
3343.160228 92.881 -66.6422
3367.386145 92.795 -66.8563
3391.787613 92.705 -66.9946
3416.365904 92.611 -67.0562
3441.122300 92.515 -67.0377
3466.058091 92.418 -66.9321
3491.174576 92.323 -66.7341
3516.473066 92.232 -66.4471
3541.954880 92.148 -66.0836
3567.621345 92.073 -65.6615
3593.473800 92.006 -65.2004
3619.513592 91.948 -64.7195
3645.742080 91.897 -64.2349
3672.160630 91.852 -63.7555
3698.770620 91.811 -63.2818
3725.573436 91.773 -62.8125
3752.570477 91.738 -62.3499
3779.763150 91.705 -61.8997
3807.152872 91.672 -61.4668
3834.741071 91.637 -61.0499
3862.529185 91.600 -60.6404
3890.518664 91.560 -60.2293
3918.710966 91.518 -59.8127
3947.107561 91.476 -59.3930
3975.709929 91.432 -58.9760
4004.519563 91.387 -58.5682
4033.537962 91.340 -58.1743
4062.766641 91.288 -57.7914
4092.207123 91.231 -57.4085
4121.860942 91.168 -57.0131
4151.729646 91.100 -56.5962
4181.814790 91.026 -56.1532
4212.117944 90.946 -55.6779
4242.640687 90.860 -55.1580
4273.384610 90.769 -54.5783
4304.351317 90.674 -53.9274
4335.542421 90.577 -53.2010
4366.959549 90.481 -52.4018
4398.604338 90.388 -51.5372
4430.478438 90.298 -50.6157
4462.583511 90.211 -49.6398
4494.921231 90.128 -48.6059
4527.493283 90.051 -47.5115
4560.301365 89.981 -46.3580
4593.347189 89.919 -45.1499
4626.632476 89.868 -43.8884
4660.158962 89.827 -42.5731
4693.928395 89.802 -41.2091
4727.942535 89.794 -39.8131
4762.203156 89.807 -38.4148
4796.712043 89.842 -37.0546
4831.470996 89.896 -35.7751
4866.481826 89.968 -34.6118
4901.746360 90.052 -33.5910
4937.266434 90.142 -32.7315
4973.043902 90.233 -32.0438
5009.080628 90.318 -31.5230
5045.378492 90.390 -31.1475
5081.939384 90.444 -30.8845
5118.765212 90.480 -30.6985
5155.857894 90.495 -30.5569
5193.219366 90.490 -30.4328
5230.851574 90.465 -30.3023
5268.756481 90.421 -30.1417
5306.936062 90.359 -29.9297
5345.392309 90.282 -29.6508
5384.127225 90.190 -29.2943
5423.142830 90.086 -28.8480
5462.441159 89.971 -28.2975
5502.024259 89.847 -27.6300
5541.894195 89.719 -26.8397
5582.053045 89.590 -25.9308
5622.502902 89.463 -24.9142
5663.245876 89.339 -23.8020
5704.284090 89.222 -22.6061
5745.619684 89.112 -21.3400
5787.254813 89.008 -20.0152
5829.191647 88.910 -18.6365
5871.432373 88.818 -17.2002
5913.979192 88.732 -15.6996
5956.834323 88.653 -14.1305
6000.000000 88.585 -12.4953
6043.478473 88.528 -10.8002
6087.272010 88.484 -9.0537
6131.382892 88.454 -7.2684
6175.813420 88.439 -5.4591
6220.565910 88.439 -3.6381
6265.642695 88.454 -1.8126
6311.046124 88.484 0.0123
6356.778566 88.530 1.8281
6402.842404 88.592 3.6195
6449.240040 88.672 5.3661
6495.973891 88.767 7.0434
6543.046396 88.878 8.6245
6590.460007 88.998 10.0866
6638.217197 89.126 11.4177
6686.320456 89.255 12.6202
6734.772290 89.381 13.7082
6783.575226 89.501 14.7042
6832.731809 89.613 15.6364
6882.244600 89.715 16.5355
6932.116181 89.809 17.4292
6982.349153 89.897 18.3399
7032.946133 89.982 19.2848
7083.909760 90.070 20.2743
7135.242690 90.166 21.3076
7186.947600 90.276 22.3702
7239.027185 90.404 23.4338
7291.484160 90.554 24.4582
7344.321260 90.727 25.3935
7397.541239 90.923 26.1888
7451.146872 91.137 26.7999
7505.140954 91.366 27.1913
7559.526299 91.605 27.3340
7614.305743 91.848 27.2042
7669.482141 92.090 26.7820
7725.058371 92.321 26.0511
7781.037328 92.534 25.0037
7837.421932 92.719 23.6479
7894.215122 92.865 22.0118
7951.419859 92.964 20.1415
8009.039125 93.008 18.0975
8067.075924 92.992 15.9501
8125.533282 92.915 13.7714
8184.414245 92.776 11.6328
8243.721885 92.577 9.6054
8303.459292 92.320 7.7594
8363.629581 92.011 6.1611
8424.235888 91.657 4.8680
8485.281374 91.269 3.9230
8546.769221 90.855 3.3485
8608.702634 90.428 3.1469
8671.084842 89.996 3.3084
8733.919097 89.567 3.8165
8797.208675 89.149 4.6533
8860.956876 88.748 5.7991
8925.167022 88.369 7.2282
8989.842461 88.020 8.9053
9054.986566 87.704 10.7895
9120.602731 87.425 12.8404
9186.694378 87.184 15.0228
9253.264952 86.983 17.3071
9320.317925 86.826 19.6632
9387.856790 86.714 22.0531
9455.885071 86.650 24.4312
9524.406312 86.634 26.7485
9593.424086 86.667 28.9571
9662.941992 86.747 31.0116
9732.963653 86.875 32.8623
9803.492719 87.047 34.4495
9874.532869 87.260 35.7069
9946.087805 87.504 36.5697
10018.161257 87.769 36.9863
10090.756983 88.043 36.9226
10163.878768 88.311 36.3601
10237.530423 88.561 35.2958
10311.715789 88.775 33.7461
10386.438732 88.940 31.7528
10461.703149 89.042 29.3857
10537.512962 89.071 26.7354
10613.872125 89.020 23.9012
10690.784618 88.888 20.9818
10768.254450 88.675 18.0695
10846.285661 88.383 15.2509
10924.882318 88.018 12.6042
11004.048518 87.585 10.1946
11083.788390 87.093 8.0705
11164.106090 86.551 6.2647
11245.005805 85.966 4.8015
11326.491752 85.346 3.7019
11408.568180 84.697 2.9827
11491.239368 84.029 2.6519
11574.509626 83.349 2.7050
11658.383294 82.664 3.1299
11742.864745 81.982 3.9113
11827.958384 81.308 5.0304
11913.668646 80.648 6.4620
12000.000000 80.008 8.1744
12086.956947 79.391 10.1360
12174.544019 78.799 12.3203
12262.765784 78.235 14.7034
12351.626840 77.702 17.2577
12441.131819 77.202 19.9520
12531.285389 76.735 22.7569
12622.092249 76.303 25.6488
12713.557132 75.906 28.6051
12805.684808 75.546 31.5997
12898.480079 75.223 34.6059
12991.947783 74.937 37.6012
13086.092792 74.689 40.5657
13180.920015 74.477 43.4777
13276.434395 74.302 46.3163
13372.640911 74.162 49.0725
13469.544580 74.057 51.7549
13567.150452 73.990 54.3810
13665.463617 73.968 56.9577
13764.489200 74.002 59.4530
13864.232362 74.101 61.7738
13964.698305 74.267 63.7830
14065.892266 74.494 65.3601
14167.819519 74.770 66.4363
14270.485380 75.087 66.9833
14373.895200 75.434 66.9849
14478.054370 75.803 66.4204
14582.968320 76.182 65.2685
14688.642520 76.556 63.5205
14795.082478 76.908 61.1927
14902.293745 77.219 58.3397
15010.281908 77.473 55.0679
15119.052599 77.666 51.5316
15228.611486 77.805 47.9002
15338.964283 77.911 44.3051
15450.116741 78.013 40.8044
15562.074656 78.132 37.3968
15674.843864 78.287 34.0701
15788.430244 78.500 30.8288
15902.839718 78.801 27.6690
16018.078250 79.225 24.5060
16134.151848 79.785 21.0950
16251.066563 80.451 17.0240
16368.828491 81.139 11.8537
16487.443769 81.742 5.3596
16606.918584 82.170 -2.3205
16727.259161 82.375 -10.7801
16848.471777 82.348 -19.5521
16970.562748 82.101 -28.2339
17093.538442 81.657 -36.5126
17217.405268 81.044 -44.1530
17342.169684 80.293 -50.9859
17467.838194 79.437 -56.9028
17594.417350 78.506 -61.8488
17721.913751 77.532 -65.8151
17850.334044 76.543 -68.8318
17979.684923 75.562 -70.9554
18109.973131 74.609 -72.2513
18241.205462 73.698 -72.7794
18373.388756 72.840 -72.5835
18506.529905 72.050 -71.6946
18640.635849 71.344 -70.1688
18775.713581 70.749 -68.1573
18911.770141 70.285 -65.9720
19048.812624 69.951 -64.0538
19186.848172 69.713 -62.7933
19325.883983 69.516 -62.3310
19465.927305 69.313 -62.5326
19606.985439 69.090 -63.1211
19749.065738 68.864 -63.8130
19892.175609 68.677 -64.3879
20036.322514 68.571 -64.7067
