* Measurement data measured by REW V5.31
* Source: EXCL: Microphone (USB Sound Device        ), MICROPHONE (Master Volume), L, volume: 0.560
* Format: 256k Log Swept Sine, 1 sweep at 0.0 dBFS with no timing reference
* Dated: Apr 18, 2024 12:08:46 PM
* REW Settings:
*  C-weighting compensation: Off
*  Target level: 75.0 dB
* Note: KZ ZS10 Pro 2 1100 L
* Measurement: L KZ ZS10 Pro 2 1100
* Smoothing: 1/12 octave
* Frequency Step: 96 ppo
* Start Frequency: 0.36621094 Hz
*
* Freq(Hz) SPL(dB) Phase(degrees)
0.366211 81.723 163.8154
0.368865 81.717 163.7977
0.371538 81.708 163.7711
0.374230 81.696 163.7378
0.376942 81.683 163.6993
0.379673 81.669 163.6571
0.382424 81.654 163.6118
0.385196 81.639 163.5642
0.387987 81.624 163.5143
0.390798 81.608 163.4625
0.393630 81.593 163.4087
0.396483 81.577 163.3530
0.399356 81.561 163.2955
0.402250 81.545 163.2360
0.405165 81.529 163.1746
0.408101 81.513 163.1112
0.411058 81.496 163.0459
0.414037 81.480 162.9787
0.417037 81.463 162.9094
0.420059 81.447 162.8381
0.423103 81.430 162.7648
0.426169 81.413 162.6895
0.429257 81.396 162.6121
0.432368 81.378 162.5326
0.435501 81.361 162.4510
0.438656 81.344 162.3673
0.441835 81.326 162.2815
0.445037 81.308 162.1935
0.448262 81.290 162.1033
0.451510 81.272 162.0110
0.454782 81.254 161.9164
0.458077 81.236 161.8197
0.461397 81.218 161.7207
0.464740 81.199 161.6194
0.468108 81.180 161.5159
0.471500 81.162 161.4101
0.474917 81.143 161.3020
0.478358 81.124 161.1916
0.481825 81.105 161.0789
0.485316 81.085 160.9639
0.488833 81.066 160.8466
0.492375 81.046 160.7269
0.495943 81.026 160.6048
0.499537 81.006 160.4804
0.503157 80.986 160.3536
0.506803 80.966 160.2244
0.510475 80.946 160.0929
0.514175 80.925 159.9590
0.517900 80.905 159.8227
0.521653 80.884 159.6840
0.525434 80.863 159.5429
0.529241 80.842 159.3994
0.533076 80.821 159.2536
0.536939 80.799 159.1053
0.540830 80.778 158.9547
0.544749 80.756 158.8018
0.548696 80.734 158.6464
0.552673 80.712 158.4888
0.556677 80.690 158.3288
0.560711 80.668 158.1664
0.564774 80.645 158.0018
0.568867 80.623 157.8349
0.572989 80.600 157.6658
0.577141 80.577 157.4944
0.581324 80.554 157.3208
0.585536 80.530 157.1450
0.589779 80.507 156.9671
0.594053 80.483 156.7871
0.598358 80.459 156.6050
0.602694 80.435 156.4209
0.607061 80.411 156.2348
0.611460 80.387 156.0468
0.615891 80.362 155.8570
0.620354 80.338 155.6653
0.624849 80.313 155.4718
0.629377 80.288 155.2767
0.633938 80.262 155.0799
0.638532 80.237 154.8816
0.643159 80.211 154.6818
0.647819 80.185 154.4807
0.652514 80.160 154.2782
0.657242 80.133 154.0746
0.662005 80.107 153.8699
0.666802 80.080 153.6642
0.671634 80.054 153.4577
0.676501 80.027 153.2504
0.681403 80.000 153.0426
0.686341 79.972 152.8342
0.691314 79.945 152.6255
0.696324 79.917 152.4165
0.701370 79.888 152.2075
0.706452 79.860 151.9985
0.711571 79.830 151.7895
0.716728 79.800 151.5805
0.721921 79.769 151.3712
0.727153 79.735 151.1613
0.732422 79.699 150.9502
0.737729 79.661 150.7370
0.743075 79.620 150.5209
0.748460 79.577 150.3011
0.753883 79.532 150.0771
0.759346 79.486 149.8483
0.764849 79.440 149.6146
0.770391 79.393 149.3758
0.775974 79.345 149.1315
0.781597 79.297 148.8819
0.787261 79.248 148.6266
0.792966 79.198 148.3658
0.798712 79.148 148.0992
0.804500 79.098 147.8267
0.810329 79.047 147.5484
0.816201 78.995 147.2642
0.822116 78.942 146.9738
0.828073 78.889 146.6774
0.834074 78.835 146.3748
0.840118 78.779 146.0659
0.846206 78.723 145.7507
0.852338 78.666 145.4291
0.858514 78.608 145.1010
0.864735 78.549 144.7665
0.871001 78.489 144.4253
0.877313 78.427 144.0776
0.883670 78.365 143.7231
0.890074 78.301 143.3620
0.896524 78.235 142.9941
0.903020 78.168 142.6195
0.909564 78.100 142.2380
0.916155 78.030 141.8497
0.922794 77.958 141.4547
0.929481 77.884 141.0528
0.936216 77.809 140.6441
0.943000 77.732 140.2286
0.949834 77.652 139.8064
0.956717 77.571 139.3776
0.963649 77.487 138.9421
0.970632 77.401 138.5001
0.977666 77.313 138.0516
0.984750 77.222 137.5969
0.991886 77.128 137.1360
0.999074 77.032 136.6691
1.006314 76.933 136.1964
1.013606 76.831 135.7181
1.020951 76.727 135.2345
1.028349 76.618 134.7457
1.035801 76.507 134.2522
1.043307 76.392 133.7542
1.050867 76.274 133.2521
1.058482 76.151 132.7462
1.066152 76.025 132.2367
1.073878 75.894 131.7238
1.081660 75.758 131.2076
1.089498 75.617 130.6876
1.097393 75.469 130.1633
1.105345 75.314 129.6335
1.113355 75.150 129.0968
1.121423 74.976 128.5518
1.129549 74.793 127.9971
1.137734 74.600 127.4314
1.145979 74.396 126.8535
1.154283 74.183 126.2619
1.162647 73.960 125.6556
1.171072 73.728 125.0332
1.179558 73.487 124.3932
1.188106 73.238 123.7342
1.196715 72.982 123.0544
1.205387 72.718 122.3522
1.214122 72.449 121.6254
1.222920 72.173 120.8719
1.231782 71.893 120.0894
1.240708 71.608 119.2752
1.249699 71.320 118.4264
1.258754 71.029 117.5398
1.267876 70.737 116.6118
1.277063 70.444 115.6385
1.286318 70.151 114.6155
1.295639 69.859 113.5380
1.305027 69.569 112.4006
1.314484 69.283 111.1972
1.324009 69.001 109.9212
1.333604 68.725 108.5651
1.343268 68.456 107.1207
1.353002 68.195 105.5788
1.362806 67.944 103.9292
1.372681 67.705 102.1608
1.382628 67.478 100.2613
1.392647 67.266 98.2174
1.402739 67.070 96.0148
1.412904 66.891 93.6382
1.423142 66.732 91.0714
1.433455 66.595 88.2979
1.443843 66.480 85.3007
1.454305 66.388 82.0626
1.464844 66.321 78.5673
1.475459 66.279 74.8001
1.486150 66.262 70.7504
1.496920 66.269 66.4151
1.507767 66.300 61.8024
1.518693 66.353 56.9348
1.529698 66.428 51.8511
1.540783 66.525 46.6062
1.551948 66.642 41.2686
1.563194 66.778 35.9156
1.574521 66.932 30.6255
1.585931 67.103 25.4716
1.597423 67.291 20.5153
1.608999 67.493 15.8028
1.620658 67.709 11.3644
1.632402 67.937 7.2151
1.644232 68.176 3.3574
1.656146 68.425 -0.2156
1.668147 68.682 -3.5175
1.680235 68.945 -6.5657
1.692411 69.214 -9.3796
1.704675 69.486 -11.9793
1.717028 69.760 -14.3844
1.729470 70.034 -16.6137
1.742003 70.307 -18.6847
1.754626 70.577 -20.6134
1.767341 70.842 -22.4146
1.780147 71.102 -24.1018
1.793047 71.356 -25.6874
1.806040 71.603 -27.1832
1.819128 71.845 -28.5998
1.832310 72.082 -29.9476
1.845587 72.317 -31.2357
1.858961 72.553 -32.4718
1.872432 72.790 -33.6620
1.886001 73.029 -34.8108
1.899667 73.272 -35.9216
1.913433 73.519 -36.9971
1.927299 73.768 -38.0390
1.941265 74.020 -39.0492
1.955332 74.275 -40.0288
1.969501 74.531 -40.9792
1.983773 74.789 -41.9014
1.998148 75.048 -42.7964
2.012627 75.306 -43.6650
2.027212 75.564 -44.5080
2.041902 75.821 -45.3263
2.056698 76.076 -46.1204
2.071602 76.328 -46.8912
2.086614 76.577 -47.6391
2.101734 76.821 -48.3650
2.116964 77.061 -49.0695
2.132304 77.295 -49.7535
2.147756 77.523 -50.4181
2.163320 77.745 -51.0648
2.178996 77.959 -51.6953
2.194786 78.166 -52.3120
2.210690 78.365 -52.9176
2.226710 78.558 -53.5145
2.242845 78.744 -54.1047
2.259098 78.923 -54.6894
2.275468 79.096 -55.2692
2.291957 79.264 -55.8444
2.308566 79.426 -56.4146
2.325295 79.583 -56.9797
2.342145 79.736 -57.5391
2.359117 79.884 -58.0924
2.376212 80.028 -58.6390
2.393431 80.169 -59.1784
2.410775 80.306 -59.7101
2.428244 80.441 -60.2335
2.445840 80.574 -60.7482
2.463564 80.706 -61.2536
2.481416 80.835 -61.7496
2.499397 80.964 -62.2359
2.517509 81.092 -62.7126
2.535752 81.220 -63.1801
2.554127 81.346 -63.6393
2.572635 81.472 -64.0914
2.591277 81.595 -64.5378
2.610055 81.717 -64.9798
2.628968 81.835 -65.4182
2.648019 81.952 -65.8535
2.667208 82.065 -66.2861
2.686535 82.176 -66.7158
2.706003 82.284 -67.1424
2.725612 82.390 -67.5656
2.745363 82.494 -67.9852
2.765257 82.596 -68.4006
2.785295 82.696 -68.8114
2.805478 82.795 -69.2173
2.825808 82.893 -69.6178
2.846285 82.989 -70.0126
2.866910 83.085 -70.4015
2.887685 83.180 -70.7843
2.908611 83.275 -71.1612
2.929688 83.368 -71.5327
2.950917 83.460 -71.8993
2.972301 83.551 -72.2617
2.993839 83.641 -72.6206
3.015534 83.729 -72.9762
3.037386 83.815 -73.3289
3.059396 83.900 -73.6786
3.081565 83.984 -74.0253
3.103896 84.066 -74.3689
3.126388 84.147 -74.7091
3.149043 84.227 -75.0459
3.171862 84.306 -75.3790
3.194847 84.384 -75.7080
3.217998 84.462 -76.0329
3.241317 84.539 -76.3534
3.264805 84.616 -76.6693
3.288463 84.693 -76.9807
3.312293 84.769 -77.2876
3.336295 84.845 -77.5901
3.360471 84.919 -77.8888
3.384822 84.993 -78.1837
3.409350 85.066 -78.4755
3.434056 85.139 -78.7645
3.458940 85.210 -79.0511
3.484005 85.281 -79.3357
3.509252 85.351 -79.6188
3.534681 85.421 -79.9007
3.560295 85.491 -80.1817
3.586094 85.560 -80.4620
3.612081 85.629 -80.7420
3.638255 85.698 -81.0216
3.664620 85.767 -81.3008
3.691175 85.835 -81.5796
3.717923 85.904 -81.8578
3.744864 85.972 -82.1356
3.772001 86.039 -82.4131
3.799335 86.106 -82.6905
3.826866 86.173 -82.9681
3.854597 86.239 -83.2463
3.882529 86.305 -83.5253
3.910664 86.371 -83.8057
3.939002 86.436 -84.0878
3.967546 86.501 -84.3717
3.996296 86.566 -84.6577
4.025255 86.631 -84.9459
4.054423 86.695 -85.2363
4.083804 86.760 -85.5289
4.113396 86.823 -85.8237
4.143204 86.887 -86.1207
4.173227 86.950 -86.4200
4.203468 87.012 -86.7218
4.233928 87.075 -87.0264
4.264609 87.136 -87.3339
4.295512 87.198 -87.6447
4.326639 87.258 -87.9590
4.357992 87.319 -88.2771
4.389572 87.379 -88.5991
4.421380 87.438 -88.9253
4.453419 87.496 -89.2556
4.485691 87.554 -89.5901
4.518196 87.612 -89.9286
4.550936 87.669 -90.2708
4.583914 87.725 -90.6166
4.617131 87.781 -90.9657
4.650589 87.836 -91.3181
4.684289 87.890 -91.6734
4.718233 87.943 -92.0319
4.752424 87.996 -92.3935
4.786862 88.048 -92.7584
4.821549 88.099 -93.1269
4.856488 88.149 -93.4989
4.891680 88.199 -93.8742
4.927127 88.248 -94.2526
4.962831 88.296 -94.6337
4.998794 88.343 -95.0170
5.035017 88.389 -95.4023
5.071503 88.435 -95.7891
5.108253 88.480 -96.1775
5.145270 88.525 -96.5675
5.182555 88.568 -96.9592
5.220110 88.611 -97.3527
5.257937 88.653 -97.7480
5.296038 88.694 -98.1449
5.334415 88.734 -98.5431
5.373071 88.774 -98.9422
5.412006 88.814 -99.3420
5.451224 88.853 -99.7422
5.490725 88.891 -100.1426
5.530514 88.929 -100.5433
5.570590 88.967 -100.9444
5.610957 89.004 -101.3460
5.651616 89.040 -101.7482
5.692570 89.077 -102.1509
5.733821 89.112 -102.5541
5.775370 89.148 -102.9577
5.817221 89.184 -103.3617
5.859375 89.219 -103.7660
5.901834 89.255 -104.1706
5.944602 89.290 -104.5756
5.987679 89.325 -104.9812
6.031068 89.360 -105.3877
6.074771 89.395 -105.7953
6.118792 89.430 -106.2041
6.163131 89.465 -106.6144
6.207792 89.501 -107.0263
6.252776 89.536 -107.4399
6.298086 89.571 -107.8553
6.343725 89.607 -108.2726
6.389694 89.643 -108.6920
6.435996 89.679 -109.1136
6.482634 89.715 -109.5376
6.529610 89.751 -109.9644
6.576926 89.787 -110.3940
6.624585 89.823 -110.8265
6.672590 89.860 -111.2621
6.720942 89.896 -111.7006
6.769645 89.933 -112.1421
6.818700 89.969 -112.5865
6.868111 90.006 -113.0337
6.917881 90.042 -113.4839
6.968010 90.078 -113.9369
7.018504 90.114 -114.3928
7.069362 90.150 -114.8514
7.120590 90.186 -115.3126
7.172189 90.222 -115.7758
7.224161 90.258 -116.2410
7.276511 90.293 -116.7076
7.329239 90.328 -117.1755
7.382350 90.363 -117.6445
7.435845 90.398 -118.1145
7.489729 90.432 -118.5851
7.544002 90.466 -119.0558
7.598669 90.500 -119.5264
7.653732 90.534 -119.9962
7.709194 90.568 -120.4651
7.765058 90.601 -120.9329
7.821327 90.634 -121.3993
7.878004 90.667 -121.8641
7.935091 90.700 -122.3271
7.992592 90.733 -122.7880
8.050510 90.766 -123.2464
8.108847 90.799 -123.7024
8.167607 90.832 -124.1558
8.226793 90.865 -124.6065
8.286408 90.898 -125.0547
8.346454 90.931 -125.5003
8.406936 90.964 -125.9433
8.467856 90.998 -126.3838
8.529218 91.031 -126.8217
8.591024 91.065 -127.2573
8.653278 91.099 -127.6907
8.715983 91.133 -128.1221
8.779143 91.168 -128.5516
8.842760 91.202 -128.9793
8.906839 91.237 -129.4055
8.971381 91.271 -129.8301
9.036392 91.306 -130.2532
9.101873 91.341 -130.6751
9.167829 91.375 -131.0957
9.234263 91.410 -131.5151
9.301178 91.444 -131.9332
9.368578 91.479 -132.3501
9.436467 91.512 -132.7655
9.504847 91.546 -133.1794
9.573723 91.579 -133.5916
9.643099 91.610 -134.0020
9.712976 91.641 -134.4104
9.783361 91.669 -134.8166
9.854255 91.696 -135.2203
9.925663 91.719 -135.6213
9.997588 91.740 -136.0195
10.070035 91.758 -136.4145
10.143007 91.774 -136.8064
10.216507 91.787 -137.1948
10.290540 91.798 -137.5796
10.365109 91.808 -137.9609
10.440219 91.816 -138.3385
10.515873 91.824 -138.7126
10.592076 91.830 -139.0831
10.668830 91.836 -139.4501
10.746141 91.841 -139.8138
10.824012 91.845 -140.1744
10.902447 91.850 -140.5320
10.981451 91.853 -140.8869
11.061027 91.856 -141.2394
11.141180 91.859 -141.5897
11.221913 91.861 -141.9380
11.303232 91.863 -142.2846
11.385140 91.864 -142.6297
11.467641 91.865 -142.9734
11.550741 91.865 -143.3161
11.634442 91.865 -143.6578
11.718750 91.865 -143.9986
11.803669 91.864 -144.3386
11.889203 91.863 -144.6779
11.975357 91.862 -145.0165
12.062136 91.860 -145.3544
12.149543 91.859 -145.6917
12.237583 91.856 -146.0283
12.326262 91.854 -146.3643
12.415583 91.851 -146.6998
12.505552 91.847 -147.0348
12.596172 91.843 -147.3694
12.687449 91.838 -147.7037
12.779387 91.833 -148.0379
12.871992 91.827 -148.3721
12.965268 91.821 -148.7066
13.059220 91.815 -149.0417
13.153852 91.808 -149.3775
13.249170 91.801 -149.7143
13.345179 91.795 -150.0524
13.441884 91.788 -150.3920
13.539289 91.782 -150.7333
13.637401 91.775 -151.0765
13.736223 91.768 -151.4218
13.835761 91.761 -151.7693
13.936021 91.754 -152.1190
14.037007 91.747 -152.4711
14.138725 91.740 -152.8254
14.241180 91.732 -153.1820
14.344377 91.724 -153.5408
14.448323 91.715 -153.9017
14.553021 91.707 -154.2646
14.658478 91.698 -154.6295
14.764700 91.689 -154.9962
14.871691 91.680 -155.3646
14.979457 91.671 -155.7345
15.088005 91.663 -156.1058
15.197339 91.654 -156.4784
15.307465 91.646 -156.8520
15.418389 91.637 -157.2264
15.530117 91.629 -157.6015
15.642655 91.620 -157.9769
15.756008 91.612 -158.3523
15.870182 91.604 -158.7276
15.985184 91.595 -159.1022
16.101019 91.587 -159.4759
16.217694 91.578 -159.8484
16.335214 91.570 -160.2194
16.453586 91.562 -160.5886
16.572815 91.555 -160.9558
16.692909 91.548 -161.3208
16.813872 91.541 -161.6835
16.935713 91.535 -162.0439
17.058436 91.529 -162.4018
17.182048 91.524 -162.7575
17.306556 91.520 -163.1107
17.431967 91.515 -163.4617
17.558286 91.510 -163.8102
17.685521 91.506 -164.1563
17.813677 91.501 -164.4999
17.942762 91.497 -164.8405
18.072783 91.492 -165.1781
18.203746 91.486 -165.5123
18.335658 91.481 -165.8427
18.468526 91.475 -166.1688
18.602356 91.469 -166.4905
18.737156 91.462 -166.8074
18.872934 91.456 -167.1195
19.009695 91.449 -167.4265
19.147447 91.442 -167.7288
19.286197 91.436 -168.0264
19.425953 91.429 -168.3199
19.566721 91.422 -168.6097
19.708510 91.414 -168.8964
19.851326 91.406 -169.1805
19.995177 91.398 -169.4627
20.140070 91.390 -169.7435
20.286013 91.381 -170.0232
20.433014 91.371 -170.3022
20.581080 91.361 -170.5807
20.730219 91.350 -170.8588
20.880439 91.339 -171.1366
21.031747 91.327 -171.4140
21.184152 91.315 -171.6912
21.337661 91.302 -171.9681
21.492282 91.289 -172.2449
21.648024 91.275 -172.5219
21.804895 91.261 -172.7993
21.962902 91.247 -173.0775
22.122054 91.233 -173.3568
22.282360 91.218 -173.6375
22.443827 91.203 -173.9199
22.606464 91.187 -174.2038
22.770280 91.171 -174.4894
22.935283 91.154 -174.7763
23.101481 91.137 -175.0641
23.268884 91.120 -175.3523
23.437500 91.102 -175.6405
23.607338 91.084 -175.9281
23.778406 91.065 -176.2147
23.950714 91.047 -176.5002
24.124271 91.028 -176.7843
24.299086 91.010 -177.0673
24.475167 90.992 -177.3493
24.652524 90.975 -177.6306
24.831166 90.957 -177.9115
25.011103 90.940 -178.1923
25.192344 90.924 -178.4729
25.374898 90.908 -178.7533
25.558775 90.891 -179.0332
25.743984 90.875 -179.3122
25.930536 90.859 -179.5899
26.118439 90.843 -179.8657
26.307704 90.827 179.8608
26.498341 90.811 179.5899
26.690359 90.794 179.3219
26.883768 90.778 179.0568
27.078579 90.761 178.7947
27.274801 90.744 178.5358
27.472446 90.726 178.2800
27.671522 90.708 178.0276
27.872042 90.689 177.7791
28.074014 90.670 177.5348
28.277450 90.650 177.2952
28.482360 90.629 177.0604
28.688755 90.608 176.8306
28.896645 90.586 176.6055
29.106042 90.564 176.3846
29.316957 90.542 176.1670
29.529400 90.520 175.9516
29.743382 90.497 175.7374
29.958915 90.475 175.5233
30.176009 90.452 175.3087
30.394677 90.430 175.0931
30.614929 90.407 174.8766
30.836778 90.383 174.6594
31.060234 90.359 174.4419
31.285309 90.335 174.2247
31.512015 90.310 174.0081
31.740364 90.286 173.7922
31.970368 90.261 173.5766
32.202039 90.237 173.3611
32.435388 90.213 173.1448
32.670428 90.189 172.9272
32.907171 90.166 172.7078
33.145630 90.142 172.4866
33.385817 90.119 172.2636
33.627745 90.095 172.0396
33.871425 90.071 171.8152
34.116871 90.047 171.5914
34.364096 90.023 171.3691
34.613113 89.999 171.1491
34.863934 89.974 170.9322
35.116572 89.949 170.7186
35.371041 89.924 170.5089
35.627354 89.899 170.3030
35.885525 89.873 170.1009
36.145566 89.848 169.9024
36.407492 89.822 169.7070
36.671316 89.796 169.5142
36.937051 89.770 169.3236
37.204712 89.743 169.1349
37.474313 89.716 168.9483
37.745867 89.688 168.7646
38.019389 89.660 168.5844
38.294893 89.631 168.4086
38.572394 89.603 168.2372
38.851905 89.574 168.0695
39.133442 89.546 167.9041
39.417019 89.518 167.7388
39.702651 89.490 167.5717
39.990353 89.463 167.4016
40.280140 89.435 167.2285
40.572026 89.406 167.0534
40.866028 89.377 166.8784
41.162160 89.347 166.7056
41.460438 89.317 166.5366
41.760877 89.286 166.3724
42.063494 89.255 166.2132
42.368303 89.224 166.0583
42.675322 89.193 165.9072
42.984565 89.162 165.7591
43.296048 89.131 165.6132
43.609789 89.099 165.4692
43.925804 89.068 165.3268
44.244108 89.036 165.1864
44.564719 89.003 165.0489
44.887654 88.969 164.9156
45.212928 88.935 164.7877
45.540560 88.900 164.6658
45.870565 88.865 164.5494
46.202962 88.830 164.4372
46.537768 88.796 164.3282
46.875000 88.761 164.2220
47.214676 88.726 164.1191
47.556813 88.691 164.0201
47.901429 88.657 163.9244
48.248542 88.623 163.8295
48.598171 88.591 163.7314
48.950334 88.559 163.6266
49.305048 88.527 163.5145
49.662333 88.494 163.3985
50.022206 88.459 163.2850
50.384688 88.423 163.1806
50.749796 88.387 163.0896
51.117550 88.352 163.0118
51.487969 88.318 162.9432
51.861072 88.287 162.8782
52.236879 88.257 162.8115
52.615409 88.229 162.7396
52.996681 88.202 162.6611
53.380717 88.176 162.5765
53.767536 88.149 162.4878
54.157158 88.121 162.3984
54.549603 88.094 162.3122
54.944892 88.065 162.2319
55.343045 88.038 162.1584
55.744084 88.011 162.0905
56.148028 87.984 162.0262
56.554900 87.958 161.9641
56.964720 87.932 161.9033
57.377510 87.907 161.8429
57.793291 87.882 161.7808
58.212085 87.857 161.7145
58.633914 87.831 161.6425
59.058799 87.804 161.5656
59.486764 87.775 161.4865
59.917829 87.744 161.4078
60.352019 87.712 161.3300
60.789354 87.679 161.2519
61.229859 87.644 161.1731
61.673556 87.607 161.0948
62.120468 87.570 161.0199
62.570618 87.532 160.9509
63.024031 87.494 160.8878
63.480729 87.457 160.8285
63.940736 87.422 160.7695
64.404077 87.388 160.7078
64.870776 87.355 160.6421
65.340856 87.323 160.5727
65.814343 87.292 160.5018
66.291261 87.260 160.4322
66.771635 87.229 160.3663
67.255489 87.197 160.3050
67.742850 87.166 160.2480
68.233743 87.134 160.1951
68.728193 87.101 160.1474
69.226226 87.066 160.1078
69.727867 87.031 160.0781
70.233144 86.994 160.0581
70.742083 86.957 160.0452
71.254709 86.920 160.0363
71.771050 86.883 160.0296
72.291132 86.845 160.0234
72.814984 86.808 160.0154
73.342631 86.771 160.0038
73.874102 86.734 159.9913
74.409424 86.697 159.9845
74.948626 86.661 159.9890
75.491734 86.627 160.0024
76.038779 86.596 160.0151
76.589787 86.567 160.0172
77.144788 86.538 160.0064
77.703811 86.509 159.9888
78.266885 86.477 159.9732
78.834039 86.444 159.9666
79.405303 86.410 159.9706
79.980706 86.378 159.9808
80.560280 86.347 159.9863
81.144053 86.318 159.9750
81.732056 86.289 159.9407
82.324320 86.260 159.8861
82.920876 86.228 159.8200
83.521755 86.195 159.7521
84.126988 86.160 159.6909
84.736607 86.123 159.6440
85.350643 86.086 159.6176
85.969129 86.048 159.6151
86.592097 86.009 159.6363
87.219579 85.969 159.6777
87.851608 85.929 159.7328
88.488217 85.888 159.7944
89.129439 85.846 159.8559
89.775308 85.803 159.9127
90.425856 85.760 159.9612
91.081119 85.719 159.9979
91.741131 85.681 160.0200
92.405925 85.646 160.0273
93.075536 85.614 160.0206
93.750000 85.586 160.0013
94.429351 85.558 159.9772
95.113625 85.527 159.9695
95.802858 85.494 160.0019
96.497085 85.459 160.0815
97.196342 85.424 160.1931
97.900667 85.387 160.3137
98.610096 85.348 160.4260
99.324665 85.303 160.5244
100.044413 85.255 160.6166
100.769376 85.205 160.7161
101.499592 85.157 160.8312
102.235100 85.115 160.9622
102.975938 85.080 161.1088
103.722144 85.050 161.2739
104.473757 85.025 161.4597
105.230817 85.002 161.6649
105.993363 84.976 161.8829
106.761435 84.946 162.1022
107.535072 84.910 162.3089
108.314315 84.869 162.4913
109.099206 84.826 162.6428
109.889783 84.787 162.7618
110.686090 84.756 162.8535
111.488167 84.736 162.9377
112.296056 84.725 163.0559
113.109800 84.722 163.2664
113.929440 84.720 163.6262
114.755020 84.714 164.1752
115.586582 84.700 164.9303
116.424170 84.674 165.8831
117.267827 84.642 166.9865
118.117598 84.612 168.1314
118.973527 84.593 169.1201
119.835658 84.586 169.6968
120.704037 84.576 169.6989
121.578708 84.545 169.1867
122.459718 84.495 168.3741
123.347111 84.439 167.4802
124.240935 84.392 166.6675
125.141236 84.365 166.0361
126.048061 84.357 165.6199
126.961458 84.364 165.3963
127.881473 84.373 165.3111
128.808154 84.374 165.3097
129.741551 84.362 165.3546
130.681712 84.337 165.4217
131.628686 84.304 165.4948
132.582521 84.270 165.5670
133.543269 84.240 165.6426
134.510979 84.215 165.7351
135.485701 84.194 165.8635
136.467486 84.174 166.0438
137.456386 84.152 166.2790
138.452451 84.127 166.5543
139.455735 84.098 166.8439
140.466288 84.069 167.1218
141.484165 84.041 167.3683
142.509418 84.019 167.5713
143.542100 84.005 167.7258
144.582265 84.000 167.8333
145.629968 84.002 167.9000
146.685262 84.006 167.9352
147.748204 84.007 167.9500
148.818849 84.002 167.9586
149.897251 83.987 167.9810
150.983469 83.964 168.0400
152.077557 83.938 168.1523
153.179574 83.914 168.3226
154.289576 83.899 168.5437
155.407622 83.895 168.7979
156.533770 83.902 169.0583
157.668078 83.915 169.2905
158.810606 83.926 169.4597
159.961413 83.923 169.5556
161.120559 83.902 169.6071
162.288105 83.862 169.6514
163.464112 83.811 169.7026
164.648640 83.756 169.7569
165.841752 83.703 169.8085
167.043510 83.656 169.8597
168.253976 83.614 169.9206
169.473213 83.577 170.0037
170.701286 83.543 170.1160
171.938258 83.511 170.2558
173.184194 83.480 170.4149
174.439158 83.451 170.5841
175.703216 83.423 170.7574
176.976434 83.397 170.9317
178.258878 83.373 171.1055
179.550615 83.351 171.2762
180.851713 83.331 171.4412
182.162239 83.312 171.6004
183.482262 83.292 171.7554
184.811850 83.272 171.9083
186.151073 83.252 172.0602
187.500000 83.231 172.2107
188.858702 83.208 172.3589
190.227250 83.186 172.5045
191.605715 83.163 172.6478
192.994169 83.140 172.7903
194.392685 83.118 172.9347
195.801334 83.095 173.0843
197.220191 83.073 173.2421
198.649330 83.051 173.4097
200.088825 83.030 173.5869
201.538751 83.011 173.7723
202.999184 82.993 173.9633
204.470200 82.977 174.1561
205.951875 82.961 174.3463
207.444287 82.945 174.5302
208.947514 82.929 174.7068
210.461634 82.910 174.8781
211.986726 82.890 175.0485
213.522869 82.868 175.2237
215.070144 82.845 175.4091
216.628631 82.821 175.6088
218.198411 82.797 175.8238
219.779567 82.774 176.0511
221.372180 82.753 176.2851
222.976334 82.733 176.5187
224.592112 82.715 176.7465
226.219600 82.698 176.9660
227.858880 82.681 177.1772
229.510039 82.663 177.3805
231.173164 82.645 177.5759
232.848340 82.627 177.7631
234.535655 82.609 177.9445
236.235197 82.591 178.1260
237.947054 82.573 178.3163
239.671317 82.556 178.5226
241.408074 82.539 178.7452
243.157416 82.521 178.9789
244.919435 82.502 179.2177
246.694223 82.483 179.4588
248.481871 82.462 179.7039
250.282473 82.441 179.9571
252.096123 82.422 -179.7781
253.922915 82.404 -179.5018
255.762945 82.390 -179.2196
257.616309 82.379 -178.9413
259.483103 82.371 -178.6771
261.363424 82.363 -178.4326
263.257372 82.356 -178.2059
265.165043 82.347 -177.9897
267.086538 82.336 -177.7745
269.021957 82.324 -177.5523
270.971401 82.312 -177.3183
272.934972 82.301 -177.0714
274.912771 82.291 -176.8135
276.904902 82.282 -176.5485
278.911469 82.275 -176.2805
280.932577 82.268 -176.0135
282.968330 82.263 -175.7515
285.018835 82.259 -175.4997
287.084199 82.257 -175.2643
289.164530 82.256 -175.0507
291.259935 82.253 -174.8596
293.370525 82.249 -174.6851
295.496408 82.242 -174.5159
297.637697 82.232 -174.3413
299.794503 82.219 -174.1553
301.966937 82.206 -173.9570
304.155114 82.192 -173.7483
306.359147 82.179 -173.5324
308.579152 82.165 -173.3121
310.815244 82.151 -173.0894
313.067539 82.137 -172.8651
315.336156 82.123 -172.6379
317.621211 82.108 -172.4051
319.922826 82.092 -172.1633
322.241118 82.077 -171.9110
324.576210 82.061 -171.6492
326.928223 82.047 -171.3805
329.297280 82.034 -171.1080
331.683504 82.022 -170.8348
334.087019 82.011 -170.5638
336.507952 82.001 -170.2970
338.946427 81.991 -170.0350
341.402572 81.980 -169.7765
343.876516 81.969 -169.5192
346.368387 81.957 -169.2606
348.878315 81.945 -168.9994
351.406431 81.933 -168.7353
353.952867 81.921 -168.4678
356.517756 81.910 -168.1959
359.101230 81.899 -167.9194
361.703426 81.888 -167.6383
364.324478 81.878 -167.3535
366.964523 81.868 -167.0663
369.623699 81.857 -166.7772
372.302145 81.846 -166.4864
375.000000 81.836 -166.1936
377.717405 81.825 -165.8985
380.454501 81.815 -165.6019
383.211431 81.805 -165.3047
385.988339 81.796 -165.0074
388.785369 81.786 -164.7100
391.602668 81.777 -164.4119
394.440383 81.768 -164.1122
397.298660 81.760 -163.8102
400.177650 81.753 -163.5062
403.077502 81.745 -163.2012
405.998368 81.738 -162.8963
408.940400 81.731 -162.5914
411.903750 81.724 -162.2852
414.888575 81.716 -161.9750
417.895028 81.708 -161.6583
420.923268 81.700 -161.3337
423.973452 81.693 -161.0009
427.045738 81.687 -160.6613
430.140287 81.682 -160.3183
433.257261 81.679 -159.9759
436.396822 81.678 -159.6370
439.559133 81.677 -159.3026
442.744360 81.677 -158.9733
445.952668 81.678 -158.6511
449.184225 81.680 -158.3395
452.439199 81.683 -158.0434
455.717760 81.685 -157.7654
459.020079 81.685 -157.5019
462.346327 81.682 -157.2429
465.696680 81.675 -156.9774
469.071310 81.666 -156.6987
472.470394 81.657 -156.4050
475.894109 81.648 -156.0987
479.342634 81.639 -155.7848
482.816148 81.630 -155.4684
486.314833 81.621 -155.1511
489.838871 81.611 -154.8284
493.388445 81.600 -154.4934
496.963741 81.590 -154.1428
500.564945 81.581 -153.7805
504.192245 81.574 -153.4143
507.845830 81.568 -153.0507
511.525890 81.563 -152.6920
515.232618 81.558 -152.3360
518.966206 81.552 -151.9784
522.726849 81.545 -151.6149
526.514743 81.538 -151.2419
530.330086 81.532 -150.8579
534.173076 81.526 -150.4655
538.043915 81.522 -150.0695
541.942803 81.519 -149.6724
545.869944 81.517 -149.2735
549.825542 81.515 -148.8720
553.809805 81.514 -148.4699
557.822939 81.514 -148.0705
561.865154 81.513 -147.6762
565.936660 81.513 -147.2864
570.037671 81.512 -146.8978
574.168399 81.510 -146.5061
578.329060 81.508 -146.1086
582.519870 81.506 -145.7052
586.741049 81.505 -145.2964
590.992817 81.503 -144.8806
595.275394 81.501 -144.4553
599.589005 81.500 -144.0212
603.933874 81.500 -143.5819
608.310228 81.501 -143.1411
612.718295 81.502 -142.7001
617.158304 81.503 -142.2571
621.630488 81.504 -141.8068
626.135079 81.505 -141.3432
630.672311 81.506 -140.8641
635.242423 81.509 -140.3733
639.845651 81.515 -139.8775
644.482237 81.522 -139.3791
649.152421 81.531 -138.8773
653.856447 81.543 -138.3732
658.594560 81.558 -137.8727
663.367008 81.574 -137.3862
668.174039 81.592 -136.9215
673.015903 81.610 -136.4784
677.892854 81.626 -136.0492
682.805145 81.639 -135.6249
687.753032 81.651 -135.1982
692.736774 81.661 -134.7633
697.756631 81.670 -134.3155
702.812863 81.678 -133.8534
707.905735 81.687 -133.3794
713.035511 81.697 -132.8976
718.202461 81.708 -132.4114
723.406852 81.719 -131.9212
728.648956 81.731 -131.4264
733.929047 81.744 -130.9265
739.247399 81.757 -130.4214
744.604290 81.770 -129.9111
750.000000 81.785 -129.3954
755.434809 81.800 -128.8742
760.909001 81.816 -128.3475
766.422861 81.833 -127.8156
771.976677 81.852 -127.2796
777.570739 81.872 -126.7411
783.205337 81.893 -126.2016
788.880766 81.915 -125.6611
794.597321 81.939 -125.1180
800.355301 81.964 -124.5714
806.155005 81.992 -124.0245
811.996736 82.023 -123.4854
817.880799 82.057 -122.9648
823.807501 82.092 -122.4726
829.777150 82.126 -122.0137
835.790057 82.156 -121.5819
841.846536 82.180 -121.1578
847.946903 82.200 -120.7173
854.091476 82.218 -120.2448
860.280575 82.235 -119.7397
866.514523 82.254 -119.2108
872.793644 82.274 -118.6668
879.118267 82.296 -118.1123
885.488720 82.318 -117.5479
891.905336 82.342 -116.9708
898.368450 82.368 -116.3787
904.878398 82.397 -115.7736
911.435520 82.430 -115.1630
918.040157 82.467 -114.5565
924.692655 82.508 -113.9613
931.393359 82.552 -113.3815
938.142619 82.598 -112.8191
944.940787 82.645 -112.2736
951.788218 82.692 -111.7418
958.685268 82.739 -111.2192
965.632296 82.786 -110.7019
972.629666 82.833 -110.1861
979.677741 82.880 -109.6703
986.776890 82.928 -109.1546
993.927482 82.975 -108.6377
1001.129891 83.023 -108.1160
1008.384491 83.072 -107.5859
1015.691660 83.123 -107.0477
1023.051781 83.178 -106.5056
1030.465236 83.236 -105.9666
1037.932411 83.299 -105.4421
1045.453698 83.364 -104.9449
1053.029486 83.431 -104.4810
1060.660172 83.497 -104.0474
1068.346153 83.561 -103.6359
1076.087829 83.623 -103.2373
1083.885605 83.682 -102.8450
1091.739887 83.741 -102.4564
1099.651084 83.799 -102.0709
1107.619609 83.855 -101.6878
1115.645878 83.911 -101.3058
1123.730308 83.965 -100.9238
1131.873321 84.019 -100.5404
1140.075341 84.072 -100.1545
1148.336797 84.125 -99.7652
1156.658119 84.178 -99.3715
1165.039741 84.232 -98.9726
1173.482099 84.287 -98.5677
1181.985634 84.343 -98.1581
1190.550789 84.402 -97.7497
1199.178011 84.465 -97.3537
1207.867749 84.529 -96.9815
1216.620457 84.594 -96.6387
1225.436590 84.658 -96.3212
1234.316609 84.718 -96.0199
1243.260976 84.775 -95.7258
1252.270157 84.830 -95.4309
1261.344623 84.882 -95.1312
1270.484846 84.932 -94.8254
1279.691303 84.980 -94.5123
1288.964474 85.028 -94.1898
1298.304842 85.075 -93.8582
1307.712894 85.123 -93.5198
1317.189120 85.170 -93.1786
1326.734016 85.218 -92.8370
1336.348077 85.266 -92.4944
1346.031806 85.314 -92.1476
1355.785708 85.362 -91.7923
1365.610290 85.411 -91.4246
1375.506065 85.461 -91.0401
1385.473549 85.513 -90.6340
1395.513261 85.568 -90.2052
1405.625726 85.626 -89.7589
1415.811469 85.689 -89.3070
1426.071023 85.756 -88.8643
1436.404921 85.825 -88.4402
1446.813703 85.894 -88.0357
1457.297912 85.962 -87.6452
1467.858093 86.028 -87.2625
1478.494798 86.091 -86.8827
1489.208581 86.153 -86.5019
1500.000000 86.211 -86.1167
1510.869618 86.265 -85.7237
1521.818002 86.316 -85.3198
1532.845723 86.362 -84.9025
1543.953355 86.406 -84.4695
1555.141477 86.448 -84.0204
1566.410674 86.490 -83.5595
1577.761531 86.535 -83.0980
1589.194642 86.582 -82.6502
1600.710601 86.630 -82.2256
1612.310010 86.678 -81.8251
1623.993473 86.724 -81.4434
1635.761599 86.769 -81.0725
1647.615002 86.812 -80.7055
1659.554299 86.853 -80.3369
1671.580114 86.894 -79.9630
1683.693072 86.934 -79.5832
1695.893807 86.974 -79.1998
1708.182952 87.014 -78.8154
1720.561150 87.052 -78.4297
1733.029045 87.088 -78.0390
1745.587288 87.122 -77.6376
1758.236533 87.155 -77.2185
1770.977440 87.187 -76.7760
1783.810673 87.222 -76.3111
1796.736900 87.260 -75.8333
1809.756796 87.301 -75.3573
1822.871040 87.346 -74.8945
1836.080315 87.393 -74.4487
1849.385310 87.440 -74.0185
1862.786718 87.488 -73.6001
1876.285239 87.537 -73.1886
1889.881575 87.586 -72.7781
1903.576436 87.638 -72.3628
1917.370535 87.693 -71.9374
1931.264593 87.753 -71.4987
1945.259332 87.819 -71.0481
1959.355483 87.892 -70.5947
1973.553781 87.972 -70.1528
1987.854965 88.055 -69.7336
2002.259781 88.140 -69.3412
2016.768981 88.226 -68.9737
2031.383320 88.310 -68.6259
2046.103561 88.394 -68.2916
2060.930471 88.475 -67.9662
2075.864823 88.555 -67.6474
2090.907395 88.633 -67.3344
2106.058972 88.709 -67.0252
2121.320344 88.781 -66.7147
2136.692305 88.851 -66.3944
2152.175658 88.919 -66.0560
2167.771210 88.986 -65.6968
2183.479774 89.055 -65.3242
2199.302169 89.125 -64.9510
2215.239219 89.196 -64.5877
2231.291755 89.268 -64.2387
2247.460615 89.339 -63.9035
2263.746641 89.408 -63.5774
2280.150683 89.475 -63.2529
2296.673595 89.541 -62.9210
2313.316238 89.606 -62.5738
2330.079481 89.671 -62.2090
2346.964198 89.739 -61.8331
2363.971268 89.809 -61.4573
2381.101578 89.880 -61.0902
2398.356022 89.952 -60.7340
2415.735498 90.022 -60.3853
2433.240913 90.092 -60.0376
2450.873180 90.160 -59.6844
2468.633217 90.226 -59.3200
2486.521951 90.292 -58.9385
2504.540314 90.358 -58.5316
2522.689246 90.424 -58.0882
2540.969692 90.493 -57.5991
2559.382606 90.569 -57.0642
2577.928947 90.655 -56.4950
2596.609683 90.751 -55.9100
2615.425787 90.861 -55.3293
2634.378241 90.982 -54.7724
2653.468031 91.116 -54.2571
2672.696154 91.260 -53.7994
2692.063613 91.415 -53.4146
2711.571415 91.578 -53.1189
2731.220579 91.748 -52.9318
2751.012130 91.921 -52.8710
2770.947098 92.093 -52.9452
2791.026522 92.258 -53.1503
2811.251451 92.414 -53.4721
2831.622938 92.557 -53.8903
2852.142045 92.685 -54.3840
2872.809842 92.799 -54.9324
2893.627406 92.897 -55.5142
2914.595823 92.981 -56.1077
2935.716186 93.052 -56.6959
2956.989596 93.114 -57.2722
2978.417161 93.167 -57.8385
3000.000000 93.213 -58.4004
3021.739237 93.251 -58.9622
3043.636005 93.281 -59.5236
3065.691446 93.303 -60.0791
3087.906710 93.317 -60.6209
3110.282955 93.324 -61.1447
3132.821347 93.325 -61.6530
3155.523062 93.321 -62.1519
3178.389283 93.309 -62.6464
3201.421202 93.291 -63.1381
3224.620020 93.263 -63.6251
3247.986946 93.226 -64.1022
3271.523198 93.177 -64.5591
3295.230004 93.116 -64.9789
3319.108599 93.044 -65.3415
3343.160228 92.962 -65.6309
3367.386145 92.873 -65.8381
3391.787613 92.778 -65.9595
3416.365904 92.681 -65.9932
3441.122300 92.582 -65.9355
3466.058091 92.484 -65.7811
3491.174576 92.389 -65.5278
3516.473066 92.300 -65.1832
3541.954880 92.220 -64.7644
3567.621345 92.150 -64.2937
3593.473800 92.091 -63.7934
3619.513592 92.041 -63.2840
3645.742080 91.999 -62.7817
3672.160630 91.962 -62.2942
3698.770620 91.930 -61.8207
3725.573436 91.900 -61.3585
3752.570477 91.872 -60.9083
3779.763150 91.845 -60.4749
3807.152872 91.819 -60.0621
3834.741071 91.790 -59.6674
3862.529185 91.758 -59.2815
3890.518664 91.722 -58.8945
3918.710966 91.684 -58.5025
3947.107561 91.645 -58.1082
3975.709929 91.604 -57.7175
4004.519563 91.562 -57.3372
4033.537962 91.517 -56.9717
4062.766641 91.467 -56.6182
4092.207123 91.412 -56.2654
4121.860942 91.350 -55.9000
4151.729646 91.281 -55.5120
4181.814790 91.206 -55.0949
4212.117944 91.125 -54.6411
4242.640687 91.037 -54.1371
4273.384610 90.943 -53.5668
4304.351317 90.846 -52.9185
4335.542421 90.747 -52.1884
4366.959549 90.649 -51.3801
4398.604338 90.554 -50.5025
4430.478438 90.462 -49.5651
4462.583511 90.375 -48.5718
4494.921231 90.293 -47.5200
4527.493283 90.216 -46.4073
4560.301365 90.147 -45.2361
4593.347189 90.087 -44.0106
4626.632476 90.037 -42.7320
4660.158962 89.999 -41.3995
4693.928395 89.975 -40.0185
4727.942535 89.970 -38.6057
4762.203156 89.986 -37.1912
4796.712043 90.023 -35.8159
4831.470996 90.082 -34.5229
4866.481826 90.157 -33.3480
4901.746360 90.245 -32.3178
4937.266434 90.340 -31.4517
4973.043902 90.435 -30.7600
5009.080628 90.524 -30.2378
5045.378492 90.600 -29.8629
5081.939384 90.659 -29.6019
5118.765212 90.698 -29.4187
5155.857894 90.716 -29.2801
5193.219366 90.714 -29.1594
5230.851574 90.692 -29.0325
5268.756481 90.651 -28.8756
5306.936062 90.591 -28.6665
5345.392309 90.517 -28.3896
5384.127225 90.427 -28.0338
5423.142830 90.326 -27.5870
5462.441159 90.212 -27.0352
5502.024259 90.091 -26.3658
5541.894195 89.965 -25.5724
5582.053045 89.838 -24.6584
5622.502902 89.714 -23.6344
5663.245876 89.594 -22.5121
5704.284090 89.480 -21.3035
5745.619684 89.373 -20.0224
5787.254813 89.274 -18.6813
5829.191647 89.182 -17.2859
5871.432373 89.096 -15.8337
5913.979192 89.017 -14.3189
5956.834323 88.946 -12.7385
6000.000000 88.886 -11.0958
6043.478473 88.837 -9.3981
6087.272010 88.802 -7.6547
6131.382892 88.781 -5.8784
6175.813420 88.775 -4.0839
6220.565910 88.783 -2.2824
6265.642695 88.806 -0.4805
6311.046124 88.844 1.3177
6356.778566 88.897 3.1041
6402.842404 88.967 4.8643
6449.240040 89.053 6.5785
6495.973891 89.155 8.2232
6543.046396 89.272 9.7720
6590.460007 89.400 11.2022
6638.217197 89.534 12.5020
6686.320456 89.670 13.6729
6734.772290 89.803 14.7284
6783.575226 89.931 15.6898
6832.731809 90.051 16.5845
6882.244600 90.162 17.4426
6932.116181 90.265 18.2908
6982.349153 90.362 19.1508
7032.946133 90.458 20.0390
7083.909760 90.556 20.9642
7135.242690 90.664 21.9240
7186.947600 90.785 22.9008
7239.027185 90.925 23.8634
7291.484160 91.087 24.7683
7344.321260 91.272 25.5630
7397.541239 91.478 26.1945
7451.146872 91.700 26.6174
7505.140954 91.934 26.7962
7559.526299 92.174 26.7036
7614.305743 92.412 26.3196
7669.482141 92.642 25.6309
7725.058371 92.855 24.6305
7781.037328 93.042 23.3220
7837.421932 93.191 21.7269
7894.215122 93.294 19.8874
7951.419859 93.343 17.8640
8009.039125 93.332 15.7298
8067.075924 93.258 13.5645
8125.533282 93.122 11.4451
8184.414245 92.927 9.4423
8243.721885 92.675 7.6206
8303.459292 92.374 6.0397
8363.629581 92.029 4.7515
8424.235888 91.650 3.7978
8485.281374 91.245 3.2053
8546.769221 90.826 2.9807
8608.702634 90.401 3.1127
8671.084842 89.980 3.5808
8733.919097 89.569 4.3614
8797.208675 89.173 5.4326
8860.956876 88.797 6.7740
8925.167022 88.446 8.3608
8989.842461 88.125 10.1606
9054.986566 87.838 12.1365
9120.602731 87.586 14.2533
9186.694378 87.371 16.4807
9253.264952 87.195 18.7941
9320.317925 87.061 21.1670
9387.856790 86.971 23.5643
9455.885071 86.928 25.9425
9524.406312 86.932 28.2537
9593.424086 86.984 30.4507
9662.941992 87.084 32.4882
9732.963653 87.231 34.3156
9803.492719 87.422 35.8726
9874.532869 87.652 37.0920
9946.087805 87.913 37.9083
10018.161257 88.195 38.2694
10090.756983 88.483 38.1409
10163.878768 88.765 37.5053
10237.530423 89.026 36.3617
10311.715789 89.250 34.7296
10386.438732 89.422 32.6543
10461.703149 89.529 30.2085
10537.512962 89.561 27.4852
10613.872125 89.512 24.5858
10690.784618 89.380 21.6105
10768.254450 89.167 18.6526
10846.285661 88.876 15.7986
10924.882318 88.510 13.1260
11004.048518 88.078 10.6983
11083.788390 87.588 8.5624
11164.106090 87.047 6.7491
11245.005805 86.465 5.2814
11326.491752 85.848 4.1795
11408.568180 85.204 3.4600
11491.239368 84.541 3.1303
11574.509626 83.866 3.1856
11658.383294 83.189 3.6128
11742.864745 82.514 4.3951
11827.958384 81.849 5.5128
11913.668646 81.199 6.9399
12000.000000 80.569 8.6433
12086.956947 79.962 10.5902
12174.544019 79.382 12.7538
12262.765784 78.831 15.1108
12351.626840 78.311 17.6347
12441.131819 77.823 20.2945
12531.285389 77.369 23.0612
12622.092249 76.950 25.9115
12713.557132 76.567 28.8228
12805.684808 76.221 31.7692
12898.480079 75.912 34.7235
12991.947783 75.641 37.6633
13086.092792 75.407 40.5704
13180.920015 75.212 43.4245
13276.434395 75.053 46.2048
13372.640911 74.931 48.9008
13469.544580 74.845 51.5183
13567.150452 74.799 54.0713
13665.463617 74.800 56.5628
13764.489200 74.858 58.9567
13864.232362 74.981 61.1566
13964.698305 75.173 63.0241
14065.892266 75.426 64.4382
14167.819519 75.728 65.3304
14270.485380 76.068 65.6736
14373.895200 76.437 65.4535
14478.054370 76.824 64.6522
14582.968320 77.218 63.2532
14688.642520 77.603 61.2530
14795.082478 77.963 58.6729
14902.293745 78.279 55.5696
15010.281908 78.538 52.0470
15119.052599 78.733 48.2534
15228.611486 78.871 44.3512
15338.964283 78.971 40.4721
15450.116741 79.058 36.6852
15562.074656 79.154 33.0080
15674.843864 79.282 29.4418
15788.430244 79.464 25.9918
15902.839718 79.733 22.6430
16018.078250 80.123 19.2970
16134.151848 80.648 15.7021
16251.066563 81.275 11.4531
16368.828491 81.923 6.1281
16487.443769 82.484 -0.4792
16606.918584 82.866 -8.2190
16727.259161 83.023 -16.6782
16848.471777 82.945 -25.3847
16970.562748 82.646 -33.9320
17093.538442 82.154 -42.0087
17217.405268 81.498 -49.3882
17342.169684 80.712 -55.9165
17467.838194 79.830 -61.5029
17594.417350 78.885 -66.1099
17721.913751 77.908 -69.7446
17850.334044 76.925 -72.4508
17979.684923 75.960 -74.2952
18109.973131 75.029 -75.3487
18241.205462 74.144 -75.6726
18373.388756 73.317 -75.3102
18506.529905 72.557 -74.2919
18640.635849 71.884 -72.6748
18775.713581 71.321 -70.6151
18911.770141 70.888 -68.4281
19048.812624 70.582 -66.5475
19186.848172 70.366 -65.3445
19325.883983 70.184 -64.9377
19465.927305 69.990 -65.1795
19606.985439 69.772 -65.7896
19749.065738 69.548 -66.4882
19892.175609 69.362 -67.0612
20036.322514 69.256 -67.3764
