* Measurement data measured by REW V5.31
* Source: EXCL: Microphone (USB Sound Device        ), MICROPHONE (Master Volume), L, volume: 0.560
* Format: 256k Log Swept Sine, 1 sweep at -9.0 dBFS with no timing reference
* Dated: Apr 16, 2024 11:24:12 AM
* REW Settings:
*  C-weighting compensation: Off
*  Target level: 75.0 dB
* Note: L KZ ZS10 PRO 2 1000
* Measurement: L KZ ZS10 PRO 2 1000
* Smoothing: 1/12 octave
* Frequency Step: 96 ppo
* Start Frequency: 0.36621094 Hz
*
* Freq(Hz) SPL(dB) Phase(degrees)
0.366211 85.482 158.5582
0.368865 85.476 158.5358
0.371538 85.467 158.5023
0.374230 85.456 158.4602
0.376942 85.443 158.4117
0.379673 85.430 158.3583
0.382424 85.416 158.3011
0.385196 85.401 158.2409
0.387987 85.386 158.1778
0.390798 85.371 158.1122
0.393630 85.356 158.0441
0.396483 85.341 157.9735
0.399356 85.326 157.9005
0.402250 85.310 157.8251
0.405165 85.295 157.7472
0.408101 85.279 157.6668
0.411058 85.263 157.5839
0.414037 85.247 157.4985
0.417037 85.231 157.4105
0.420059 85.215 157.3199
0.423103 85.199 157.2267
0.426169 85.182 157.1309
0.429257 85.166 157.0325
0.432368 85.149 156.9314
0.435501 85.132 156.8275
0.438656 85.116 156.7210
0.441835 85.099 156.6117
0.445037 85.081 156.4996
0.448262 85.064 156.3848
0.451510 85.047 156.2671
0.454782 85.029 156.1467
0.458077 85.012 156.0233
0.461397 84.994 155.8971
0.464740 84.976 155.7681
0.468108 84.958 155.6361
0.471500 84.940 155.5012
0.474917 84.922 155.3634
0.478358 84.903 155.2226
0.481825 84.885 155.0788
0.485316 84.866 154.9321
0.488833 84.847 154.7824
0.492375 84.828 154.6297
0.495943 84.809 154.4740
0.499537 84.790 154.3152
0.503157 84.770 154.1535
0.506803 84.751 153.9887
0.510475 84.731 153.8209
0.514175 84.712 153.6501
0.517900 84.692 153.4762
0.521653 84.672 153.2993
0.525434 84.651 153.1194
0.529241 84.631 152.9364
0.533076 84.610 152.7505
0.536939 84.590 152.5615
0.540830 84.569 152.3695
0.544749 84.548 152.1746
0.548696 84.527 151.9767
0.552673 84.506 151.7759
0.556677 84.484 151.5722
0.560711 84.463 151.3656
0.564774 84.441 151.1561
0.568867 84.419 150.9438
0.572989 84.397 150.7287
0.577141 84.375 150.5109
0.581324 84.352 150.2904
0.585536 84.330 150.0672
0.589779 84.307 149.8415
0.594053 84.284 149.6132
0.598358 84.261 149.3824
0.602694 84.238 149.1492
0.607061 84.215 148.9137
0.611460 84.191 148.6759
0.615891 84.167 148.4359
0.620354 84.144 148.1938
0.624849 84.119 147.9498
0.629377 84.095 147.7038
0.633938 84.071 147.4561
0.638532 84.046 147.2067
0.643159 84.022 146.9557
0.647819 83.997 146.7033
0.652514 83.971 146.4496
0.657242 83.946 146.1948
0.662005 83.921 145.9390
0.666802 83.895 145.6823
0.671634 83.869 145.4250
0.676501 83.843 145.1672
0.681403 83.817 144.9091
0.686341 83.790 144.6509
0.691314 83.764 144.3928
0.696324 83.737 144.1350
0.701370 83.710 143.8776
0.706452 83.682 143.6209
0.711571 83.654 143.3648
0.716728 83.625 143.1093
0.721921 83.595 142.8543
0.727153 83.563 142.5993
0.732422 83.529 142.3434
0.737729 83.493 142.0858
0.743075 83.455 141.8253
0.748460 83.415 141.5612
0.753883 83.373 141.2926
0.759346 83.331 141.0191
0.764849 83.288 140.7404
0.770391 83.244 140.4562
0.775974 83.200 140.1662
0.781597 83.155 139.8706
0.787261 83.109 139.5690
0.792966 83.063 139.2614
0.798712 83.016 138.9479
0.804500 82.969 138.6282
0.810329 82.921 138.3023
0.816201 82.873 137.9703
0.822116 82.823 137.6319
0.828073 82.773 137.2873
0.834074 82.723 136.9362
0.840118 82.671 136.5788
0.846206 82.619 136.2150
0.852338 82.566 135.8447
0.858514 82.512 135.4678
0.864735 82.457 135.0845
0.871001 82.401 134.6948
0.877313 82.344 134.2985
0.883670 82.286 133.8958
0.890074 82.226 133.4866
0.896524 82.166 133.0711
0.903020 82.105 132.6492
0.909564 82.042 132.2211
0.916155 81.978 131.7868
0.922794 81.912 131.3464
0.929481 81.845 130.9000
0.936216 81.777 130.4479
0.943000 81.707 129.9901
0.949834 81.636 129.5268
0.956717 81.563 129.0583
0.963649 81.488 128.5847
0.970632 81.411 128.1065
0.977666 81.333 127.6237
0.984750 81.253 127.1369
0.991886 81.170 126.6463
0.999074 81.086 126.1523
1.006314 80.999 125.6555
1.013606 80.911 125.1562
1.020951 80.820 124.6550
1.028349 80.726 124.1525
1.035801 80.630 123.6492
1.043307 80.532 123.1459
1.050867 80.431 122.6433
1.058482 80.327 122.1419
1.066152 80.220 121.6427
1.073878 80.111 121.1461
1.081660 79.998 120.6526
1.089498 79.882 120.1625
1.097393 79.763 119.6757
1.105345 79.640 119.1917
1.113355 79.514 118.7098
1.121423 79.384 118.2291
1.129549 79.250 117.7490
1.137734 79.112 117.2688
1.145979 78.971 116.7877
1.154283 78.826 116.3052
1.162647 78.677 115.8208
1.171072 78.525 115.3339
1.179558 78.369 114.8441
1.188106 78.209 114.3506
1.196715 78.045 113.8530
1.205387 77.878 113.3506
1.214122 77.708 112.8427
1.222920 77.534 112.3287
1.231782 77.357 111.8078
1.240708 77.177 111.2791
1.249699 76.993 110.7420
1.258754 76.807 110.1953
1.267876 76.617 109.6382
1.277063 76.424 109.0696
1.286318 76.229 108.4885
1.295639 76.031 107.8937
1.305027 75.830 107.2838
1.314484 75.627 106.6575
1.324009 75.421 106.0135
1.333604 75.213 105.3501
1.343268 75.003 104.6657
1.353002 74.791 103.9587
1.362806 74.577 103.2271
1.372681 74.362 102.4690
1.382628 74.145 101.6825
1.392647 73.926 100.8653
1.402739 73.706 100.0154
1.412904 73.485 99.1306
1.423142 73.263 98.2087
1.433455 73.039 97.2476
1.443843 72.813 96.2453
1.454305 72.583 95.1998
1.464844 72.350 94.1089
1.475459 72.110 92.9701
1.486150 71.862 91.7797
1.496920 71.604 90.5328
1.507767 71.336 89.2229
1.518693 71.057 87.8419
1.529698 70.769 86.3799
1.540783 70.470 84.8249
1.551948 70.163 83.1629
1.563194 69.848 81.3771
1.574521 69.527 79.4475
1.585931 69.200 77.3507
1.597423 68.869 75.0586
1.608999 68.537 72.5379
1.620658 68.203 69.7495
1.632402 67.871 66.6476
1.644232 67.541 63.1795
1.656146 67.216 59.2863
1.668147 66.897 54.9053
1.680235 66.588 49.9758
1.692411 66.289 44.4480
1.704675 66.004 38.2994
1.717028 65.734 31.5532
1.729470 65.483 24.2986
1.742003 65.253 16.6978
1.754626 65.047 8.9738
1.767341 64.869 1.3730
1.780147 64.721 -5.8819
1.793047 64.606 -12.6306
1.806040 64.529 -18.7892
1.819128 64.493 -24.3434
1.832310 64.499 -29.3282
1.845587 64.551 -33.8058
1.858961 64.649 -37.8458
1.872432 64.793 -41.5129
1.886001 64.981 -44.8620
1.899667 65.212 -47.9375
1.913433 65.482 -50.7752
1.927299 65.789 -53.4039
1.941265 66.127 -55.8468
1.955332 66.495 -58.1231
1.969501 66.887 -60.2489
1.983773 67.299 -62.2372
1.998148 67.728 -64.0992
2.012627 68.169 -65.8444
2.027212 68.617 -67.4806
2.041902 69.069 -69.0147
2.056698 69.519 -70.4523
2.071602 69.964 -71.7984
2.086614 70.399 -73.0573
2.101734 70.820 -74.2329
2.116964 71.222 -75.3287
2.132304 71.602 -76.3488
2.147756 71.957 -77.2977
2.163320 72.284 -78.1809
2.178996 72.584 -79.0060
2.194786 72.856 -79.7821
2.210690 73.102 -80.5198
2.226710 73.326 -81.2296
2.242845 73.530 -81.9196
2.259098 73.716 -82.5954
2.275468 73.886 -83.2602
2.291957 74.042 -83.9150
2.308566 74.185 -84.5598
2.325295 74.316 -85.1935
2.342145 74.435 -85.8144
2.359117 74.545 -86.4204
2.376212 74.645 -87.0092
2.393431 74.738 -87.5783
2.410775 74.824 -88.1248
2.428244 74.905 -88.6458
2.445840 74.980 -89.1385
2.463564 75.053 -89.5996
2.481416 75.123 -90.0266
2.499397 75.192 -90.4167
2.517509 75.260 -90.7683
2.535752 75.328 -91.0805
2.554127 75.395 -91.3538
2.572635 75.459 -91.5903
2.591277 75.521 -91.7930
2.610055 75.578 -91.9649
2.628968 75.630 -92.1088
2.648019 75.676 -92.2265
2.667208 75.717 -92.3192
2.686535 75.753 -92.3875
2.706003 75.785 -92.4316
2.725612 75.813 -92.4516
2.745363 75.838 -92.4471
2.765257 75.862 -92.4178
2.785295 75.884 -92.3632
2.805478 75.906 -92.2828
2.825808 75.929 -92.1759
2.846285 75.953 -92.0418
2.866910 75.980 -91.8795
2.887685 76.010 -91.6880
2.908611 76.043 -91.4657
2.929688 76.080 -91.2109
2.950917 76.118 -90.9220
2.972301 76.159 -90.5980
2.993839 76.202 -90.2389
3.015534 76.246 -89.8460
3.037386 76.291 -89.4219
3.059396 76.338 -88.9699
3.081565 76.386 -88.4939
3.103896 76.437 -87.9984
3.126388 76.490 -87.4881
3.149043 76.546 -86.9681
3.171862 76.606 -86.4431
3.194847 76.669 -85.9178
3.217998 76.738 -85.3963
3.241317 76.811 -84.8816
3.264805 76.890 -84.3751
3.288463 76.974 -83.8768
3.312293 77.065 -83.3850
3.336295 77.162 -82.8976
3.360471 77.266 -82.4137
3.384822 77.375 -81.9341
3.409350 77.490 -81.4614
3.434056 77.609 -80.9993
3.458940 77.732 -80.5524
3.484005 77.859 -80.1255
3.509252 77.988 -79.7237
3.534681 78.118 -79.3516
3.560295 78.250 -79.0136
3.586094 78.382 -78.7133
3.612081 78.514 -78.4530
3.638255 78.646 -78.2342
3.664620 78.778 -78.0564
3.691175 78.911 -77.9182
3.717923 79.044 -77.8171
3.744864 79.177 -77.7507
3.772001 79.311 -77.7167
3.799335 79.445 -77.7131
3.826866 79.579 -77.7383
3.854597 79.712 -77.7908
3.882529 79.844 -77.8697
3.910664 79.973 -77.9739
3.939002 80.100 -78.1031
3.967546 80.223 -78.2572
3.996296 80.343 -78.4364
4.025255 80.458 -78.6413
4.054423 80.570 -78.8725
4.083804 80.678 -79.1301
4.113396 80.782 -79.4130
4.143204 80.882 -79.7195
4.173227 80.979 -80.0465
4.203468 81.072 -80.3910
4.233928 81.161 -80.7496
4.264609 81.246 -81.1189
4.295512 81.328 -81.4962
4.326639 81.405 -81.8796
4.357992 81.478 -82.2682
4.389572 81.547 -82.6623
4.421380 81.611 -83.0631
4.453419 81.671 -83.4719
4.485691 81.726 -83.8889
4.518196 81.776 -84.3134
4.550936 81.822 -84.7429
4.583914 81.864 -85.1745
4.617131 81.902 -85.6046
4.650589 81.937 -86.0295
4.684289 81.968 -86.4460
4.718233 81.997 -86.8517
4.752424 82.022 -87.2454
4.786862 82.044 -87.6271
4.821549 82.062 -87.9976
4.856488 82.077 -88.3576
4.891680 82.089 -88.7076
4.927127 82.098 -89.0472
4.962831 82.106 -89.3755
4.998794 82.111 -89.6912
5.035017 82.115 -89.9927
5.071503 82.119 -90.2785
5.108253 82.123 -90.5469
5.145270 82.126 -90.7972
5.182555 82.129 -91.0290
5.220110 82.131 -91.2431
5.257937 82.134 -91.4409
5.296038 82.137 -91.6245
5.334415 82.141 -91.7964
5.373071 82.146 -91.9588
5.412006 82.152 -92.1136
5.451224 82.161 -92.2621
5.490725 82.173 -92.4050
5.530514 82.187 -92.5424
5.570590 82.205 -92.6747
5.610957 82.224 -92.8033
5.651616 82.247 -92.9310
5.692570 82.272 -93.0612
5.733821 82.299 -93.1980
5.775370 82.329 -93.3450
5.817221 82.362 -93.5055
5.859375 82.397 -93.6813
5.901834 82.435 -93.8734
5.944602 82.475 -94.0822
5.987679 82.518 -94.3081
6.031068 82.563 -94.5523
6.074771 82.609 -94.8162
6.118792 82.656 -95.1018
6.163131 82.704 -95.4108
6.207792 82.753 -95.7447
6.252776 82.801 -96.1044
6.298086 82.849 -96.4896
6.343725 82.898 -96.8996
6.389694 82.945 -97.3328
6.435996 82.992 -97.7873
6.482634 83.038 -98.2616
6.529610 83.083 -98.7543
6.576926 83.125 -99.2647
6.624585 83.166 -99.7923
6.672590 83.205 -100.3364
6.720942 83.241 -100.8957
6.769645 83.276 -101.4676
6.818700 83.308 -102.0490
6.868111 83.339 -102.6369
6.917881 83.367 -103.2287
6.968010 83.394 -103.8226
7.018504 83.418 -104.4177
7.069362 83.440 -105.0128
7.120590 83.461 -105.6068
7.172189 83.480 -106.1974
7.224161 83.498 -106.7823
7.276511 83.516 -107.3594
7.329239 83.532 -107.9267
7.382350 83.549 -108.4834
7.435845 83.565 -109.0293
7.489729 83.582 -109.5643
7.544002 83.599 -110.0886
7.598669 83.618 -110.6022
7.653732 83.637 -111.1049
7.709194 83.659 -111.5967
7.765058 83.682 -112.0777
7.821327 83.708 -112.5490
7.878004 83.735 -113.0120
7.935091 83.765 -113.4686
7.992592 83.798 -113.9205
8.050510 83.833 -114.3692
8.108847 83.870 -114.8159
8.167607 83.911 -115.2615
8.226793 83.954 -115.7072
8.286408 83.999 -116.1545
8.346454 84.046 -116.6051
8.406936 84.095 -117.0603
8.467856 84.146 -117.5210
8.529218 84.198 -117.9873
8.591024 84.252 -118.4593
8.653278 84.306 -118.9367
8.715983 84.361 -119.4193
8.779143 84.416 -119.9068
8.842760 84.471 -120.3988
8.906839 84.526 -120.8944
8.971381 84.580 -121.3923
9.036392 84.633 -121.8909
9.101873 84.686 -122.3885
9.167829 84.738 -122.8838
9.234263 84.789 -123.3754
9.301178 84.838 -123.8622
9.368578 84.887 -124.3426
9.436467 84.934 -124.8151
9.504847 84.981 -125.2782
9.573723 85.027 -125.7310
9.643099 85.072 -126.1727
9.712976 85.116 -126.6028
9.783361 85.160 -127.0211
9.854255 85.203 -127.4271
9.925663 85.246 -127.8209
9.997588 85.289 -128.2027
10.070035 85.332 -128.5729
10.143007 85.375 -128.9324
10.216507 85.418 -129.2819
10.290540 85.460 -129.6223
10.365109 85.503 -129.9543
10.440219 85.546 -130.2789
10.515873 85.589 -130.5970
10.592076 85.632 -130.9096
10.668830 85.674 -131.2174
10.746141 85.716 -131.5211
10.824012 85.758 -131.8210
10.902447 85.799 -132.1176
10.981451 85.839 -132.4112
11.061027 85.878 -132.7020
11.141180 85.916 -132.9899
11.221913 85.953 -133.2750
11.303232 85.989 -133.5571
11.385140 86.023 -133.8361
11.467641 86.056 -134.1119
11.550741 86.088 -134.3847
11.634442 86.119 -134.6543
11.718750 86.149 -134.9210
11.803669 86.177 -135.1848
11.889203 86.204 -135.4462
11.975357 86.230 -135.7056
12.062136 86.255 -135.9635
12.149543 86.279 -136.2205
12.237583 86.302 -136.4772
12.326262 86.324 -136.7341
12.415583 86.344 -136.9919
12.505552 86.364 -137.2512
12.596172 86.382 -137.5123
12.687449 86.399 -137.7755
12.779387 86.415 -138.0411
12.871992 86.429 -138.3091
12.965268 86.442 -138.5796
13.059220 86.453 -138.8525
13.153852 86.464 -139.1275
13.249170 86.473 -139.4046
13.345179 86.481 -139.6836
13.441884 86.488 -139.9644
13.539289 86.494 -140.2470
13.637401 86.499 -140.5317
13.736223 86.503 -140.8186
13.835761 86.507 -141.1082
13.936021 86.511 -141.4012
14.037007 86.515 -141.6982
14.138725 86.518 -141.9999
14.241180 86.521 -142.3071
14.344377 86.525 -142.6207
14.448323 86.528 -142.9412
14.553021 86.531 -143.2691
14.658478 86.535 -143.6046
14.764700 86.538 -143.9478
14.871691 86.541 -144.2985
14.979457 86.544 -144.6561
15.088005 86.547 -145.0199
15.197339 86.549 -145.3890
15.307465 86.551 -145.7624
15.418389 86.553 -146.1390
15.530117 86.556 -146.5177
15.642655 86.558 -146.8977
15.756008 86.561 -147.2779
15.870182 86.564 -147.6579
15.985184 86.568 -148.0372
16.101019 86.573 -148.4155
16.217694 86.578 -148.7928
16.335214 86.585 -149.1693
16.453586 86.593 -149.5449
16.572815 86.602 -149.9198
16.692909 86.611 -150.2940
16.813872 86.622 -150.6674
16.935713 86.634 -151.0396
17.058436 86.646 -151.4102
17.182048 86.658 -151.7783
17.306556 86.671 -152.1431
17.431967 86.684 -152.5036
17.558286 86.698 -152.8588
17.685521 86.712 -153.2077
17.813677 86.725 -153.5495
17.942762 86.739 -153.8835
18.072783 86.754 -154.2093
18.203746 86.768 -154.5266
18.335658 86.782 -154.8355
18.468526 86.797 -155.1362
18.602356 86.811 -155.4289
18.737156 86.826 -155.7140
18.872934 86.840 -155.9919
19.009695 86.854 -156.2628
19.147447 86.867 -156.5272
19.286197 86.880 -156.7851
19.425953 86.892 -157.0368
19.566721 86.904 -157.2824
19.708510 86.914 -157.5221
19.851326 86.923 -157.7562
19.995177 86.932 -157.9852
20.140070 86.939 -158.2095
20.286013 86.946 -158.4297
20.433014 86.951 -158.6467
20.581080 86.955 -158.8610
20.730219 86.958 -159.0735
20.880439 86.960 -159.2847
21.031747 86.961 -159.4954
21.184152 86.960 -159.7059
21.337661 86.958 -159.9167
21.492282 86.955 -160.1283
21.648024 86.951 -160.3410
21.804895 86.946 -160.5553
21.962902 86.940 -160.7720
22.122054 86.934 -160.9915
22.282360 86.926 -161.2146
22.443827 86.918 -161.4421
22.606464 86.910 -161.6744
22.770280 86.901 -161.9118
22.935283 86.891 -162.1546
23.101481 86.881 -162.4024
23.268884 86.871 -162.6547
23.437500 86.860 -162.9110
23.607338 86.849 -163.1705
23.778406 86.839 -163.4324
23.950714 86.829 -163.6962
24.124271 86.819 -163.9617
24.299086 86.810 -164.2287
24.475167 86.802 -164.4973
24.652524 86.795 -164.7678
24.831166 86.789 -165.0403
25.011103 86.784 -165.3147
25.192344 86.779 -165.5908
25.374898 86.776 -165.8677
25.558775 86.773 -166.1445
25.743984 86.770 -166.4199
25.930536 86.768 -166.6925
26.118439 86.766 -166.9609
26.307704 86.764 -167.2238
26.498341 86.763 -167.4805
26.690359 86.762 -167.7303
26.883768 86.761 -167.9729
27.078579 86.761 -168.2083
27.274801 86.760 -168.4367
27.472446 86.759 -168.6582
27.671522 86.759 -168.8730
27.872042 86.757 -169.0813
28.074014 86.756 -169.2830
28.277450 86.753 -169.4784
28.482360 86.750 -169.6676
28.688755 86.746 -169.8509
28.896645 86.742 -170.0288
29.106042 86.736 -170.2021
29.316957 86.730 -170.3715
29.529400 86.723 -170.5382
29.743382 86.715 -170.7033
29.958915 86.706 -170.8679
30.176009 86.697 -171.0330
30.394677 86.687 -171.1993
30.614929 86.676 -171.3674
30.836778 86.664 -171.5375
31.060234 86.651 -171.7098
31.285309 86.638 -171.8843
31.512015 86.624 -172.0612
31.740364 86.611 -172.2406
31.970368 86.597 -172.4231
32.202039 86.583 -172.6091
32.435388 86.570 -172.7992
32.670428 86.556 -172.9935
32.907171 86.543 -173.1920
33.145630 86.530 -173.3939
33.385817 86.517 -173.5983
33.627745 86.505 -173.8039
33.871425 86.492 -174.0090
34.116871 86.480 -174.2126
34.364096 86.468 -174.4133
34.613113 86.456 -174.6106
34.863934 86.445 -174.8038
35.116572 86.434 -174.9928
35.371041 86.423 -175.1774
35.627354 86.413 -175.3575
35.885525 86.403 -175.5330
36.145566 86.392 -175.7037
36.407492 86.382 -175.8696
36.671316 86.371 -176.0307
36.937051 86.360 -176.1868
37.204712 86.348 -176.3381
37.474313 86.336 -176.4846
37.745867 86.324 -176.6265
38.019389 86.311 -176.7644
38.294893 86.297 -176.8990
38.572394 86.284 -177.0313
38.851905 86.270 -177.1625
39.133442 86.255 -177.2935
39.417019 86.240 -177.4252
39.702651 86.225 -177.5576
39.990353 86.209 -177.6907
40.280140 86.193 -177.8239
40.572026 86.176 -177.9568
40.866028 86.159 -178.0889
41.162160 86.142 -178.2202
41.460438 86.126 -178.3507
41.760877 86.109 -178.4806
42.063494 86.093 -178.6100
42.368303 86.077 -178.7389
42.675322 86.061 -178.8668
42.984565 86.045 -178.9931
43.296048 86.029 -179.1176
43.609789 86.013 -179.2399
43.925804 85.998 -179.3602
44.244108 85.983 -179.4788
44.564719 85.968 -179.5962
44.887654 85.952 -179.7124
45.212928 85.937 -179.8269
45.540560 85.921 -179.9392
45.870565 85.905 179.9515
46.202962 85.888 179.8452
46.537768 85.872 179.7414
46.875000 85.856 179.6388
47.214676 85.840 179.5364
47.556813 85.823 179.4336
47.901429 85.807 179.3307
48.248542 85.790 179.2289
48.598171 85.773 179.1295
48.950334 85.755 179.0335
49.305048 85.738 178.9411
49.662333 85.721 178.8519
50.022206 85.704 178.7653
50.384688 85.688 178.6811
50.749796 85.671 178.5992
51.117550 85.654 178.5195
51.487969 85.637 178.4423
51.861072 85.620 178.3676
52.236879 85.603 178.2953
52.615409 85.586 178.2261
52.996681 85.568 178.1605
53.380717 85.550 178.0991
53.767536 85.532 178.0417
54.157158 85.515 177.9874
54.549603 85.498 177.9344
54.944892 85.481 177.8808
55.343045 85.466 177.8252
55.744084 85.451 177.7664
56.148028 85.436 177.7042
56.554900 85.422 177.6384
56.964720 85.407 177.5693
57.377510 85.394 177.4974
57.793291 85.380 177.4239
58.212085 85.366 177.3494
58.633914 85.352 177.2747
59.058799 85.338 177.2001
59.486764 85.323 177.1263
59.917829 85.308 177.0545
60.352019 85.291 176.9863
60.789354 85.274 176.9230
61.229859 85.257 176.8651
61.673556 85.239 176.8121
62.120468 85.221 176.7627
62.570618 85.202 176.7159
63.024031 85.183 176.6712
63.480729 85.165 176.6284
63.940736 85.146 176.5875
64.404077 85.127 176.5479
64.870776 85.109 176.5090
65.340856 85.091 176.4704
65.814343 85.073 176.4328
66.291261 85.056 176.3976
66.771635 85.038 176.3658
67.255489 85.021 176.3375
67.742850 85.005 176.3113
68.233743 84.989 176.2858
68.728193 84.973 176.2608
69.226226 84.956 176.2372
69.727867 84.939 176.2163
70.233144 84.922 176.1982
70.742083 84.905 176.1819
71.254709 84.887 176.1665
71.771050 84.869 176.1515
72.291132 84.851 176.1371
72.814984 84.833 176.1236
73.342631 84.815 176.1111
73.874102 84.797 176.1006
74.409424 84.780 176.0930
74.948626 84.763 176.0884
75.491734 84.748 176.0857
76.038779 84.734 176.0825
76.589787 84.721 176.0763
77.144788 84.709 176.0651
77.703811 84.697 176.0483
78.266885 84.686 176.0264
78.834039 84.674 176.0006
79.405303 84.662 175.9726
79.980706 84.649 175.9425
80.560280 84.637 175.9094
81.144053 84.624 175.8716
81.732056 84.610 175.8284
82.324320 84.594 175.7811
82.920876 84.578 175.7321
83.521755 84.559 175.6847
84.126988 84.539 175.6415
84.736607 84.517 175.6050
85.350643 84.494 175.5766
85.969129 84.470 175.5569
86.592097 84.446 175.5450
87.219579 84.422 175.5398
87.851608 84.398 175.5404
88.488217 84.375 175.5468
89.129439 84.352 175.5595
89.775308 84.330 175.5780
90.425856 84.308 175.6013
91.081119 84.288 175.6282
91.741131 84.269 175.6580
92.405925 84.250 175.6903
93.075536 84.233 175.7242
93.750000 84.215 175.7592
94.429351 84.198 175.7946
95.113625 84.181 175.8305
95.802858 84.163 175.8670
96.497085 84.146 175.9042
97.196342 84.128 175.9421
97.900667 84.110 175.9805
98.610096 84.092 176.0196
99.324665 84.074 176.0598
100.044413 84.056 176.1018
100.769376 84.039 176.1465
101.499592 84.022 176.1940
102.235100 84.005 176.2444
102.975938 83.989 176.2971
103.722144 83.973 176.3508
104.473757 83.958 176.4042
105.230817 83.944 176.4559
105.993363 83.930 176.5050
106.761435 83.917 176.5506
107.535072 83.904 176.5914
108.314315 83.891 176.6259
109.099206 83.878 176.6530
109.889783 83.865 176.6732
110.686090 83.851 176.6880
111.488167 83.836 176.7002
112.296056 83.820 176.7123
113.109800 83.802 176.7273
113.929440 83.782 176.7486
114.755020 83.760 176.7801
115.586582 83.736 176.8259
116.424170 83.711 176.8897
117.267827 83.685 176.9727
118.117598 83.660 177.0724
118.973527 83.638 177.1816
119.835658 83.618 177.2909
120.704037 83.601 177.3925
121.578708 83.586 177.4835
122.459718 83.571 177.5657
123.347111 83.558 177.6422
124.240935 83.546 177.7162
125.141236 83.533 177.7903
126.048061 83.521 177.8659
126.961458 83.509 177.9429
127.881473 83.498 178.0206
128.808154 83.486 178.0976
129.741551 83.475 178.1729
130.681712 83.464 178.2451
131.628686 83.452 178.3139
132.582521 83.440 178.3802
133.543269 83.427 178.4456
134.510979 83.413 178.5110
135.485701 83.398 178.5769
136.467486 83.382 178.6436
137.456386 83.365 178.7124
138.452451 83.348 178.7842
139.455735 83.332 178.8585
140.466288 83.315 178.9343
141.484165 83.300 179.0106
142.509418 83.284 179.0869
143.542100 83.269 179.1632
144.582265 83.254 179.2400
145.629968 83.239 179.3180
146.685262 83.224 179.3978
147.748204 83.208 179.4798
148.818849 83.192 179.5647
149.897251 83.175 179.6547
150.983469 83.157 179.7531
152.077557 83.139 179.8627
153.179574 83.121 179.9844
154.289576 83.103 -179.8834
155.407622 83.087 -179.7448
156.533770 83.072 -179.6048
157.668078 83.058 -179.4684
158.810606 83.047 -179.3401
159.961413 83.036 -179.2236
161.120559 83.025 -179.1202
162.288105 83.015 -179.0285
163.464112 83.003 -178.9455
164.648640 82.990 -178.8666
165.841752 82.976 -178.7875
167.043510 82.960 -178.7046
168.253976 82.943 -178.6153
169.473213 82.924 -178.5184
170.701286 82.905 -178.4126
171.938258 82.886 -178.2965
173.184194 82.870 -178.1706
174.439158 82.856 -178.0382
175.703216 82.845 -177.9028
176.976434 82.836 -177.7656
178.258878 82.828 -177.6266
179.550615 82.820 -177.4857
180.851713 82.810 -177.3445
182.162239 82.799 -177.2063
183.482262 82.787 -177.0741
184.811850 82.775 -176.9492
186.151073 82.762 -176.8303
187.500000 82.749 -176.7139
188.858702 82.737 -176.5963
190.227250 82.724 -176.4755
191.605715 82.711 -176.3513
192.994169 82.697 -176.2243
194.392685 82.683 -176.0952
195.801334 82.669 -175.9643
197.220191 82.655 -175.8305
198.649330 82.641 -175.6922
200.088825 82.628 -175.5480
201.538751 82.615 -175.3973
202.999184 82.602 -175.2415
204.470200 82.591 -175.0835
205.951875 82.581 -174.9273
207.444287 82.571 -174.7760
208.947514 82.560 -174.6306
210.461634 82.549 -174.4900
211.986726 82.537 -174.3519
213.522869 82.523 -174.2123
215.070144 82.508 -174.0660
216.628631 82.494 -173.9089
218.198411 82.480 -173.7393
219.779567 82.468 -173.5593
221.372180 82.457 -173.3741
222.976334 82.449 -173.1891
224.592112 82.442 -173.0079
226.219600 82.435 -172.8317
227.858880 82.429 -172.6601
229.510039 82.422 -172.4925
231.173164 82.416 -172.3280
232.848340 82.410 -172.1656
234.535655 82.402 -172.0042
236.235197 82.395 -171.8437
237.947054 82.387 -171.6856
239.671317 82.378 -171.5314
241.408074 82.369 -171.3803
243.157416 82.358 -171.2293
244.919435 82.347 -171.0751
246.694223 82.336 -170.9148
248.481871 82.324 -170.7467
250.282473 82.312 -170.5686
252.096123 82.300 -170.3790
253.922915 82.290 -170.1777
255.762945 82.281 -169.9679
257.616309 82.276 -169.7584
259.483103 82.273 -169.5600
261.363424 82.270 -169.3789
263.257372 82.268 -169.2134
265.165043 82.263 -169.0560
267.086538 82.256 -168.8977
269.021957 82.248 -168.7319
270.971401 82.238 -168.5547
272.934972 82.229 -168.3660
274.912771 82.221 -168.1675
276.904902 82.214 -167.9620
278.911469 82.209 -167.7519
280.932577 82.205 -167.5401
282.968330 82.202 -167.3306
285.018835 82.202 -167.1295
287.084199 82.203 -166.9441
289.164530 82.204 -166.7803
291.259935 82.204 -166.6391
293.370525 82.202 -166.5140
295.496408 82.198 -166.3945
297.637697 82.190 -166.2706
299.794503 82.181 -166.1356
301.966937 82.171 -165.9875
304.155114 82.161 -165.8281
306.359147 82.150 -165.6611
308.579152 82.139 -165.4909
310.815244 82.129 -165.3203
313.067539 82.117 -165.1499
315.336156 82.105 -164.9776
317.621211 82.092 -164.7995
319.922826 82.078 -164.6116
322.241118 82.064 -164.4123
324.576210 82.051 -164.2023
326.928223 82.039 -163.9840
329.297280 82.028 -163.7605
331.683504 82.018 -163.5351
334.087019 82.009 -163.3112
336.507952 82.001 -163.0913
338.946427 81.994 -162.8764
341.402572 81.986 -162.6651
343.876516 81.978 -162.4542
346.368387 81.969 -162.2402
348.878315 81.959 -162.0213
351.406431 81.950 -161.7976
353.952867 81.940 -161.5704
356.517756 81.930 -161.3406
359.101230 81.921 -161.1086
361.703426 81.912 -160.8744
364.324478 81.902 -160.6383
366.964523 81.893 -160.3996
369.623699 81.884 -160.1575
372.302145 81.874 -159.9117
375.000000 81.865 -159.6626
377.717405 81.856 -159.4107
380.454501 81.847 -159.1562
383.211431 81.838 -158.8995
385.988339 81.830 -158.6409
388.785369 81.821 -158.3808
391.602668 81.814 -158.1188
394.440383 81.806 -157.8537
397.298660 81.799 -157.5851
400.177650 81.793 -157.3135
403.077502 81.786 -157.0404
405.998368 81.781 -156.7679
408.940400 81.775 -156.4969
411.903750 81.769 -156.2263
414.888575 81.763 -155.9530
417.895028 81.756 -155.6740
420.923268 81.749 -155.3868
423.973452 81.742 -155.0903
427.045738 81.736 -154.7856
430.140287 81.733 -154.4763
433.257261 81.730 -154.1670
436.396822 81.729 -153.8602
439.559133 81.729 -153.5559
442.744360 81.730 -153.2545
445.952668 81.732 -152.9590
449.184225 81.735 -152.6744
452.439199 81.738 -152.4062
455.717760 81.741 -152.1565
459.020079 81.741 -151.9211
462.346327 81.738 -151.6897
465.696680 81.733 -151.4509
469.071310 81.725 -151.1979
472.470394 81.717 -150.9296
475.894109 81.708 -150.6490
479.342634 81.701 -150.3615
482.816148 81.693 -150.0725
486.314833 81.686 -149.7834
489.838871 81.677 -149.4893
493.388445 81.668 -149.1822
496.963741 81.660 -148.8581
500.564945 81.653 -148.5208
504.192245 81.648 -148.1788
507.845830 81.644 -147.8395
511.525890 81.640 -147.5064
515.232618 81.636 -147.1782
518.966206 81.631 -146.8504
522.726849 81.625 -146.5172
526.514743 81.619 -146.1740
530.330086 81.612 -145.8194
534.173076 81.607 -145.4562
538.043915 81.603 -145.0890
541.942803 81.599 -144.7203
545.869944 81.596 -144.3496
549.825542 81.593 -143.9761
553.809805 81.592 -143.6018
557.822939 81.591 -143.2304
561.865154 81.590 -142.8638
565.936660 81.590 -142.5013
570.037671 81.589 -142.1389
574.168399 81.588 -141.7717
578.329060 81.586 -141.3970
582.519870 81.584 -141.0149
586.741049 81.582 -140.6266
590.992817 81.580 -140.2310
595.275394 81.578 -139.8262
599.589005 81.576 -139.4125
603.933874 81.575 -138.9938
608.310228 81.575 -138.5736
612.718295 81.575 -138.1530
617.158304 81.575 -137.7296
621.630488 81.574 -137.2976
626.135079 81.573 -136.8512
630.672311 81.574 -136.3885
635.242423 81.576 -135.9144
639.845651 81.581 -135.4355
644.482237 81.587 -134.9544
649.152421 81.596 -134.4698
653.856447 81.607 -133.9824
658.594560 81.621 -133.4983
663.367008 81.637 -133.0284
668.174039 81.655 -132.5816
673.015903 81.673 -132.1577
677.892854 81.688 -131.7482
682.805145 81.702 -131.3431
687.753032 81.713 -130.9342
692.736774 81.722 -130.5157
697.756631 81.731 -130.0829
702.812863 81.739 -129.6345
707.905735 81.748 -129.1735
713.035511 81.758 -128.7050
718.202461 81.769 -128.2330
723.406852 81.780 -127.7587
728.648956 81.792 -127.2812
733.929047 81.805 -126.7991
739.247399 81.818 -126.3110
744.604290 81.832 -125.8165
750.000000 81.847 -125.3157
755.434809 81.862 -124.8091
760.909001 81.878 -124.2971
766.422861 81.895 -123.7802
771.976677 81.914 -123.2589
777.570739 81.934 -122.7345
783.205337 81.955 -122.2075
788.880766 81.978 -121.6774
794.597321 82.003 -121.1420
800.355301 82.030 -120.6011
806.155005 82.059 -120.0587
811.996736 82.092 -119.5243
817.880799 82.128 -119.0097
823.807501 82.165 -118.5258
829.777150 82.201 -118.0784
835.790057 82.234 -117.6620
841.846536 82.261 -117.2574
847.946903 82.284 -116.8399
854.091476 82.303 -116.3931
860.280575 82.322 -115.9159
866.514523 82.341 -115.4163
872.793644 82.361 -114.9015
879.118267 82.382 -114.3748
885.488720 82.404 -113.8355
891.905336 82.427 -113.2784
898.368450 82.452 -112.6981
904.878398 82.481 -112.0953
911.435520 82.514 -111.4786
918.040157 82.551 -110.8611
924.692655 82.593 -110.2535
931.393359 82.639 -109.6621
938.142619 82.686 -109.0900
944.940787 82.734 -108.5366
951.788218 82.783 -107.9978
958.685268 82.832 -107.4689
965.632296 82.879 -106.9455
972.629666 82.927 -106.4246
979.677741 82.975 -105.9049
986.776890 83.022 -105.3867
993.927482 83.070 -104.8680
1001.129891 83.119 -104.3434
1008.384491 83.169 -103.8082
1015.691660 83.222 -103.2629
1023.051781 83.278 -102.7125
1030.465236 83.337 -102.1654
1037.932411 83.401 -101.6339
1045.453698 83.467 -101.1311
1053.029486 83.535 -100.6630
1060.660172 83.601 -100.2258
1068.346153 83.666 -99.8102
1076.087829 83.728 -99.4060
1083.885605 83.788 -99.0064
1091.739887 83.847 -98.6091
1099.651084 83.905 -98.2138
1107.619609 83.963 -97.8200
1115.645878 84.019 -97.4272
1123.730308 84.075 -97.0346
1131.873321 84.130 -96.6413
1140.075341 84.185 -96.2459
1148.336797 84.240 -95.8476
1156.658119 84.294 -95.4457
1165.039741 84.349 -95.0392
1173.482099 84.405 -94.6267
1181.985634 84.462 -94.2088
1190.550789 84.522 -93.7913
1199.178011 84.585 -93.3854
1207.867749 84.650 -93.0030
1216.620457 84.714 -92.6495
1225.436590 84.777 -92.3213
1234.316609 84.836 -92.0098
1243.260976 84.893 -91.7058
1252.270157 84.946 -91.4017
1261.344623 84.997 -91.0930
1270.484846 85.046 -90.7784
1279.691303 85.094 -90.4563
1288.964474 85.140 -90.1249
1298.304842 85.186 -89.7842
1307.712894 85.232 -89.4367
1317.189120 85.277 -89.0863
1326.734016 85.323 -88.7358
1336.348077 85.368 -88.3848
1346.031806 85.411 -88.0304
1355.785708 85.453 -87.6685
1365.610290 85.494 -87.2949
1375.506065 85.535 -86.9045
1385.473549 85.576 -86.4924
1395.513261 85.618 -86.0571
1405.625726 85.663 -85.6038
1415.811469 85.712 -85.1443
1426.071023 85.765 -84.6933
1436.404921 85.820 -84.2606
1446.813703 85.875 -83.8471
1457.297912 85.930 -83.4477
1467.858093 85.983 -83.0563
1478.494798 86.035 -82.6679
1489.208581 86.086 -82.2784
1500.000000 86.136 -81.8845
1510.869618 86.185 -81.4828
1521.818002 86.233 -81.0704
1532.845723 86.282 -80.6447
1543.953355 86.331 -80.2040
1555.141477 86.382 -79.7480
1566.410674 86.436 -79.2806
1577.761531 86.494 -78.8126
1589.194642 86.555 -78.3579
1600.710601 86.619 -77.9261
1612.310010 86.682 -77.5180
1623.993473 86.745 -77.1285
1635.761599 86.805 -76.7499
1647.615002 86.865 -76.3757
1659.554299 86.922 -76.0008
1671.580114 86.979 -75.6217
1683.693072 87.035 -75.2374
1695.893807 87.090 -74.8496
1708.182952 87.145 -74.4602
1720.561150 87.200 -74.0689
1733.029045 87.253 -73.6724
1745.587288 87.305 -73.2655
1758.236533 87.357 -72.8415
1770.977440 87.410 -72.3947
1783.810673 87.465 -71.9253
1796.736900 87.524 -71.4425
1809.756796 87.587 -70.9608
1822.871040 87.653 -70.4920
1836.080315 87.721 -70.0402
1849.385310 87.790 -69.6043
1862.786718 87.859 -69.1807
1876.285239 87.927 -68.7647
1889.881575 87.994 -68.3507
1903.576436 88.061 -67.9328
1917.370535 88.127 -67.5056
1931.264593 88.195 -67.0652
1945.259332 88.266 -66.6128
1959.355483 88.340 -66.1577
1973.553781 88.419 -65.7143
1987.854965 88.500 -65.2942
2002.259781 88.583 -64.9013
2016.768981 88.665 -64.5336
2031.383320 88.747 -64.1859
2046.103561 88.827 -63.8524
2060.930471 88.907 -63.5285
2075.864823 88.985 -63.2127
2090.907395 89.062 -62.9047
2106.058972 89.138 -62.6026
2121.320344 89.211 -62.3011
2136.692305 89.283 -61.9921
2152.175658 89.354 -61.6675
2167.771210 89.427 -61.3253
2183.479774 89.502 -60.9730
2199.302169 89.580 -60.6234
2215.239219 89.661 -60.2866
2231.291755 89.743 -59.9674
2247.460615 89.826 -59.6658
2263.746641 89.908 -59.3780
2280.150683 89.989 -59.0975
2296.673595 90.070 -58.8169
2313.316238 90.150 -58.5304
2330.079481 90.233 -58.2376
2346.964198 90.319 -57.9466
2363.971268 90.408 -57.6705
2381.101578 90.499 -57.4199
2398.356022 90.592 -57.1995
2415.735498 90.684 -57.0094
2433.240913 90.776 -56.8464
2450.873180 90.866 -56.7073
2468.633217 90.954 -56.5901
2486.521951 91.039 -56.4922
2504.540314 91.121 -56.4076
2522.689246 91.200 -56.3268
2540.969692 91.277 -56.2406
2559.382606 91.353 -56.1467
2577.928947 91.430 -56.0518
2596.609683 91.507 -55.9657
2615.425787 91.586 -55.8959
2634.378241 91.664 -55.8458
2653.468031 91.740 -55.8131
2672.696154 91.814 -55.7915
2692.063613 91.887 -55.7729
2711.571415 91.959 -55.7527
2731.220579 92.032 -55.7347
2751.012130 92.108 -55.7297
2770.947098 92.184 -55.7487
2791.026522 92.261 -55.7996
2811.251451 92.336 -55.8852
2831.622938 92.410 -56.0061
2852.142045 92.480 -56.1618
2872.809842 92.547 -56.3504
2893.627406 92.608 -56.5656
2914.595823 92.663 -56.7974
2935.716186 92.713 -57.0368
2956.989596 92.760 -57.2817
2978.417161 92.803 -57.5365
3000.000000 92.843 -57.8074
3021.739237 92.879 -58.0981
3043.636005 92.908 -58.4071
3065.691446 92.932 -58.7276
3087.906710 92.948 -59.0500
3110.282955 92.960 -59.3686
3132.821347 92.966 -59.6846
3155.523062 92.968 -60.0033
3178.389283 92.964 -60.3296
3201.421202 92.955 -60.6652
3224.620020 92.937 -61.0087
3247.986946 92.911 -61.3557
3271.523198 92.875 -61.6972
3295.230004 92.827 -62.0173
3319.108599 92.768 -62.2971
3343.160228 92.700 -62.5219
3367.386145 92.624 -62.6839
3391.787613 92.541 -62.7800
3416.365904 92.453 -62.8073
3441.122300 92.361 -62.7600
3466.058091 92.265 -62.6281
3491.174576 92.169 -62.4038
3516.473066 92.075 -62.0873
3541.954880 91.986 -61.6885
3567.621345 91.904 -61.2233
3593.473800 91.830 -60.7101
3619.513592 91.765 -60.1673
3645.742080 91.708 -59.6110
3672.160630 91.656 -59.0502
3698.770620 91.610 -58.4859
3725.573436 91.568 -57.9177
3752.570477 91.530 -57.3489
3779.763150 91.497 -56.7867
3807.152872 91.466 -56.2367
3834.741071 91.437 -55.6987
3862.529185 91.409 -55.1652
3890.518664 91.381 -54.6285
3918.710966 91.355 -54.0868
3947.107561 91.331 -53.5446
3975.709929 91.310 -53.0103
4004.519563 91.290 -52.4936
4033.537962 91.271 -52.0024
4062.766641 91.250 -51.5373
4092.207123 91.226 -51.0908
4121.860942 91.198 -50.6530
4151.729646 91.165 -50.2173
4181.814790 91.128 -49.7797
4212.117944 91.085 -49.3337
4242.640687 91.035 -48.8656
4273.384610 90.980 -48.3582
4304.351317 90.920 -47.7973
4335.542421 90.858 -47.1760
4366.959549 90.795 -46.4941
4398.604338 90.734 -45.7563
4430.478438 90.675 -44.9679
4462.583511 90.617 -44.1286
4494.921231 90.561 -43.2321
4527.493283 90.510 -42.2729
4560.301365 90.464 -41.2504
4593.347189 90.425 -40.1670
4626.632476 90.395 -39.0227
4660.158962 90.377 -37.8169
4693.928395 90.373 -36.5557
4727.942535 90.388 -35.2580
4762.203156 90.424 -33.9568
4796.712043 90.482 -32.6956
4831.470996 90.560 -31.5195
4866.481826 90.656 -30.4658
4901.746360 90.764 -29.5616
4937.266434 90.878 -28.8259
4973.043902 90.993 -28.2683
5009.080628 91.101 -27.8838
5045.378492 91.196 -27.6508
5081.939384 91.275 -27.5380
5118.765212 91.335 -27.5120
5155.857894 91.376 -27.5431
5193.219366 91.397 -27.6075
5230.851574 91.398 -27.6844
5268.756481 91.381 -27.7524
5306.936062 91.345 -27.7914
5345.392309 91.294 -27.7864
5384.127225 91.227 -27.7261
5423.142830 91.146 -27.5968
5462.441159 91.052 -27.3816
5502.024259 90.947 -27.0646
5541.894195 90.835 -26.6354
5582.053045 90.718 -26.0932
5622.502902 90.601 -25.4442
5663.245876 90.485 -24.6967
5704.284090 90.371 -23.8598
5745.619684 90.262 -22.9449
5787.254813 90.156 -21.9627
5829.191647 90.055 -20.9178
5871.432373 89.958 -19.8077
5913.979192 89.865 -18.6272
5956.834323 89.779 -17.3738
6000.000000 89.700 -16.0516
6043.478473 89.632 -14.6685
6087.272010 89.575 -13.2352
6131.382892 89.531 -11.7658
6175.813420 89.499 -10.2767
6220.565910 89.480 -8.7813
6265.642695 89.473 -7.2876
6311.046124 89.479 -5.8009
6356.778566 89.497 -4.3300
6402.842404 89.528 -2.8895
6449.240040 89.572 -1.4985
6495.973891 89.628 -0.1796
6543.046396 89.693 1.0434
6590.460007 89.764 2.1509
6638.217197 89.835 3.1346
6686.320456 89.902 4.0007
6734.772290 89.960 4.7681
6783.575226 90.006 5.4639
6832.731809 90.037 6.1215
6882.244600 90.054 6.7756
6932.116181 90.058 7.4580
6982.349153 90.053 8.1943
7032.946133 90.040 9.0047
7083.909760 90.025 9.9024
7135.242690 90.013 10.8905
7186.947600 90.009 11.9595
7239.027185 90.016 13.0892
7291.484160 90.039 14.2493
7344.321260 90.077 15.4023
7397.541239 90.132 16.5108
7451.146872 90.201 17.5450
7505.140954 90.280 18.4850
7559.526299 90.367 19.3179
7614.305743 90.459 20.0347
7669.482141 90.553 20.6279
7725.058371 90.647 21.0875
7781.037328 90.737 21.4047
7837.421932 90.819 21.5781
7894.215122 90.886 21.6179
7951.419859 90.937 21.5440
8009.039125 90.967 21.3828
8067.075924 90.974 21.1623
8125.533282 90.960 20.9070
8184.414245 90.922 20.6377
8243.721885 90.860 20.3768
8303.459292 90.773 20.1519
8363.629581 90.663 19.9951
8424.235888 90.530 19.9399
8485.281374 90.379 20.0155
8546.769221 90.214 20.2398
8608.702634 90.039 20.6206
8671.084842 89.858 21.1616
8733.919097 89.673 21.8663
8797.208675 89.489 22.7401
8860.956876 89.309 23.7878
8925.167022 89.139 25.0074
8989.842461 88.981 26.3856
9054.986566 88.842 27.9024
9120.602731 88.724 29.5364
9186.694378 88.629 31.2690
9253.264952 88.560 33.0846
9320.317925 88.519 34.9647
9387.856790 88.511 36.8822
9455.885071 88.537 38.8020
9524.406312 88.598 40.6863
9593.424086 88.696 42.4985
9662.941992 88.829 44.2047
9732.963653 88.999 45.7665
9803.492719 89.205 47.1359
9874.532869 89.444 48.2571
9946.087805 89.711 49.0741
10018.161257 89.999 49.5401
10090.756983 90.300 49.6209
10163.878768 90.604 49.2915
10237.530423 90.901 48.5355
10311.715789 91.179 47.3483
10386.438732 91.426 45.7440
10461.703149 91.630 43.7593
10537.512962 91.782 41.4492
10613.872125 91.875 38.8779
10690.784618 91.903 36.1133
10768.254450 91.864 33.2251
10846.285661 91.755 30.2861
10924.882318 91.578 27.3706
11004.048518 91.333 24.5473
11083.788390 91.027 21.8751
11164.106090 90.665 19.4017
11245.005805 90.251 17.1692
11326.491752 89.791 15.2166
11408.568180 89.293 13.5768
11491.239368 88.765 12.2705
11574.509626 88.215 11.3040
11658.383294 87.652 10.6732
11742.864745 87.081 10.3692
11827.958384 86.511 10.3778
11913.668646 85.948 10.6767
12000.000000 85.397 11.2358
12086.956947 84.864 12.0234
12174.544019 84.351 13.0109
12262.765784 83.862 14.1704
12351.626840 83.399 15.4685
12441.131819 82.966 16.8669
12531.285389 82.562 18.3296
12622.092249 82.189 19.8259
12713.557132 81.847 21.3261
12805.684808 81.534 22.7965
12898.480079 81.252 24.2017
12991.947783 80.997 25.5108
13086.092792 80.767 26.6982
13180.920015 80.560 27.7407
13276.434395 80.371 28.6205
13372.640911 80.195 29.3349
13469.544580 80.028 29.9025
13567.150452 79.869 30.3548
13665.463617 79.723 30.7156
13764.489200 79.597 30.9707
13864.232362 79.498 31.0510
13964.698305 79.422 30.8641
14065.892266 79.358 30.3536
14167.819519 79.293 29.5218
14270.485380 79.214 28.4132
14373.895200 79.118 27.0849
14478.054370 79.001 25.5880
14582.968320 78.863 23.9643
14688.642520 78.704 22.2517
14795.082478 78.524 20.4866
14902.293745 78.320 18.7109
15010.281908 78.090 16.9866
15119.052599 77.834 15.4069
15228.611486 77.556 14.0909
15338.964283 77.271 13.1644
15450.116741 77.003 12.7339
15562.074656 76.788 12.8662
15674.843864 76.668 13.5799
15788.430244 76.692 14.8312
15902.839718 76.906 16.4626
16018.078250 77.333 18.1198
16134.151848 77.954 19.2350
16251.066563 78.696 19.2037
16368.828491 79.458 17.6958
16487.443769 80.157 14.8168
16606.918584 80.756 10.9568
16727.259161 81.253 6.5185
16848.471777 81.666 1.7713
16970.562748 82.011 -3.1561
17093.538442 82.298 -8.2254
17217.405268 82.528 -13.4325
17342.169684 82.692 -18.7704
17467.838194 82.781 -24.2083
17594.417350 82.783 -29.6836
17721.913751 82.692 -35.1044
17850.334044 82.504 -40.3611
17979.684923 82.224 -45.3361
18109.973131 81.861 -49.9166
18241.205462 81.435 -54.0167
18373.388756 80.971 -57.6085
18506.529905 80.501 -60.7566
18640.635849 80.053 -63.6338
18775.713581 79.632 -66.4745
18911.770141 79.219 -69.4605
19048.812624 78.777 -72.6274
19186.848172 78.273 -75.8688
19325.883983 77.693 -79.0092
19465.927305 77.043 -81.8724
19606.985439 76.358 -84.3150
19749.065738 75.703 -86.2307
19892.175609 75.170 -87.5454
20036.322514 74.868 -88.2127
