* Measurement data measured by REW V5.31.3
* Source: EXCL: Microphone (USB Sound Device        ), MICROPHONE (Master Volume), R, volume: 0.390
* Format: 256k Log Swept Sine, 1 sweep at -10.0 dBFS with no timing reference
* Dated: Jul 9, 2025 11:46:12 PM
* REW Settings:
*  C-weighting compensation: Off
*  Target level: 75.0 dB
* Note: EJ07KL
* Measurement: L  EJ07KL
* Smoothing: 1/12 octave
* Frequency Step: 96 ppo
* Start Frequency: 0.36621094 Hz
*
* Freq(Hz) SPL(dB) Phase(degrees)
0.366211 86.703 -89.0886
0.368865 86.717 -89.1465
0.371538 86.737 -89.2328
0.374230 86.762 -89.3406
0.376942 86.790 -89.4639
0.379673 86.820 -89.5982
0.382424 86.852 -89.7407
0.385196 86.884 -89.8896
0.387987 86.916 -90.0437
0.390798 86.950 -90.2026
0.393630 86.983 -90.3659
0.396483 87.017 -90.5333
0.399356 87.051 -90.7049
0.402250 87.085 -90.8805
0.405165 87.120 -91.0600
0.408101 87.154 -91.2435
0.411058 87.189 -91.4308
0.414037 87.225 -91.6220
0.417037 87.260 -91.8170
0.420059 87.296 -92.0158
0.423103 87.332 -92.2183
0.426169 87.368 -92.4245
0.429257 87.405 -92.6342
0.432368 87.442 -92.8476
0.435501 87.479 -93.0645
0.438656 87.516 -93.2848
0.441835 87.554 -93.5085
0.445037 87.592 -93.7355
0.448262 87.630 -93.9658
0.451510 87.669 -94.1994
0.454782 87.707 -94.4360
0.458077 87.746 -94.6757
0.461397 87.786 -94.9184
0.464740 87.825 -95.1640
0.468108 87.865 -95.4124
0.471500 87.905 -95.6636
0.474917 87.946 -95.9174
0.478358 87.987 -96.1738
0.481825 88.028 -96.4328
0.485316 88.069 -96.6941
0.488833 88.111 -96.9578
0.492375 88.153 -97.2237
0.495943 88.195 -97.4918
0.499537 88.237 -97.7620
0.503157 88.280 -98.0341
0.506803 88.323 -98.3081
0.510475 88.367 -98.5840
0.514175 88.411 -98.8615
0.517900 88.455 -99.1406
0.521653 88.499 -99.4213
0.525434 88.544 -99.7034
0.529241 88.589 -99.9868
0.533076 88.635 -100.2715
0.536939 88.680 -100.5574
0.540830 88.726 -100.8443
0.544749 88.773 -101.1322
0.548696 88.820 -101.4210
0.552673 88.867 -101.7106
0.556677 88.914 -102.0009
0.560711 88.962 -102.2919
0.564774 89.010 -102.5834
0.568867 89.059 -102.8754
0.572989 89.107 -103.1678
0.577141 89.157 -103.4606
0.581324 89.206 -103.7535
0.585536 89.256 -104.0467
0.589779 89.306 -104.3399
0.594053 89.357 -104.6332
0.598358 89.408 -104.9264
0.602694 89.459 -105.2195
0.607061 89.511 -105.5124
0.611460 89.563 -105.8052
0.615891 89.616 -106.0976
0.620354 89.669 -106.3897
0.624849 89.722 -106.6814
0.629377 89.775 -106.9727
0.633938 89.829 -107.2635
0.638532 89.884 -107.5537
0.643159 89.939 -107.8434
0.647819 89.994 -108.1325
0.652514 90.049 -108.4209
0.657242 90.106 -108.7087
0.662005 90.162 -108.9958
0.666802 90.219 -109.2822
0.671634 90.276 -109.5678
0.676501 90.334 -109.8527
0.681403 90.392 -110.1369
0.686341 90.450 -110.4203
0.691314 90.509 -110.7029
0.696324 90.568 -110.9848
0.701370 90.627 -111.2660
0.706452 90.687 -111.5467
0.711571 90.746 -111.8268
0.716728 90.804 -112.1068
0.721921 90.861 -112.3869
0.727153 90.916 -112.6677
0.732422 90.968 -112.9498
0.737729 91.016 -113.2341
0.743075 91.062 -113.5214
0.748460 91.104 -113.8123
0.753883 91.145 -114.1071
0.759346 91.185 -114.4060
0.764849 91.223 -114.7092
0.770391 91.261 -115.0167
0.775974 91.297 -115.3283
0.781597 91.334 -115.6440
0.787261 91.369 -115.9635
0.792966 91.404 -116.2868
0.798712 91.438 -116.6137
0.804500 91.472 -116.9441
0.810329 91.505 -117.2777
0.816201 91.537 -117.6144
0.822116 91.569 -117.9540
0.828073 91.600 -118.2964
0.834074 91.631 -118.6413
0.840118 91.661 -118.9887
0.846206 91.690 -119.3382
0.852338 91.718 -119.6897
0.858514 91.746 -120.0431
0.864735 91.774 -120.3981
0.871001 91.800 -120.7545
0.877313 91.826 -121.1121
0.883670 91.852 -121.4709
0.890074 91.876 -121.8304
0.896524 91.900 -122.1906
0.903020 91.924 -122.5513
0.909564 91.946 -122.9122
0.916155 91.968 -123.2731
0.922794 91.989 -123.6339
0.929481 92.010 -123.9942
0.936216 92.030 -124.3540
0.943000 92.049 -124.7131
0.949834 92.067 -125.0711
0.956717 92.085 -125.4278
0.963649 92.102 -125.7832
0.970632 92.119 -126.1369
0.977666 92.134 -126.4888
0.984750 92.149 -126.8385
0.991886 92.164 -127.1860
0.999074 92.177 -127.5310
1.006314 92.190 -127.8732
1.013606 92.203 -128.2125
1.020951 92.214 -128.5485
1.028349 92.225 -128.8812
1.035801 92.236 -129.2102
1.043307 92.245 -129.5354
1.050867 92.254 -129.8566
1.058482 92.263 -130.1737
1.066152 92.271 -130.4867
1.073878 92.278 -130.7956
1.081660 92.284 -131.1009
1.089498 92.290 -131.4033
1.097393 92.295 -131.7039
1.105345 92.299 -132.0039
1.113355 92.302 -132.3049
1.121423 92.305 -132.6081
1.129549 92.306 -132.9145
1.137734 92.306 -133.2246
1.145979 92.305 -133.5387
1.154283 92.303 -133.8571
1.162647 92.300 -134.1797
1.171072 92.296 -134.5066
1.179558 92.290 -134.8375
1.188106 92.283 -135.1725
1.196715 92.275 -135.5112
1.205387 92.266 -135.8534
1.214122 92.255 -136.1991
1.222920 92.244 -136.5478
1.231782 92.230 -136.8992
1.240708 92.216 -137.2532
1.249699 92.200 -137.6093
1.258754 92.182 -137.9671
1.267876 92.163 -138.3262
1.277063 92.143 -138.6861
1.286318 92.121 -139.0463
1.295639 92.098 -139.4062
1.305027 92.073 -139.7653
1.314484 92.047 -140.1228
1.324009 92.019 -140.4781
1.333604 91.989 -140.8303
1.343268 91.958 -141.1786
1.353002 91.925 -141.5222
1.362806 91.891 -141.8599
1.372681 91.854 -142.1909
1.382628 91.816 -142.5139
1.392647 91.776 -142.8279
1.402739 91.735 -143.1316
1.412904 91.691 -143.4238
1.423142 91.646 -143.7035
1.433455 91.598 -143.9697
1.443843 91.548 -144.2218
1.454305 91.496 -144.4597
1.464844 91.441 -144.6839
1.475459 91.383 -144.8952
1.486150 91.322 -145.0949
1.496920 91.257 -145.2840
1.507767 91.189 -145.4631
1.518693 91.116 -145.6326
1.529698 91.040 -145.7925
1.540783 90.961 -145.9426
1.551948 90.878 -146.0825
1.563194 90.792 -146.2117
1.574521 90.703 -146.3295
1.585931 90.610 -146.4352
1.597423 90.516 -146.5282
1.608999 90.418 -146.6074
1.620658 90.319 -146.6720
1.632402 90.217 -146.7209
1.644232 90.114 -146.7531
1.656146 90.009 -146.7672
1.668147 89.903 -146.7622
1.680235 89.796 -146.7364
1.692411 89.689 -146.6886
1.704675 89.581 -146.6170
1.717028 89.474 -146.5200
1.729470 89.367 -146.3957
1.742003 89.261 -146.2423
1.754626 89.155 -146.0577
1.767341 89.051 -145.8397
1.780147 88.949 -145.5859
1.793047 88.848 -145.2937
1.806040 88.749 -144.9604
1.819128 88.651 -144.5826
1.832310 88.554 -144.1569
1.845587 88.456 -143.6794
1.858961 88.356 -143.1463
1.872432 88.254 -142.5541
1.886001 88.150 -141.8998
1.899667 88.043 -141.1806
1.913433 87.935 -140.3942
1.927299 87.825 -139.5387
1.941265 87.714 -138.6124
1.955332 87.602 -137.6143
1.969501 87.492 -136.5438
1.983773 87.383 -135.4008
1.998148 87.276 -134.1859
2.012627 87.173 -132.9008
2.027212 87.075 -131.5480
2.041902 86.982 -130.1311
2.056698 86.896 -128.6550
2.071602 86.818 -127.1257
2.086614 86.749 -125.5505
2.101734 86.691 -123.9379
2.116964 86.645 -122.2972
2.132304 86.612 -120.6380
2.147756 86.595 -118.9699
2.163320 86.593 -117.3013
2.178996 86.609 -115.6390
2.194786 86.643 -113.9871
2.210690 86.697 -112.3479
2.226710 86.771 -110.7231
2.242845 86.865 -109.1157
2.259098 86.978 -107.5307
2.275468 87.109 -105.9749
2.291957 87.257 -104.4559
2.308566 87.421 -102.9819
2.325295 87.598 -101.5603
2.342145 87.789 -100.1982
2.359117 87.990 -98.9013
2.376212 88.200 -97.6746
2.393431 88.417 -96.5219
2.410775 88.639 -95.4460
2.428244 88.865 -94.4489
2.445840 89.092 -93.5316
2.463564 89.318 -92.6947
2.481416 89.543 -91.9378
2.499397 89.763 -91.2602
2.517509 89.979 -90.6602
2.535752 90.190 -90.1357
2.554127 90.395 -89.6835
2.572635 90.597 -89.3000
2.591277 90.796 -88.9807
2.610055 90.994 -88.7212
2.628968 91.191 -88.5172
2.648019 91.389 -88.3647
2.667208 91.587 -88.2597
2.686535 91.785 -88.1988
2.706003 91.983 -88.1785
2.725612 92.180 -88.1958
2.745363 92.376 -88.2476
2.765257 92.570 -88.3313
2.785295 92.761 -88.4445
2.805478 92.950 -88.5850
2.825808 93.135 -88.7509
2.846285 93.316 -88.9409
2.866910 93.493 -89.1543
2.887685 93.664 -89.3906
2.908611 93.830 -89.6505
2.929688 93.990 -89.9351
2.950917 94.144 -90.2458
2.972301 94.293 -90.5834
2.993839 94.437 -90.9479
3.015534 94.576 -91.3381
3.037386 94.709 -91.7517
3.059396 94.838 -92.1862
3.081565 94.962 -92.6384
3.103896 95.082 -93.1052
3.126388 95.198 -93.5834
3.149043 95.310 -94.0702
3.171862 95.418 -94.5627
3.194847 95.522 -95.0586
3.217998 95.623 -95.5562
3.241317 95.721 -96.0548
3.264805 95.815 -96.5546
3.288463 95.906 -97.0571
3.312293 95.992 -97.5648
3.336295 96.075 -98.0806
3.360471 96.153 -98.6062
3.384822 96.227 -99.1422
3.409350 96.296 -99.6879
3.434056 96.361 -100.2414
3.458940 96.422 -100.8001
3.484005 96.479 -101.3612
3.509252 96.533 -101.9213
3.534681 96.583 -102.4773
3.560295 96.630 -103.0261
3.586094 96.674 -103.5652
3.612081 96.716 -104.0929
3.638255 96.755 -104.6085
3.664620 96.790 -105.1127
3.691175 96.823 -105.6073
3.717923 96.852 -106.0942
3.744864 96.877 -106.5750
3.772001 96.899 -107.0504
3.799335 96.918 -107.5203
3.826866 96.934 -107.9837
3.854597 96.947 -108.4392
3.882529 96.957 -108.8851
3.910664 96.966 -109.3193
3.939002 96.974 -109.7397
3.967546 96.980 -110.1443
3.996296 96.985 -110.5316
4.025255 96.989 -110.9004
4.054423 96.991 -111.2505
4.083804 96.992 -111.5823
4.113396 96.992 -111.8964
4.143204 96.990 -112.1939
4.173227 96.987 -112.4759
4.203468 96.983 -112.7435
4.233928 96.979 -112.9976
4.264609 96.975 -113.2390
4.295512 96.971 -113.4681
4.326639 96.969 -113.6852
4.357992 96.968 -113.8899
4.389572 96.968 -114.0816
4.421380 96.970 -114.2592
4.453419 96.973 -114.4224
4.485691 96.977 -114.5715
4.518196 96.983 -114.7078
4.550936 96.990 -114.8338
4.583914 96.999 -114.9523
4.617131 97.010 -115.0668
4.650589 97.022 -115.1805
4.684289 97.036 -115.2960
4.718233 97.053 -115.4156
4.752424 97.072 -115.5403
4.786862 97.093 -115.6700
4.821549 97.117 -115.8045
4.856488 97.143 -115.9437
4.891680 97.172 -116.0886
4.927127 97.202 -116.2406
4.962831 97.234 -116.4021
4.998794 97.267 -116.5755
5.035017 97.301 -116.7635
5.071503 97.336 -116.9683
5.108253 97.371 -117.1915
5.145270 97.407 -117.4342
5.182555 97.443 -117.6962
5.220110 97.479 -117.9772
5.257937 97.516 -118.2763
5.296038 97.553 -118.5927
5.334415 97.589 -118.9256
5.373071 97.625 -119.2745
5.412006 97.659 -119.6393
5.451224 97.691 -120.0202
5.490725 97.721 -120.4175
5.530514 97.749 -120.8317
5.570590 97.776 -121.2627
5.610957 97.800 -121.7095
5.651616 97.822 -122.1701
5.692570 97.841 -122.6419
5.733821 97.859 -123.1223
5.775370 97.873 -123.6087
5.817221 97.885 -124.0993
5.859375 97.894 -124.5933
5.901834 97.899 -125.0904
5.944602 97.902 -125.5904
5.987679 97.902 -126.0925
6.031068 97.899 -126.5949
6.074771 97.893 -127.0953
6.118792 97.885 -127.5906
6.163131 97.875 -128.0784
6.207792 97.863 -128.5564
6.252776 97.849 -129.0235
6.298086 97.833 -129.4793
6.343725 97.815 -129.9236
6.389694 97.796 -130.3563
6.435996 97.775 -130.7768
6.482634 97.754 -131.1843
6.529610 97.733 -131.5778
6.576926 97.712 -131.9563
6.624585 97.692 -132.3191
6.672590 97.672 -132.6662
6.720942 97.652 -132.9986
6.769645 97.634 -133.3175
6.818700 97.617 -133.6250
6.868111 97.602 -133.9228
6.917881 97.589 -134.2126
6.968010 97.578 -134.4954
7.018504 97.570 -134.7720
7.069362 97.564 -135.0435
7.120590 97.561 -135.3118
7.172189 97.560 -135.5794
7.224161 97.562 -135.8492
7.276511 97.566 -136.1238
7.329239 97.572 -136.4052
7.382350 97.580 -136.6947
7.435845 97.590 -136.9929
7.489729 97.602 -137.3005
7.544002 97.616 -137.6185
7.598669 97.630 -137.9479
7.653732 97.645 -138.2896
7.709194 97.660 -138.6443
7.765058 97.676 -139.0120
7.821327 97.691 -139.3920
7.878004 97.706 -139.7832
7.935091 97.721 -140.1840
7.992592 97.734 -140.5929
8.050510 97.746 -141.0088
8.108847 97.757 -141.4306
8.167607 97.766 -141.8569
8.226793 97.774 -142.2860
8.286408 97.780 -142.7155
8.346454 97.784 -143.1430
8.406936 97.787 -143.5663
8.467856 97.789 -143.9838
8.529218 97.789 -144.3941
8.591024 97.788 -144.7961
8.653278 97.785 -145.1884
8.715983 97.782 -145.5696
8.779143 97.779 -145.9386
8.842760 97.775 -146.2944
8.906839 97.772 -146.6369
8.971381 97.768 -146.9664
9.036392 97.765 -147.2834
9.101873 97.763 -147.5884
9.167829 97.762 -147.8821
9.234263 97.762 -148.1653
9.301178 97.763 -148.4391
9.368578 97.765 -148.7048
9.436467 97.769 -148.9643
9.504847 97.774 -149.2193
9.573723 97.780 -149.4710
9.643099 97.788 -149.7205
9.712976 97.797 -149.9690
9.783361 97.806 -150.2176
9.854255 97.816 -150.4673
9.925663 97.827 -150.7187
9.997588 97.838 -150.9723
10.070035 97.849 -151.2280
10.143007 97.859 -151.4856
10.216507 97.870 -151.7447
10.290540 97.879 -152.0048
10.365109 97.888 -152.2654
10.440219 97.896 -152.5256
10.515873 97.903 -152.7844
10.592076 97.910 -153.0410
10.668830 97.915 -153.2943
10.746141 97.919 -153.5437
10.824012 97.922 -153.7886
10.902447 97.925 -154.0285
10.981451 97.927 -154.2629
11.061027 97.928 -154.4916
11.141180 97.929 -154.7147
11.221913 97.930 -154.9324
11.303232 97.930 -155.1453
11.385140 97.930 -155.3536
11.467641 97.930 -155.5580
11.550741 97.930 -155.7592
11.634442 97.929 -155.9578
11.718750 97.928 -156.1546
11.803669 97.927 -156.3502
11.889203 97.926 -156.5450
11.975357 97.925 -156.7393
12.062136 97.923 -156.9337
12.149543 97.920 -157.1281
12.237583 97.917 -157.3226
12.326262 97.913 -157.5173
12.415583 97.909 -157.7120
12.505552 97.904 -157.9066
12.596172 97.899 -158.1010
12.687449 97.893 -158.2953
12.779387 97.887 -158.4894
12.871992 97.881 -158.6835
12.965268 97.874 -158.8779
13.059220 97.867 -159.0729
13.153852 97.859 -159.2691
13.249170 97.852 -159.4671
13.345179 97.845 -159.6675
13.441884 97.837 -159.8708
13.539289 97.830 -160.0777
13.637401 97.822 -160.2886
13.736223 97.814 -160.5038
13.835761 97.806 -160.7233
13.936021 97.798 -160.9472
14.037007 97.789 -161.1752
14.138725 97.780 -161.4067
14.241180 97.770 -161.6411
14.344377 97.760 -161.8778
14.448323 97.749 -162.1159
14.553021 97.738 -162.3548
14.658478 97.727 -162.5938
14.764700 97.716 -162.8324
14.871691 97.705 -163.0704
14.979457 97.694 -163.3078
15.088005 97.684 -163.5447
15.197339 97.675 -163.7815
15.307465 97.666 -164.0189
15.418389 97.659 -164.2575
15.530117 97.652 -164.4979
15.642655 97.646 -164.7409
15.756008 97.640 -164.9868
15.870182 97.635 -165.2359
15.985184 97.631 -165.4881
16.101019 97.627 -165.7430
16.217694 97.624 -166.0000
16.335214 97.620 -166.2582
16.453586 97.617 -166.5165
16.572815 97.613 -166.7737
16.692909 97.610 -167.0287
16.813872 97.607 -167.2805
16.935713 97.604 -167.5282
17.058436 97.601 -167.7712
17.182048 97.599 -168.0092
17.306556 97.597 -168.2423
17.431967 97.596 -168.4708
17.558286 97.596 -168.6951
17.685521 97.597 -168.9158
17.813677 97.598 -169.1336
17.942762 97.599 -169.3490
18.072783 97.601 -169.5622
18.203746 97.603 -169.7736
18.335658 97.605 -169.9829
18.468526 97.607 -170.1900
18.602356 97.608 -170.3943
18.737156 97.610 -170.5955
18.872934 97.610 -170.7928
19.009695 97.611 -170.9859
19.147447 97.610 -171.1745
19.286197 97.610 -171.3583
19.425953 97.609 -171.5374
19.566721 97.607 -171.7120
19.708510 97.605 -171.8825
19.851326 97.603 -172.0493
19.995177 97.600 -172.2128
20.140070 97.597 -172.3737
20.286013 97.593 -172.5324
20.433014 97.589 -172.6894
20.581080 97.584 -172.8450
20.730219 97.579 -172.9998
20.880439 97.574 -173.1542
21.031747 97.568 -173.3088
21.184152 97.561 -173.4641
21.337661 97.554 -173.6207
21.492282 97.547 -173.7792
21.648024 97.539 -173.9401
21.804895 97.531 -174.1038
21.962902 97.523 -174.2704
22.122054 97.513 -174.4402
22.282360 97.504 -174.6128
22.443827 97.494 -174.7883
22.606464 97.483 -174.9662
22.770280 97.473 -175.1465
22.935283 97.462 -175.3291
23.101481 97.451 -175.5139
23.268884 97.441 -175.7012
23.437500 97.430 -175.8912
23.607338 97.420 -176.0840
23.778406 97.410 -176.2799
23.950714 97.401 -176.4787
24.124271 97.391 -176.6802
24.299086 97.382 -176.8836
24.475167 97.373 -177.0883
24.652524 97.364 -177.2935
24.831166 97.356 -177.4982
25.011103 97.347 -177.7018
25.192344 97.340 -177.9037
25.374898 97.333 -178.1037
25.558775 97.326 -178.3016
25.743984 97.320 -178.4976
25.930536 97.315 -178.6917
26.118439 97.309 -178.8838
26.307704 97.305 -179.0738
26.498341 97.300 -179.2613
26.690359 97.296 -179.4459
26.883768 97.291 -179.6270
27.078579 97.287 -179.8043
27.274801 97.282 -179.9774
27.472446 97.277 179.8536
27.671522 97.273 179.6888
27.872042 97.268 179.5278
28.074014 97.262 179.3704
28.277450 97.257 179.2160
28.482360 97.251 179.0644
28.688755 97.245 178.9152
28.896645 97.238 178.7680
29.106042 97.231 178.6224
29.316957 97.223 178.4778
29.529400 97.215 178.3337
29.743382 97.207 178.1896
29.958915 97.197 178.0449
30.176009 97.188 177.8991
30.394677 97.178 177.7520
30.614929 97.167 177.6032
30.836778 97.156 177.4527
31.060234 97.145 177.3002
31.285309 97.133 177.1457
31.512015 97.122 176.9888
31.740364 97.110 176.8296
31.970368 97.098 176.6679
32.202039 97.086 176.5038
32.435388 97.074 176.3375
32.670428 97.062 176.1693
32.907171 97.050 175.9996
33.145630 97.038 175.8286
33.385817 97.027 175.6566
33.627745 97.016 175.4838
33.871425 97.005 175.3103
34.116871 96.994 175.1366
34.364096 96.983 174.9633
34.613113 96.973 174.7911
34.863934 96.962 174.6212
35.116572 96.951 174.4542
35.371041 96.940 174.2909
35.627354 96.930 174.1317
35.885525 96.919 173.9764
36.145566 96.908 173.8246
36.407492 96.898 173.6758
36.671316 96.888 173.5291
36.937051 96.877 173.3841
37.204712 96.866 173.2402
37.474313 96.855 173.0974
37.745867 96.844 172.9557
38.019389 96.832 172.8152
38.294893 96.820 172.6761
38.572394 96.807 172.5385
38.851905 96.794 172.4023
39.133442 96.780 172.2670
39.417019 96.767 172.1321
39.702651 96.753 171.9970
39.990353 96.739 171.8612
40.280140 96.725 171.7244
40.572026 96.711 171.5868
40.866028 96.697 171.4485
41.162160 96.683 171.3098
41.460438 96.669 171.1710
41.760877 96.654 171.0323
42.063494 96.640 170.8938
42.368303 96.626 170.7558
42.675322 96.611 170.6185
42.984565 96.597 170.4823
43.296048 96.582 170.3474
43.609789 96.568 170.2139
43.925804 96.553 170.0817
44.244108 96.539 169.9508
44.564719 96.524 169.8212
44.887654 96.509 169.6928
45.212928 96.494 169.5660
45.540560 96.479 169.4407
45.870565 96.464 169.3170
46.202962 96.448 169.1950
46.537768 96.432 169.0743
46.875000 96.416 168.9550
47.214676 96.400 168.8366
47.556813 96.384 168.7193
47.901429 96.368 168.6030
48.248542 96.352 168.4876
48.598171 96.335 168.3734
48.950334 96.319 168.2604
49.305048 96.302 168.1487
49.662333 96.286 168.0381
50.022206 96.270 167.9290
50.384688 96.253 167.8215
50.749796 96.236 167.7159
51.117550 96.220 167.6125
51.487969 96.203 167.5113
51.861072 96.186 167.4123
52.236879 96.169 167.3154
52.615409 96.152 167.2206
52.996681 96.134 167.1277
53.380717 96.117 167.0372
53.767536 96.099 166.9492
54.157158 96.082 166.8636
54.549603 96.065 166.7802
54.944892 96.048 166.6978
55.343045 96.032 166.6151
55.744084 96.016 166.5306
56.148028 96.001 166.4432
56.554900 95.986 166.3522
56.964720 95.971 166.2578
57.377510 95.956 166.1606
57.793291 95.940 166.0617
58.212085 95.924 165.9624
58.633914 95.908 165.8640
59.058799 95.891 165.7675
59.486764 95.874 165.6736
59.917829 95.857 165.5822
60.352019 95.839 165.4928
60.789354 95.822 165.4048
61.229859 95.804 165.3177
61.673556 95.785 165.2313
62.120468 95.767 165.1457
62.570618 95.748 165.0612
63.024031 95.728 164.9784
63.480729 95.708 164.8973
63.940736 95.689 164.8182
64.404077 95.669 164.7413
64.870776 95.649 164.6663
65.340856 95.629 164.5933
65.814343 95.609 164.5219
66.291261 95.590 164.4517
66.771635 95.570 164.3824
67.255489 95.551 164.3140
67.742850 95.532 164.2466
68.233743 95.513 164.1807
68.728193 95.493 164.1166
69.226226 95.473 164.0546
69.727867 95.453 163.9950
70.233144 95.433 163.9380
70.742083 95.413 163.8836
71.254709 95.392 163.8317
71.771050 95.372 163.7824
72.291132 95.351 163.7361
72.814984 95.330 163.6936
73.342631 95.310 163.6552
73.874102 95.290 163.6199
74.409424 95.270 163.5856
74.948626 95.251 163.5506
75.491734 95.232 163.5144
76.038779 95.213 163.4777
76.589787 95.194 163.4415
77.144788 95.175 163.4069
77.703811 95.156 163.3741
78.266885 95.137 163.3431
78.834039 95.118 163.3131
79.405303 95.100 163.2828
79.980706 95.082 163.2509
80.560280 95.065 163.2166
81.144053 95.048 163.1791
81.732056 95.031 163.1384
82.324320 95.013 163.0941
82.920876 94.996 163.0464
83.521755 94.978 162.9965
84.126988 94.959 162.9457
84.736607 94.940 162.8956
85.350643 94.919 162.8475
85.969129 94.898 162.8024
86.592097 94.876 162.7609
87.219579 94.854 162.7233
87.851608 94.831 162.6895
88.488217 94.808 162.6593
89.129439 94.785 162.6327
89.775308 94.762 162.6094
90.425856 94.738 162.5897
91.081119 94.714 162.5742
91.741131 94.691 162.5645
92.405925 94.668 162.5603
93.075536 94.645 162.5596
93.750000 94.623 162.5594
94.429351 94.601 162.5576
95.113625 94.580 162.5539
95.802858 94.558 162.5492
96.497085 94.537 162.5450
97.196342 94.514 162.5427
97.900667 94.492 162.5439
98.610096 94.469 162.5499
99.324665 94.446 162.5615
100.044413 94.423 162.5790
100.769376 94.400 162.6024
101.499592 94.378 162.6307
102.235100 94.356 162.6630
102.975938 94.335 162.6976
103.722144 94.315 162.7329
104.473757 94.295 162.7667
105.230817 94.276 162.7969
105.993363 94.257 162.8218
106.761435 94.238 162.8407
107.535072 94.220 162.8537
108.314315 94.201 162.8612
109.099206 94.182 162.8641
109.889783 94.163 162.8630
110.686090 94.142 162.8594
111.488167 94.121 162.8550
112.296056 94.099 162.8517
113.109800 94.074 162.8523
113.929440 94.048 162.8602
114.755020 94.020 162.8802
115.586582 93.989 162.9170
116.424170 93.957 162.9741
117.267827 93.925 163.0523
118.117598 93.893 163.1486
118.973527 93.864 163.2560
119.835658 93.837 163.3655
120.704037 93.812 163.4695
121.578708 93.789 163.5657
122.459718 93.766 163.6563
123.347111 93.745 163.7450
124.240935 93.724 163.8354
125.141236 93.704 163.9302
126.048061 93.684 164.0317
126.961458 93.664 164.1411
127.881473 93.644 164.2590
128.808154 93.625 164.3849
129.741551 93.606 164.5182
130.681712 93.588 164.6578
131.628686 93.570 164.8028
132.582521 93.554 164.9524
133.543269 93.540 165.1056
134.510979 93.527 165.2612
135.485701 93.517 165.4174
136.467486 93.508 165.5715
137.456386 93.502 165.7202
138.452451 93.499 165.8589
139.455735 93.497 165.9833
140.466288 93.496 166.0891
141.484165 93.497 166.1731
142.509418 93.497 166.2344
143.542100 93.496 166.2744
144.582265 93.494 166.2961
145.629968 93.489 166.3046
146.685262 93.482 166.3055
147.748204 93.473 166.3038
148.818849 93.462 166.3034
149.897251 93.448 166.3080
150.983469 93.432 166.3215
152.077557 93.414 166.3474
153.179574 93.394 166.3878
154.289576 93.375 166.4424
155.407622 93.356 166.5085
156.533770 93.337 166.5815
157.668078 93.320 166.6557
158.810606 93.305 166.7268
159.961413 93.290 166.7923
161.120559 93.274 166.8517
162.288105 93.259 166.9060
163.464112 93.243 166.9571
164.648640 93.225 167.0077
165.841752 93.206 167.0610
167.043510 93.187 167.1206
168.253976 93.166 167.1895
169.473213 93.144 167.2698
170.701286 93.123 167.3615
171.938258 93.103 167.4630
173.184194 93.083 167.5712
174.439158 93.065 167.6829
175.703216 93.048 167.7954
176.976434 93.032 167.9070
178.258878 93.016 168.0172
179.550615 93.000 168.1258
180.851713 92.985 168.2331
182.162239 92.969 168.3389
183.482262 92.954 168.4433
184.811850 92.938 168.5462
186.151073 92.922 168.6479
187.500000 92.905 168.7492
188.858702 92.889 168.8515
190.227250 92.871 168.9561
191.605715 92.853 169.0642
192.994169 92.834 169.1766
194.392685 92.815 169.2937
195.801334 92.796 169.4158
197.220191 92.776 169.5435
198.649330 92.756 169.6775
200.088825 92.736 169.8184
201.538751 92.716 169.9658
202.999184 92.698 170.1180
204.470200 92.680 170.2719
205.951875 92.664 170.4242
207.444287 92.648 170.5730
208.947514 92.631 170.7185
210.461634 92.614 170.8635
211.986726 92.595 171.0128
213.522869 92.574 171.1724
215.070144 92.552 171.3483
216.628631 92.529 171.5457
218.198411 92.507 171.7667
219.779567 92.487 172.0092
221.372180 92.469 172.2677
222.976334 92.454 172.5364
224.592112 92.442 172.8112
226.219600 92.433 173.0906
227.858880 92.426 173.3747
229.510039 92.423 173.6631
231.173164 92.422 173.9540
232.848340 92.426 174.2435
234.535655 92.433 174.5258
236.235197 92.445 174.7936
237.947054 92.460 175.0391
239.671317 92.477 175.2556
241.408074 92.495 175.4391
243.157416 92.513 175.5898
244.919435 92.530 175.7108
246.694223 92.544 175.8080
248.481871 92.554 175.8894
250.282473 92.562 175.9636
252.096123 92.567 176.0378
253.922915 92.571 176.1158
255.762945 92.574 176.1963
257.616309 92.578 176.2732
259.483103 92.580 176.3395
261.363424 92.582 176.3927
263.257372 92.581 176.4363
265.165043 92.577 176.4783
267.086538 92.571 176.5273
269.021957 92.562 176.5897
270.971401 92.552 176.6688
272.934972 92.541 176.7647
274.912771 92.531 176.8750
276.904902 92.522 176.9966
278.911469 92.514 177.1269
280.932577 92.508 177.2629
282.968330 92.504 177.4009
285.018835 92.502 177.5347
287.084199 92.501 177.6571
289.164530 92.501 177.7620
291.259935 92.500 177.8478
293.370525 92.497 177.9196
295.496408 92.491 177.9865
297.637697 92.483 178.0579
299.794503 92.472 178.1397
301.966937 92.461 178.2339
304.155114 92.449 178.3386
306.359147 92.437 178.4506
308.579152 92.425 178.5659
310.815244 92.414 178.6819
313.067539 92.402 178.7979
315.336156 92.390 178.9156
317.621211 92.378 179.0394
319.922826 92.365 179.1733
322.241118 92.352 179.3193
324.576210 92.340 179.4759
326.928223 92.329 179.6398
329.297280 92.319 179.8073
331.683504 92.310 179.9749
334.087019 92.301 -179.8599
336.507952 92.293 -179.6986
338.946427 92.286 -179.5416
341.402572 92.278 -179.3877
343.876516 92.270 -179.2345
346.368387 92.261 -179.0795
348.878315 92.252 -178.9210
351.406431 92.243 -178.7583
353.952867 92.234 -178.5919
356.517756 92.226 -178.4229
359.101230 92.217 -178.2521
361.703426 92.209 -178.0800
364.324478 92.201 -177.9069
366.964523 92.193 -177.7324
369.623699 92.185 -177.5564
372.302145 92.178 -177.3786
375.000000 92.170 -177.1989
377.717405 92.163 -177.0176
380.454501 92.156 -176.8348
383.211431 92.149 -176.6508
385.988339 92.143 -176.4655
388.785369 92.136 -176.2787
391.602668 92.129 -176.0902
394.440383 92.123 -175.9002
397.298660 92.117 -175.7090
400.177650 92.112 -175.5175
403.077502 92.107 -175.3267
405.998368 92.102 -175.1376
408.940400 92.097 -174.9502
411.903750 92.092 -174.7632
414.888575 92.085 -174.5737
417.895028 92.078 -174.3786
420.923268 92.072 -174.1756
423.973452 92.065 -173.9637
427.045738 92.060 -173.7441
430.140287 92.057 -173.5205
433.257261 92.055 -173.2978
436.396822 92.054 -173.0793
439.559133 92.054 -172.8656
442.744360 92.056 -172.6566
445.952668 92.058 -172.4539
449.184225 92.061 -172.2620
452.439199 92.065 -172.0865
455.717760 92.068 -171.9306
459.020079 92.068 -171.7906
462.346327 92.065 -171.6562
465.696680 92.060 -171.5161
469.071310 92.052 -171.3631
472.470394 92.043 -171.1958
475.894109 92.034 -171.0166
479.342634 92.026 -170.8307
482.816148 92.018 -170.6430
486.314833 92.010 -170.4552
489.838871 92.000 -170.2630
493.388445 91.990 -170.0586
496.963741 91.981 -169.8383
500.564945 91.973 -169.6055
504.192245 91.966 -169.3680
507.845830 91.960 -169.1333
511.525890 91.955 -168.9048
515.232618 91.950 -168.6815
518.966206 91.944 -168.4600
522.726849 91.938 -168.2352
526.514743 91.930 -168.0020
530.330086 91.923 -167.7582
534.173076 91.917 -167.5064
538.043915 91.911 -167.2514
541.942803 91.906 -166.9959
545.869944 91.902 -166.7391
549.825542 91.898 -166.4799
553.809805 91.895 -166.2201
557.822939 91.893 -165.9626
561.865154 91.891 -165.7100
565.936660 91.889 -165.4619
570.037671 91.886 -165.2154
574.168399 91.882 -164.9670
578.329060 91.878 -164.7143
582.519870 91.874 -164.4572
586.741049 91.870 -164.1955
590.992817 91.865 -163.9274
595.275394 91.861 -163.6504
599.589005 91.857 -163.3654
603.933874 91.854 -163.0762
608.310228 91.851 -162.7869
612.718295 91.849 -162.4986
617.158304 91.846 -162.2086
621.630488 91.842 -161.9114
626.135079 91.838 -161.6009
630.672311 91.835 -161.2753
635.242423 91.834 -160.9391
639.845651 91.834 -160.5986
644.482237 91.836 -160.2559
649.152421 91.840 -159.9104
653.856447 91.846 -159.5634
658.594560 91.854 -159.2214
663.367008 91.864 -158.8938
668.174039 91.875 -158.5869
673.015903 91.884 -158.2979
677.892854 91.890 -158.0161
682.805145 91.894 -157.7292
687.753032 91.895 -157.4274
692.736774 91.897 -157.1049
697.756631 91.899 -156.7614
702.812863 91.905 -156.4036
707.905735 91.913 -156.0436
713.035511 91.924 -155.6919
718.202461 91.936 -155.3533
723.406852 91.948 -155.0259
728.648956 91.960 -154.7043
733.929047 91.972 -154.3830
739.247399 91.983 -154.0579
744.604290 91.993 -153.7262
750.000000 92.003 -153.3864
755.434809 92.014 -153.0374
760.909001 92.025 -152.6795
766.422861 92.036 -152.3134
771.976677 92.048 -151.9406
777.570739 92.061 -151.5629
783.205337 92.074 -151.1815
788.880766 92.089 -150.7957
794.597321 92.104 -150.4027
800.355301 92.121 -149.9998
806.155005 92.141 -149.5881
811.996736 92.164 -149.1736
817.880799 92.190 -148.7651
823.807501 92.220 -148.3720
829.777150 92.252 -148.0023
835.790057 92.283 -147.6580
841.846536 92.313 -147.3322
847.946903 92.341 -147.0144
854.091476 92.367 -146.6965
860.280575 92.391 -146.3748
866.514523 92.415 -146.0462
872.793644 92.439 -145.7077
879.118267 92.463 -145.3591
885.488720 92.489 -145.0047
891.905336 92.516 -144.6482
898.368450 92.543 -144.2899
904.878398 92.572 -143.9276
911.435520 92.601 -143.5602
918.040157 92.633 -143.1894
924.692655 92.666 -142.8181
931.393359 92.700 -142.4502
938.142619 92.736 -142.0894
944.940787 92.773 -141.7377
951.788218 92.811 -141.3938
958.685268 92.849 -141.0551
965.632296 92.886 -140.7192
972.629666 92.924 -140.3837
979.677741 92.963 -140.0480
986.776890 93.002 -139.7126
993.927482 93.042 -139.3764
1001.129891 93.082 -139.0353
1008.384491 93.124 -138.6856
1015.691660 93.168 -138.3285
1023.051781 93.215 -137.9689
1030.465236 93.266 -137.6147
1037.932411 93.321 -137.2773
1045.453698 93.379 -136.9686
1053.029486 93.438 -136.6942
1060.660172 93.496 -136.4510
1068.346153 93.552 -136.2308
1076.087829 93.605 -136.0246
1083.885605 93.658 -135.8259
1091.739887 93.708 -135.6326
1099.651084 93.759 -135.4442
1107.619609 93.808 -135.2601
1115.645878 93.856 -135.0790
1123.730308 93.904 -134.8998
1131.873321 93.951 -134.7215
1140.075341 93.997 -134.5431
1148.336797 94.044 -134.3643
1156.658119 94.090 -134.1844
1165.039741 94.137 -134.0022
1173.482099 94.185 -133.8164
1181.985634 94.233 -133.6278
1190.550789 94.285 -133.4424
1199.178011 94.338 -133.2712
1207.867749 94.394 -133.1254
1216.620457 94.449 -133.0108
1225.436590 94.502 -132.9237
1234.316609 94.552 -132.8561
1243.260976 94.598 -132.7992
1252.270157 94.642 -132.7454
1261.344623 94.683 -132.6902
1270.484846 94.723 -132.6318
1279.691303 94.761 -132.5681
1288.964474 94.798 -132.4972
1298.304842 94.834 -132.4194
1307.712894 94.870 -132.3374
1317.189120 94.906 -132.2552
1326.734016 94.941 -132.1751
1336.348077 94.976 -132.0966
1346.031806 95.008 -132.0168
1355.785708 95.040 -131.9315
1365.610290 95.070 -131.8368
1375.506065 95.100 -131.7281
1385.473549 95.129 -131.6005
1395.513261 95.160 -131.4531
1405.625726 95.194 -131.2913
1415.811469 95.232 -131.1271
1426.071023 95.272 -130.9750
1436.404921 95.314 -130.8439
1446.813703 95.357 -130.7345
1457.297912 95.398 -130.6414
1467.858093 95.438 -130.5583
1478.494798 95.476 -130.4806
1489.208581 95.513 -130.4048
1500.000000 95.549 -130.3274
1510.869618 95.585 -130.2453
1521.818002 95.619 -130.1556
1532.845723 95.654 -130.0562
1543.953355 95.689 -129.9456
1555.141477 95.726 -129.8237
1566.410674 95.766 -129.6945
1577.761531 95.809 -129.5688
1589.194642 95.855 -129.4600
1600.710601 95.902 -129.3773
1612.310010 95.949 -129.3215
1623.993473 95.995 -129.2877
1635.761599 96.039 -129.2688
1647.615002 96.081 -129.2585
1659.554299 96.121 -129.2518
1671.580114 96.160 -129.2446
1683.693072 96.199 -129.2359
1695.893807 96.237 -129.2273
1708.182952 96.274 -129.2209
1720.561150 96.311 -129.2168
1733.029045 96.346 -129.2119
1745.587288 96.379 -129.2013
1758.236533 96.412 -129.1786
1770.977440 96.446 -129.1388
1783.810673 96.481 -129.0827
1796.736900 96.520 -129.0196
1809.756796 96.563 -128.9640
1822.871040 96.608 -128.9273
1836.080315 96.654 -128.9137
1849.385310 96.700 -128.9226
1862.786718 96.745 -128.9508
1876.285239 96.790 -128.9935
1889.881575 96.833 -129.0452
1903.576436 96.875 -129.0998
1917.370535 96.916 -129.1524
1931.264593 96.959 -129.2000
1945.259332 97.003 -129.2442
1959.355483 97.049 -129.2939
1973.553781 97.099 -129.3626
1987.854965 97.150 -129.4611
2002.259781 97.202 -129.5936
2016.768981 97.252 -129.7586
2031.383320 97.300 -129.9519
2046.103561 97.346 -130.1683
2060.930471 97.390 -130.4032
2075.864823 97.432 -130.6543
2090.907395 97.472 -130.9205
2106.058972 97.509 -131.2001
2121.320344 97.543 -131.4883
2136.692305 97.574 -131.7778
2152.175658 97.604 -132.0610
2167.771210 97.632 -132.3359
2183.479774 97.662 -132.6084
2199.302169 97.693 -132.8899
2215.239219 97.724 -133.1896
2231.291755 97.754 -133.5126
2247.460615 97.783 -133.8594
2263.746641 97.809 -134.2265
2280.150683 97.833 -134.6070
2296.673595 97.853 -134.9928
2313.316238 97.872 -135.3768
2330.079481 97.890 -135.7570
2346.964198 97.909 -136.1398
2363.971268 97.929 -136.5359
2381.101578 97.948 -136.9544
2398.356022 97.966 -137.3995
2415.735498 97.981 -137.8708
2433.240913 97.993 -138.3646
2450.873180 98.002 -138.8765
2468.633217 98.006 -139.4025
2486.521951 98.007 -139.9380
2504.540314 98.003 -140.4761
2522.689246 97.995 -141.0069
2540.969692 97.983 -141.5207
2559.382606 97.970 -142.0135
2577.928947 97.956 -142.4898
2596.609683 97.944 -142.9583
2615.425787 97.931 -143.4273
2634.378241 97.918 -143.9030
2653.468031 97.904 -144.3874
2672.696154 97.888 -144.8778
2692.063613 97.870 -145.3690
2711.571415 97.851 -145.8572
2731.220579 97.832 -146.3445
2751.012130 97.813 -146.8384
2770.947098 97.792 -147.3454
2791.026522 97.770 -147.8689
2811.251451 97.744 -148.4075
2831.622938 97.714 -148.9574
2852.142045 97.680 -149.5137
2872.809842 97.641 -150.0707
2893.627406 97.597 -150.6197
2914.595823 97.548 -151.1492
2935.716186 97.494 -151.6494
2956.989596 97.439 -152.1175
2978.417161 97.383 -152.5577
3000.000000 97.327 -152.9769
3021.739237 97.270 -153.3808
3043.636005 97.211 -153.7710
3065.691446 97.150 -154.1435
3087.906710 97.087 -154.4912
3110.282955 97.024 -154.8102
3132.821347 96.961 -155.1033
3155.523062 96.899 -155.3784
3178.389283 96.838 -155.6430
3201.421202 96.777 -155.9025
3224.620020 96.716 -156.1592
3247.986946 96.652 -156.4128
3271.523198 96.587 -156.6582
3295.230004 96.517 -156.8846
3319.108599 96.446 -157.0787
3343.160228 96.373 -157.2326
3367.386145 96.301 -157.3468
3391.787613 96.230 -157.4277
3416.365904 96.162 -157.4832
3441.122300 96.095 -157.5175
3466.058091 96.030 -157.5297
3491.174576 95.967 -157.5177
3516.473066 95.907 -157.4842
3541.954880 95.852 -157.4374
3567.621345 95.800 -157.3879
3593.473800 95.751 -157.3455
3619.513592 95.704 -157.3174
3645.742080 95.658 -157.3070
3672.160630 95.610 -157.3097
3698.770620 95.558 -157.3124
3725.573436 95.503 -157.2997
3752.570477 95.445 -157.2598
3779.763150 95.385 -157.1854
3807.152872 95.324 -157.0699
3834.741071 95.261 -156.9038
3862.529185 95.200 -156.6747
3890.518664 95.141 -156.3742
3918.710966 95.089 -156.0036
3947.107561 95.047 -155.5749
3975.709929 95.017 -155.1076
4004.519563 95.000 -154.6245
4033.537962 94.994 -154.1472
4062.766641 95.000 -153.6904
4092.207123 95.015 -153.2594
4121.860942 95.039 -152.8563
4151.729646 95.072 -152.4855
4181.814790 95.112 -152.1532
4212.117944 95.159 -151.8634
4242.640687 95.212 -151.6139
4273.384610 95.271 -151.3997
4304.351317 95.337 -151.2204
4335.542421 95.411 -151.0833
4366.959549 95.494 -151.0024
4398.604338 95.585 -150.9962
4430.478438 95.683 -151.0826
4462.583511 95.786 -151.2728
4494.921231 95.891 -151.5713
4527.493283 95.998 -151.9813
4560.301365 96.104 -152.5073
4593.347189 96.207 -153.1533
4626.632476 96.305 -153.9169
4660.158962 96.395 -154.7903
4693.928395 96.477 -155.7648
4727.942535 96.551 -156.8355
4762.203156 96.614 -158.0011
4796.712043 96.667 -159.2637
4831.470996 96.707 -160.6236
4866.481826 96.731 -162.0739
4901.746360 96.738 -163.6019
4937.266434 96.724 -165.1925
4973.043902 96.690 -166.8299
5009.080628 96.632 -168.4937
5045.378492 96.550 -170.1569
5081.939384 96.443 -171.7898
5118.765212 96.314 -173.3645
5155.857894 96.163 -174.8598
5193.219366 95.993 -176.2626
5230.851574 95.806 -177.5644
5268.756481 95.603 -178.7562
5306.936062 95.386 -179.8294
5345.392309 95.156 179.2220
5384.127225 94.915 178.4028
5423.142830 94.663 177.7210
5462.441159 94.403 177.1883
5502.024259 94.136 176.8163
5541.894195 93.867 176.6111
5582.053045 93.598 176.5690
5622.502902 93.334 176.6784
5663.245876 93.076 176.9254
5704.284090 92.828 177.2945
5745.619684 92.589 177.7679
5787.254813 92.361 178.3286
5829.191647 92.143 178.9658
5871.432373 91.935 179.6764
5913.979192 91.736 -179.5380
5956.834323 91.548 -178.6775
6000.000000 91.371 -177.7469
6043.478473 91.207 -176.7537
6087.272010 91.056 -175.7071
6131.382892 90.920 -174.6184
6175.813420 90.798 -173.4999
6220.565910 90.690 -172.3594
6265.642695 90.594 -171.1980
6311.046124 90.511 -170.0122
6356.778566 90.441 -168.8001
6402.842404 90.385 -167.5639
6449.240040 90.345 -166.3092
6495.973891 90.321 -165.0448
6543.046396 90.315 -163.7829
6590.460007 90.325 -162.5357
6638.217197 90.351 -161.3111
6686.320456 90.394 -160.1111
6734.772290 90.452 -158.9364
6783.575226 90.528 -157.7897
6832.731809 90.621 -156.6778
6882.244600 90.734 -155.6114
6932.116181 90.866 -154.6065
6982.349153 91.018 -153.6806
7032.946133 91.188 -152.8488
7083.909760 91.377 -152.1216
7135.242690 91.583 -151.5089
7186.947600 91.807 -151.0229
7239.027185 92.050 -150.6804
7291.484160 92.311 -150.5043
7344.321260 92.589 -150.5246
7397.541239 92.881 -150.7734
7451.146872 93.186 -151.2799
7505.140954 93.497 -152.0689
7559.526299 93.811 -153.1632
7614.305743 94.121 -154.5831
7669.482141 94.421 -156.3463
7725.058371 94.703 -158.4673
7781.037328 94.956 -160.9504
7837.421932 95.170 -163.7821
7894.215122 95.334 -166.9249
7951.419859 95.438 -170.3186
8009.039125 95.475 -173.8836
8067.075924 95.440 -177.5278
8125.533282 95.332 178.8434
8184.414245 95.154 175.3208
8243.721885 94.909 171.9892
8303.459292 94.603 168.9255
8363.629581 94.244 166.1949
8424.235888 93.842 163.8474
8485.281374 93.408 161.9133
8546.769221 92.954 160.3999
8608.702634 92.491 159.2939
8671.084842 92.029 158.5702
8733.919097 91.574 158.1986
8797.208675 91.132 158.1501
8860.956876 90.708 158.3978
8925.167022 90.306 158.9127
8989.842461 89.930 159.6623
9054.986566 89.582 160.6135
9120.602731 89.263 161.7377
9186.694378 88.974 163.0131
9253.264952 88.717 164.4242
9320.317925 88.492 165.9544
9387.856790 88.302 167.5804
9455.885071 88.147 169.2739
9524.406312 88.029 171.0071
9593.424086 87.945 172.7581
9662.941992 87.897 174.5131
9732.963653 87.885 176.2587
9803.492719 87.910 177.9749
9874.532869 87.973 179.6332
9946.087805 88.074 -178.7989
10018.161257 88.212 -177.3521
10090.756983 88.387 -176.0553
10163.878768 88.597 -174.9433
10237.530423 88.842 -174.0612
10311.715789 89.117 -173.4622
10386.438732 89.418 -173.1996
10461.703149 89.735 -173.3179
10537.512962 90.060 -173.8525
10613.872125 90.380 -174.8309
10690.784618 90.683 -176.2693
10768.254450 90.952 -178.1645
10846.285661 91.173 179.5172
10924.882318 91.329 176.8424
11004.048518 91.409 173.9054
11083.788390 91.404 170.8207
11164.106090 91.308 167.7162
11245.005805 91.122 164.7284
11326.491752 90.850 161.9938
11408.568180 90.501 159.6359
11491.239368 90.089 157.7521
11574.509626 89.632 156.4069
11658.383294 89.148 155.6333
11742.864745 88.655 155.4359
11827.958384 88.171 155.7915
11913.668646 87.711 156.6464
12000.000000 87.290 157.9206
12086.956947 86.918 159.5210
12174.544019 86.598 161.3551
12262.765784 86.332 163.3381
12351.626840 86.120 165.3905
12441.131819 85.959 167.4374
12531.285389 85.843 169.4128
12622.092249 85.765 171.2642
12713.557132 85.715 172.9554
12805.684808 85.684 174.4692
12898.480079 85.662 175.8139
12991.947783 85.639 177.0244
13086.092792 85.610 178.1531
13180.920015 85.573 179.2549
13276.434395 85.529 -179.6205
13372.640911 85.481 -178.4299
13469.544580 85.433 -177.1378
13567.150452 85.392 -175.7224
13665.463617 85.366 -174.1787
13764.489200 85.360 -172.5150
13864.232362 85.383 -170.7482
13964.698305 85.442 -168.9073
14065.892266 85.543 -167.0363
14167.819519 85.690 -165.1925
14270.485380 85.887 -163.4411
14373.895200 86.136 -161.8573
14478.054370 86.434 -160.5268
14582.968320 86.776 -159.5381
14688.642520 87.154 -158.9709
14795.082478 87.554 -158.8906
14902.293745 87.961 -159.3429
15010.281908 88.358 -160.3444
15119.052599 88.727 -161.8760
15228.611486 89.054 -163.8865
15338.964283 89.328 -166.3007
15450.116741 89.542 -169.0304
15562.074656 89.696 -171.9894
15674.843864 89.790 -175.1097
15788.430244 89.827 -178.3490
15902.839718 89.809 178.3167
16018.078250 89.731 174.9126
16134.151848 89.585 171.4848
16251.066563 89.364 168.1143
16368.828491 89.066 164.9176
16487.443769 88.692 162.0289
16606.918584 88.255 159.5701
16727.259161 87.775 157.6253
16848.471777 87.278 156.2221
16970.562748 86.792 155.3192
17093.538442 86.345 154.8046
17217.405268 85.958 154.5074
17342.169684 85.645 154.2168
17467.838194 85.406 153.7057
17594.417350 85.230 152.7628
17721.913751 85.091 151.2226
17850.334044 84.956 148.9871
17979.684923 84.783 146.0424
18109.973131 84.530 142.4679
18241.205462 84.161 138.4292
18373.388756 83.646 134.1612
18506.529905 82.969 129.9402
18640.635849 82.126 126.0462
18775.713581 81.125 122.7303
18911.770141 79.983 120.1960
19048.812624 78.720 118.5911
19186.848172 77.363 118.0046
19325.883983 75.942 118.4635
19465.927305 74.492 119.9181
19606.985439 73.067 122.2035
19749.065738 71.756 124.9633
19892.175609 70.703 127.5735
20036.322514 70.100 129.2070
