* Measurement data measured by REW V5.30 beta 5
* Source: EXCL: Microphone (Realtek(R) Audio), MICROPHONE (Master Volume), L, volume: 1.000
* Format: 256k Log Swept Sine, 1 sweep at -12.0 dBFS with no timing reference
* Dated: Dec 29, 2023 1:00:36 AM
* REW Settings:
*  C-weighting compensation: Off
*  Target level: 75.0 dB
* Note: LetShuoer S15 R
* Measurement: R  LetShuoer S15
* Smoothing: 1/12 octave
* Frequency Step: 96 ppo
* Start Frequency: 0.36621094 Hz
*
* Freq(Hz) SPL(dB) Phase(degrees)
0.366211 85.477 -1.9975
0.368865 85.477 -2.0012
0.371538 85.477 -2.0067
0.374230 85.477 -2.0136
0.376942 85.476 -2.0214
0.379673 85.476 -2.0300
0.382424 85.476 -2.0390
0.385196 85.476 -2.0485
0.387987 85.475 -2.0583
0.390798 85.475 -2.0684
0.393630 85.475 -2.0788
0.396483 85.475 -2.0895
0.399356 85.474 -2.1005
0.402250 85.474 -2.1117
0.405165 85.474 -2.1232
0.408101 85.474 -2.1350
0.411058 85.473 -2.1471
0.414037 85.473 -2.1595
0.417037 85.473 -2.1721
0.420059 85.472 -2.1851
0.423103 85.472 -2.1983
0.426169 85.472 -2.2118
0.429257 85.472 -2.2257
0.432367 85.471 -2.2398
0.435501 85.471 -2.2543
0.438656 85.471 -2.2690
0.441835 85.470 -2.2841
0.445037 85.470 -2.2994
0.448262 85.470 -2.3151
0.451510 85.469 -2.3312
0.454782 85.469 -2.3475
0.458077 85.469 -2.3642
0.461397 85.468 -2.3811
0.464740 85.468 -2.3985
0.468108 85.468 -2.4161
0.471500 85.468 -2.4341
0.474917 85.467 -2.4524
0.478358 85.467 -2.4711
0.481825 85.467 -2.4901
0.485316 85.466 -2.5095
0.488833 85.466 -2.5292
0.492375 85.466 -2.5492
0.495943 85.465 -2.5696
0.499537 85.465 -2.5904
0.503157 85.465 -2.6115
0.506803 85.464 -2.6330
0.510475 85.464 -2.6548
0.514174 85.463 -2.6770
0.517900 85.463 -2.6996
0.521653 85.463 -2.7225
0.525433 85.462 -2.7458
0.529241 85.462 -2.7695
0.533076 85.462 -2.7935
0.536939 85.461 -2.8180
0.540830 85.461 -2.8427
0.544749 85.461 -2.8679
0.548696 85.460 -2.8934
0.552673 85.460 -2.9193
0.556677 85.459 -2.9456
0.560711 85.459 -2.9723
0.564774 85.459 -2.9994
0.568867 85.458 -3.0268
0.572989 85.458 -3.0546
0.577141 85.458 -3.0828
0.581324 85.457 -3.1114
0.585536 85.457 -3.1403
0.589779 85.456 -3.1696
0.594053 85.456 -3.1993
0.598358 85.456 -3.2294
0.602694 85.455 -3.2599
0.607061 85.455 -3.2908
0.611460 85.454 -3.3220
0.615891 85.454 -3.3536
0.620354 85.453 -3.3856
0.624849 85.453 -3.4179
0.629377 85.453 -3.4506
0.633938 85.452 -3.4837
0.638532 85.452 -3.5172
0.643159 85.451 -3.5510
0.647819 85.451 -3.5852
0.652514 85.450 -3.6198
0.657242 85.450 -3.6547
0.662005 85.449 -3.6899
0.666802 85.449 -3.7255
0.671634 85.449 -3.7615
0.676501 85.448 -3.7978
0.681403 85.448 -3.8344
0.686341 85.447 -3.8714
0.691314 85.447 -3.9087
0.696324 85.446 -3.9463
0.701369 85.446 -3.9843
0.706452 85.445 -4.0225
0.711571 85.445 -4.0611
0.716727 85.444 -4.1001
0.721921 85.443 -4.1394
0.727153 85.443 -4.1792
0.732422 85.442 -4.2194
0.737729 85.440 -4.2602
0.743075 85.439 -4.3016
0.748460 85.438 -4.3437
0.753883 85.436 -4.3866
0.759346 85.434 -4.4303
0.764849 85.433 -4.4747
0.770391 85.431 -4.5200
0.775974 85.429 -4.5661
0.781597 85.427 -4.6130
0.787261 85.425 -4.6607
0.792965 85.423 -4.7093
0.798712 85.421 -4.7587
0.804499 85.419 -4.8088
0.810329 85.417 -4.8598
0.816201 85.414 -4.9116
0.822116 85.412 -4.9642
0.828073 85.410 -5.0176
0.834073 85.408 -5.0717
0.840118 85.405 -5.1267
0.846205 85.403 -5.1824
0.852337 85.400 -5.2388
0.858514 85.398 -5.2960
0.864735 85.395 -5.3540
0.871001 85.392 -5.4127
0.877313 85.389 -5.4720
0.883670 85.387 -5.5321
0.890074 85.384 -5.5929
0.896523 85.381 -5.6544
0.903020 85.378 -5.7165
0.909564 85.374 -5.7792
0.916155 85.371 -5.8426
0.922793 85.368 -5.9066
0.929480 85.365 -5.9712
0.936216 85.361 -6.0363
0.943000 85.358 -6.1020
0.949833 85.354 -6.1682
0.956716 85.350 -6.2349
0.963649 85.347 -6.3021
0.970632 85.343 -6.3697
0.977666 85.339 -6.4378
0.984750 85.335 -6.5062
0.991886 85.331 -6.5750
0.999074 85.326 -6.6441
1.006313 85.322 -6.7136
1.013605 85.318 -6.7832
1.020950 85.313 -6.8531
1.028349 85.309 -6.9232
1.035801 85.304 -6.9935
1.043306 85.299 -7.0638
1.050867 85.294 -7.1342
1.058482 85.289 -7.2047
1.066152 85.284 -7.2751
1.073878 85.278 -7.3456
1.081659 85.273 -7.4161
1.089498 85.267 -7.4866
1.097393 85.262 -7.5572
1.105345 85.256 -7.6281
1.113355 85.250 -7.6993
1.121422 85.243 -7.7709
1.129549 85.237 -7.8430
1.137734 85.231 -7.9157
1.145978 85.224 -7.9889
1.154283 85.217 -8.0628
1.162647 85.210 -8.1372
1.171072 85.203 -8.2122
1.179558 85.195 -8.2878
1.188106 85.188 -8.3639
1.196715 85.180 -8.4406
1.205387 85.172 -8.5179
1.214122 85.164 -8.5957
1.222920 85.156 -8.6740
1.231781 85.147 -8.7528
1.240708 85.139 -8.8320
1.249698 85.130 -8.9117
1.258754 85.121 -8.9919
1.267875 85.112 -9.0724
1.277063 85.103 -9.1533
1.286317 85.094 -9.2346
1.295638 85.084 -9.3162
1.305027 85.075 -9.3981
1.314484 85.065 -9.4803
1.324009 85.055 -9.5626
1.333603 85.045 -9.6452
1.343267 85.035 -9.7280
1.353001 85.025 -9.8108
1.362805 85.015 -9.8938
1.372681 85.005 -9.9767
1.382628 84.995 -10.0597
1.392647 84.984 -10.1426
1.402739 84.974 -10.2253
1.412904 84.964 -10.3080
1.423142 84.953 -10.3904
1.433455 84.942 -10.4725
1.443842 84.932 -10.5544
1.454305 84.921 -10.6360
1.464843 84.910 -10.7172
1.475458 84.899 -10.7982
1.486150 84.888 -10.8788
1.496919 84.877 -10.9592
1.507766 84.865 -11.0394
1.518692 84.853 -11.1193
1.529697 84.841 -11.1990
1.540782 84.829 -11.2785
1.551947 84.816 -11.3578
1.563193 84.804 -11.4370
1.574521 84.791 -11.5159
1.585931 84.778 -11.5947
1.597423 84.765 -11.6734
1.608998 84.752 -11.7519
1.620658 84.738 -11.8303
1.632402 84.725 -11.9085
1.644231 84.712 -11.9867
1.656146 84.698 -12.0647
1.668147 84.685 -12.1426
1.680235 84.672 -12.2204
1.692410 84.659 -12.2981
1.704674 84.646 -12.3757
1.717027 84.633 -12.4533
1.729469 84.620 -12.5308
1.742002 84.608 -12.6082
1.754625 84.595 -12.6855
1.767340 84.583 -12.7627
1.780147 84.572 -12.8398
1.793046 84.561 -12.9166
1.806040 84.550 -12.9931
1.819127 84.539 -13.0690
1.832309 84.529 -13.1442
1.845587 84.519 -13.2183
1.858961 84.509 -13.2912
1.872431 84.499 -13.3627
1.886000 84.490 -13.4328
1.899666 84.481 -13.5015
1.913432 84.472 -13.5688
1.927298 84.463 -13.6350
1.941264 84.454 -13.7002
1.955331 84.445 -13.7647
1.969500 84.437 -13.8287
1.983772 84.429 -13.8924
1.998147 84.422 -13.9561
2.012626 84.415 -14.0201
2.027211 84.408 -14.0846
2.041901 84.402 -14.1499
2.056697 84.397 -14.2164
2.071601 84.392 -14.2843
2.086613 84.388 -14.3541
2.101733 84.384 -14.4259
2.116963 84.381 -14.5000
2.132303 84.379 -14.5768
2.147755 84.378 -14.6564
2.163318 84.378 -14.7387
2.178995 84.379 -14.8237
2.194785 84.381 -14.9110
2.210689 84.384 -15.0001
2.226709 84.387 -15.0905
2.242844 84.392 -15.1818
2.259097 84.398 -15.2739
2.275467 84.404 -15.3667
2.291956 84.412 -15.4606
2.308565 84.420 -15.5558
2.325294 84.430 -15.6528
2.342144 84.440 -15.7521
2.359116 84.451 -15.8543
2.376211 84.464 -15.9598
2.393430 84.477 -16.0693
2.410774 84.491 -16.1835
2.428243 84.506 -16.3028
2.445839 84.523 -16.4281
2.463562 84.540 -16.5597
2.481415 84.558 -16.6984
2.499396 84.577 -16.8447
2.517508 84.597 -16.9988
2.535750 84.619 -17.1610
2.554126 84.641 -17.3312
2.572634 84.665 -17.5090
2.591276 84.690 -17.6940
2.610054 84.716 -17.8857
2.628967 84.744 -18.0838
2.648018 84.773 -18.2882
2.667206 84.803 -18.4990
2.686534 84.835 -18.7163
2.706002 84.868 -18.9405
2.725610 84.902 -19.1717
2.745361 84.937 -19.4104
2.765255 84.973 -19.6570
2.785294 85.010 -19.9119
2.805477 85.048 -20.1754
2.825807 85.087 -20.4481
2.846284 85.127 -20.7303
2.866909 85.168 -21.0225
2.887684 85.209 -21.3249
2.908609 85.251 -21.6378
2.929686 85.294 -21.9613
2.950916 85.338 -22.2953
2.972299 85.382 -22.6397
2.993838 85.428 -22.9942
3.015532 85.475 -23.3584
3.037384 85.523 -23.7321
3.059394 85.572 -24.1149
3.081564 85.621 -24.5065
3.103894 85.672 -24.9066
3.126386 85.724 -25.3150
3.149041 85.776 -25.7313
3.171861 85.829 -26.1554
3.194845 85.882 -26.5871
3.217996 85.936 -27.0263
3.241315 85.991 -27.4730
3.264803 86.046 -27.9274
3.288461 86.101 -28.3897
3.312291 86.157 -28.8602
3.336293 86.214 -29.3391
3.360469 86.271 -29.8265
3.384820 86.328 -30.3220
3.409348 86.387 -30.8253
3.434054 86.446 -31.3355
3.458938 86.505 -31.8520
3.484003 86.565 -32.3738
3.509250 86.626 -32.9002
3.534679 86.687 -33.4302
3.560293 86.749 -33.9631
3.586092 86.811 -34.4983
3.612079 86.874 -35.0353
3.638253 86.938 -35.5740
3.664618 87.001 -36.1145
3.691173 87.066 -36.6570
3.717921 87.131 -37.2019
3.744862 87.196 -37.7492
3.771999 87.262 -38.2988
3.799332 87.328 -38.8502
3.826864 87.396 -39.4028
3.854595 87.463 -39.9559
3.882527 87.532 -40.5088
3.910661 87.601 -41.0606
3.938999 87.672 -41.6105
3.967543 87.743 -42.1580
3.996294 87.815 -42.7024
4.025252 87.888 -43.2436
4.054421 87.961 -43.7814
4.083801 88.036 -44.3160
4.113394 88.112 -44.8475
4.143201 88.188 -45.3761
4.173225 88.266 -45.9019
4.203466 88.344 -46.4249
4.233926 88.424 -46.9450
4.264606 88.505 -47.4622
4.295509 88.587 -47.9762
4.326636 88.670 -48.4869
4.357989 88.755 -48.9939
4.389569 88.841 -49.4968
4.421378 88.928 -49.9955
4.453417 89.017 -50.4897
4.485688 89.107 -50.9796
4.518193 89.199 -51.4656
4.550934 89.292 -51.9482
4.583912 89.386 -52.4281
4.617129 89.482 -52.9061
4.650587 89.578 -53.3827
4.684287 89.677 -53.8586
4.718231 89.776 -54.3339
4.752421 89.877 -54.8086
4.786859 89.979 -55.2827
4.821547 90.082 -55.7559
4.856485 90.187 -56.2280
4.891677 90.293 -56.6993
4.927125 90.400 -57.1703
4.962829 90.508 -57.6417
4.998791 90.617 -58.1140
5.035015 90.727 -58.5882
5.071500 90.837 -59.0647
5.108251 90.948 -59.5440
5.145267 91.059 -60.0261
5.182552 91.171 -60.5110
5.220107 91.283 -60.9983
5.257934 91.395 -61.4877
5.296035 91.508 -61.9790
5.334412 91.621 -62.4720
5.373067 91.733 -62.9668
5.412003 91.846 -63.4633
5.451221 91.957 -63.9619
5.490722 92.068 -64.4626
5.530510 92.179 -64.9656
5.570587 92.289 -65.4707
5.610953 92.398 -65.9775
5.651613 92.506 -66.4851
5.692567 92.614 -66.9926
5.733818 92.720 -67.4989
5.775367 92.825 -68.0035
5.817218 92.929 -68.5057
5.859372 93.032 -69.0054
5.901831 93.134 -69.5026
5.944598 93.233 -69.9973
5.987675 93.332 -70.4890
6.031065 93.429 -70.9768
6.074768 93.525 -71.4595
6.118788 93.620 -71.9360
6.163127 93.713 -72.4053
6.207788 93.805 -72.8666
6.252772 93.896 -73.3198
6.298082 93.986 -73.7649
6.343721 94.074 -74.2019
6.389690 94.161 -74.6305
6.435992 94.247 -75.0504
6.482630 94.333 -75.4609
6.529606 94.417 -75.8616
6.576922 94.502 -76.2520
6.624581 94.585 -76.6320
6.672585 94.669 -77.0019
6.720938 94.751 -77.3622
6.769640 94.834 -77.7134
6.818696 94.916 -78.0563
6.868107 94.999 -78.3913
6.917876 95.081 -78.7192
6.968006 95.164 -79.0400
7.018499 95.248 -79.3545
7.069358 95.331 -79.6631
7.120586 95.415 -79.9671
7.172184 95.499 -80.2677
7.224157 95.584 -80.5662
7.276506 95.669 -80.8641
7.329235 95.754 -81.1621
7.382345 95.840 -81.4609
7.435841 95.926 -81.7612
7.489724 96.012 -82.0638
7.543997 96.098 -82.3696
7.598664 96.183 -82.6796
7.653728 96.269 -82.9948
7.709189 96.354 -83.3158
7.765053 96.438 -83.6429
7.821322 96.522 -83.9762
7.877998 96.605 -84.3155
7.935086 96.687 -84.6608
7.992587 96.768 -85.0120
8.050504 96.847 -85.3689
8.108841 96.924 -85.7314
8.167601 97.000 -86.0990
8.226787 97.075 -86.4710
8.286402 97.147 -86.8463
8.346449 97.217 -87.2239
8.406931 97.286 -87.6029
8.467851 97.352 -87.9825
8.529212 97.417 -88.3620
8.591018 97.479 -88.7406
8.653272 97.540 -89.1172
8.715977 97.599 -89.4907
8.779137 97.656 -89.8600
8.842754 97.711 -90.2246
8.906833 97.765 -90.5841
8.971375 97.818 -90.9381
9.036386 97.870 -91.2863
9.101867 97.920 -91.6285
9.167823 97.971 -91.9645
9.234257 98.020 -92.2945
9.301172 98.070 -92.6189
9.368572 98.119 -92.9384
9.436460 98.168 -93.2537
9.504841 98.217 -93.5658
9.573717 98.267 -93.8755
9.643092 98.317 -94.1836
9.712970 98.367 -94.4914
9.783354 98.418 -94.8002
9.854248 98.469 -95.1111
9.925656 98.521 -95.4254
9.997581 98.574 -95.7440
10.070028 98.626 -96.0677
10.143000 98.680 -96.3975
10.216500 98.733 -96.7341
10.290533 98.786 -97.0782
10.365103 98.839 -97.4301
10.440212 98.892 -97.7898
10.515866 98.945 -98.1575
10.592069 98.997 -98.5329
10.668823 99.049 -98.9158
10.746134 99.100 -99.3058
10.824005 99.151 -99.7024
10.902440 99.200 -100.1048
10.981443 99.249 -100.5122
11.061020 99.297 -100.9240
11.141172 99.345 -101.3395
11.221906 99.391 -101.7580
11.303225 99.437 -102.1786
11.385133 99.482 -102.6007
11.467634 99.526 -103.0237
11.550734 99.570 -103.4472
11.634435 99.614 -103.8706
11.718742 99.657 -104.2937
11.803661 99.700 -104.7162
11.889195 99.743 -105.1377
11.975349 99.785 -105.5582
12.062128 99.828 -105.9774
12.149535 99.870 -106.3953
12.237576 99.913 -106.8117
12.326254 99.955 -107.2265
12.415575 99.998 -107.6395
12.505544 100.041 -108.0505
12.596164 100.083 -108.4594
12.687441 100.126 -108.8658
12.779379 100.170 -109.2697
12.871984 100.213 -109.6707
12.965260 100.256 -110.0687
13.059211 100.300 -110.4635
13.153843 100.345 -110.8550
13.249161 100.389 -111.2433
13.345170 100.434 -111.6283
13.441875 100.480 -112.0104
13.539280 100.526 -112.3898
13.637391 100.573 -112.7669
13.736214 100.621 -113.1421
13.835752 100.669 -113.5160
13.936011 100.717 -113.8893
14.036998 100.766 -114.2624
14.138716 100.816 -114.6360
14.241171 100.866 -115.0106
14.344368 100.916 -115.3867
14.448313 100.966 -115.7645
14.553011 101.016 -116.1443
14.658468 101.066 -116.5262
14.764689 101.115 -116.9101
14.871680 101.164 -117.2958
14.979446 101.212 -117.6829
15.087994 101.259 -118.0711
15.197328 101.305 -118.4598
15.307454 101.350 -118.8484
15.418378 101.394 -119.2361
15.530106 101.437 -119.6224
15.642643 101.479 -120.0063
15.755996 101.519 -120.3873
15.870171 101.558 -120.7646
15.985172 101.596 -121.1374
16.101007 101.633 -121.5051
16.217682 101.668 -121.8669
16.335201 101.703 -122.2224
16.453573 101.737 -122.5711
16.572803 101.770 -122.9127
16.692898 101.802 -123.2471
16.813862 101.835 -123.5744
16.935701 101.867 -123.8952
17.058424 101.899 -124.2102
17.182035 101.932 -124.5208
17.306543 101.966 -124.8284
17.431953 102.000 -125.1350
17.558273 102.035 -125.4427
17.685509 102.071 -125.7541
17.813665 102.107 -126.0714
17.942751 102.145 -126.3969
18.072771 102.182 -126.7326
18.203733 102.220 -127.0800
18.335646 102.257 -127.4397
18.468513 102.293 -127.8119
18.602345 102.328 -128.1956
18.737144 102.361 -128.5894
18.872921 102.393 -128.9907
19.009682 102.422 -129.3966
19.147434 102.448 -129.8038
19.286184 102.473 -130.2088
19.425940 102.495 -130.6083
19.566708 102.517 -130.9994
19.708496 102.537 -131.3801
19.851313 102.556 -131.7492
19.995163 102.576 -132.1067
20.140057 102.597 -132.4535
20.285999 102.619 -132.7918
20.433001 102.643 -133.1243
20.581066 102.669 -133.4544
20.730206 102.696 -133.7853
20.880424 102.725 -134.1204
21.031733 102.755 -134.4620
21.184137 102.786 -134.8118
21.337646 102.817 -135.1704
21.492268 102.848 -135.5372
21.648010 102.878 -135.9106
21.804880 102.906 -136.2880
21.962887 102.934 -136.6666
22.122040 102.959 -137.0430
22.282345 102.983 -137.4144
22.443811 103.006 -137.7779
22.606449 103.028 -138.1319
22.770266 103.050 -138.4754
22.935268 103.071 -138.8084
23.101467 103.093 -139.1318
23.268869 103.115 -139.4473
23.437485 103.138 -139.7571
23.607323 103.161 -140.0636
23.778391 103.185 -140.3692
23.950699 103.210 -140.6758
24.124256 103.235 -140.9852
24.299070 103.259 -141.2983
24.475151 103.283 -141.6157
24.652508 103.307 -141.9373
24.831150 103.329 -142.2628
25.011087 103.351 -142.5917
25.192327 103.371 -142.9232
25.374882 103.390 -143.2569
25.558758 103.408 -143.5922
25.743967 103.425 -143.9290
25.930519 103.441 -144.2670
26.118422 103.456 -144.6061
26.307686 103.470 -144.9462
26.498322 103.484 -145.2867
26.690340 103.496 -145.6270
26.883749 103.507 -145.9662
27.078560 103.518 -146.3031
27.274782 103.528 -146.6367
27.472427 103.537 -146.9659
27.671503 103.547 -147.2902
27.872023 103.558 -147.6098
28.073996 103.569 -147.9255
28.277431 103.582 -148.2389
28.482342 103.596 -148.5525
28.688736 103.611 -148.8687
28.896626 103.628 -149.1902
29.106022 103.647 -149.5189
29.316936 103.665 -149.8557
29.529379 103.684 -150.2002
29.743361 103.703 -150.5508
29.958893 103.720 -150.9047
30.175987 103.737 -151.2586
30.394655 103.753 -151.6092
30.614908 103.769 -151.9542
30.836756 103.785 -152.2925
31.060211 103.800 -152.6247
31.285286 103.817 -152.9528
31.511992 103.834 -153.2798
31.740341 103.851 -153.6089
31.970345 103.868 -153.9422
32.202015 103.884 -154.2802
32.435364 103.898 -154.6211
32.670403 103.910 -154.9614
32.907146 103.919 -155.2964
33.145607 103.926 -155.6213
33.385796 103.932 -155.9328
33.627724 103.936 -156.2300
33.871403 103.942 -156.5152
34.116848 103.948 -156.7931
34.364071 103.955 -157.0702
34.613087 103.963 -157.3528
34.863907 103.971 -157.6454
35.116547 103.978 -157.9493
35.371017 103.984 -158.2625
35.627331 103.987 -158.5802
35.885502 103.988 -158.8958
36.145542 103.988 -159.2036
36.407467 103.987 -159.5001
36.671291 103.987 -159.7854
36.937027 103.988 -160.0634
37.204689 103.992 -160.3406
37.474289 103.998 -160.6240
37.745842 104.005 -160.9194
38.019363 104.013 -161.2288
38.294868 104.020 -161.5498
38.572369 104.025 -161.8763
38.851879 104.028 -162.1999
39.133415 104.030 -162.5128
39.416992 104.032 -162.8103
39.702625 104.034 -163.0923
39.990326 104.038 -163.3635
40.280113 104.045 -163.6317
40.571999 104.053 -163.9044
40.866001 104.062 -164.1861
41.162132 104.070 -164.4765
41.460411 104.076 -164.7709
41.760849 104.080 -165.0622
42.063465 104.082 -165.3449
42.368275 104.084 -165.6174
42.675293 104.086 -165.8834
42.984535 104.089 -166.1500
43.296021 104.092 -166.4241
43.609760 104.095 -166.7094
43.925774 104.095 -167.0034
44.244080 104.092 -167.2989
44.564690 104.086 -167.5867
44.887623 104.080 -167.8604
45.212898 104.073 -168.1187
45.540531 104.069 -168.3670
45.870537 104.067 -168.6151
46.202934 104.067 -168.8728
46.537739 104.069 -169.1469
46.874969 104.070 -169.4378
47.214645 104.070 -169.7404
47.556782 104.068 -170.0462
47.901398 104.064 -170.3470
48.248512 104.060 -170.6375
48.598141 104.055 -170.9167
48.950302 104.052 -171.1873
49.305016 104.049 -171.4536
49.662300 104.047 -171.7186
50.022175 104.045 -171.9826
50.384655 104.042 -172.2433
50.749763 104.039 -172.4968
51.117516 104.035 -172.7403
51.487934 104.031 -172.9736
51.861038 104.027 -173.1996
52.236843 104.025 -173.4235
52.615372 104.023 -173.6501
52.996643 104.021 -173.8827
53.380680 104.018 -174.1216
53.767498 104.015 -174.3657
54.157120 104.011 -174.6141
54.549564 104.007 -174.8681
54.944855 104.002 -175.1316
55.343006 103.997 -175.4081
55.744045 103.991 -175.6980
56.147991 103.983 -175.9971
56.554863 103.972 -176.2989
56.964684 103.961 -176.6003
57.377472 103.950 -176.9036
57.793251 103.937 -177.2139
58.212044 103.923 -177.5312
58.633873 103.905 -177.8442
59.058758 103.883 -178.1326
59.486721 103.860 -178.3774
59.917786 103.840 -178.5743
60.351974 103.826 -178.7387
60.789310 103.819 -178.8978
61.229816 103.819 -179.0762
61.673512 103.820 -179.2847
62.120422 103.822 -179.5204
62.570572 103.821 -179.7741
63.023983 103.818 179.9628
63.480682 103.812 179.6954
63.940689 103.804 179.4272
64.404030 103.793 179.1625
64.870728 103.780 178.9052
65.340805 103.765 178.6566
65.814293 103.751 178.4137
66.291214 103.737 178.1711
66.771591 103.724 177.9243
67.255447 103.710 177.6727
67.742805 103.696 177.4190
68.233696 103.682 177.1655
68.728142 103.668 176.9124
69.226173 103.654 176.6595
69.727814 103.639 176.4092
70.233093 103.623 176.1677
70.742035 103.606 175.9425
71.254662 103.589 175.7377
71.771004 103.572 175.5521
72.291084 103.557 175.3804
72.814934 103.542 175.2166
73.342583 103.529 175.0559
73.874054 103.515 174.8953
74.409378 103.501 174.7326
74.948578 103.487 174.5654
75.491684 103.474 174.3898
76.038727 103.460 174.2017
76.589737 103.447 173.9985
77.144737 103.433 173.7802
77.703758 103.418 173.5495
78.266830 103.403 173.3103
78.833984 103.389 173.0662
79.405251 103.374 172.8204
79.980652 103.359 172.5756
80.560226 103.345 172.3339
81.143997 103.330 172.0960
81.732002 103.316 171.8611
82.324265 103.300 171.6284
82.920822 103.283 171.3982
83.521698 103.263 171.1717
84.126930 103.241 170.9487
84.736549 103.218 170.7263
85.350586 103.192 170.5007
85.969070 103.164 170.2701
86.592041 103.135 170.0356
87.219521 103.104 169.8001
87.851547 103.072 169.5671
88.488159 103.041 169.3405
89.129379 103.011 169.1223
89.775246 102.983 168.9124
90.425797 102.958 168.7081
91.081062 102.936 168.5076
91.741074 102.914 168.3113
92.405869 102.893 168.1209
93.075478 102.872 167.9382
93.749939 102.851 167.7649
94.429291 102.829 167.6006
95.113564 102.807 167.4425
95.802795 102.785 167.2856
96.497025 102.762 167.1255
97.196281 102.737 166.9615
97.900604 102.711 166.7966
98.610031 102.684 166.6362
99.324600 102.656 166.4853
100.044350 102.628 166.3454
100.769310 102.602 166.2128
101.499527 102.577 166.0805
102.235031 102.554 165.9416
102.975868 102.531 165.7903
103.722076 102.507 165.6244
104.473686 102.481 165.4489
105.230743 102.452 165.2752
105.993286 102.421 165.1138
106.761360 102.389 164.9677
107.534996 102.358 164.8322
108.314240 102.329 164.6982
109.099129 102.301 164.5554
109.889709 102.275 164.3962
110.686012 102.251 164.2188
111.488091 102.227 164.0275
112.295982 102.205 163.8315
113.109726 102.184 163.6440
113.929367 102.166 163.4789
114.754944 102.150 163.3483
115.586502 102.136 163.2620
116.424088 102.126 163.2225
117.267746 102.117 163.2179
118.117516 102.110 163.2185
118.973442 102.100 163.1821
119.835571 102.081 163.0773
120.703949 102.047 162.9115
121.578621 101.998 162.7219
122.459633 101.939 162.5345
123.347023 101.880 162.3452
124.240845 101.826 162.1402
125.141144 101.777 161.9203
126.047966 101.733 161.7049
126.961365 101.696 161.5200
127.881378 101.664 161.3828
128.808060 101.636 161.2950
129.741455 101.612 161.2451
130.681610 101.588 161.2168
131.628586 101.563 161.1947
132.582428 101.536 161.1668
133.543182 101.508 161.1253
134.510895 101.480 161.0654
135.485611 101.451 160.9868
136.467392 101.423 160.8939
137.456284 101.395 160.7941
138.452347 101.368 160.6935
139.455627 101.339 160.5961
140.466187 101.308 160.5038
141.484070 101.276 160.4169
142.509323 101.242 160.3353
143.542007 101.208 160.2587
144.582169 101.173 160.1862
145.629868 101.138 160.1145
146.685165 101.104 160.0403
147.748108 101.069 159.9626
148.818756 101.034 159.8839
149.897156 100.997 159.8080
150.983368 100.960 159.7383
152.077454 100.923 159.6777
153.179474 100.886 159.6306
154.289474 100.851 159.6000
155.407516 100.818 159.5850
156.533661 100.788 159.5782
157.667969 100.761 159.5683
158.810501 100.736 159.5446
159.961304 100.712 159.5015
161.120453 100.689 159.4393
162.287994 100.665 159.3618
163.464005 100.640 159.2741
164.648529 100.613 159.1856
165.841644 100.581 159.1119
167.043396 100.545 159.0668
168.253860 100.505 159.0547
169.473099 100.461 159.0710
170.701172 100.416 159.1071
171.938141 100.372 159.1523
173.184082 100.331 159.1949
174.439041 100.295 159.2260
175.703094 100.263 159.2423
176.976318 100.235 159.2413
178.258759 100.211 159.2182
179.550491 100.188 159.1726
180.851593 100.164 159.1122
182.162125 100.139 159.0501
183.482147 100.111 158.9958
184.811737 100.082 158.9530
186.150955 100.052 158.9229
187.499878 100.019 158.9053
188.858582 99.984 158.8992
190.227127 99.947 158.9025
191.605591 99.910 158.9117
192.994049 99.873 158.9213
194.392563 99.837 158.9260
195.801208 99.802 158.9254
197.220062 99.767 158.9236
198.649200 99.733 158.9277
200.088699 99.697 158.9436
201.538620 99.662 158.9724
202.999054 99.627 159.0108
204.470062 99.592 159.0521
205.951736 99.559 159.0876
207.444153 99.527 159.1106
208.947372 99.495 159.1193
210.461487 99.464 159.1181
211.986572 99.431 159.1151
213.522720 99.398 159.1182
215.069992 99.364 159.1334
216.628479 99.328 159.1655
218.198257 99.292 159.2171
219.779419 99.257 159.2856
221.372025 99.223 159.3635
222.976181 99.191 159.4421
224.591965 99.161 159.5139
226.219452 99.133 159.5742
227.858734 99.106 159.6228
229.509888 99.079 159.6642
231.173004 99.052 159.7053
232.848175 99.024 159.7515
234.535492 98.996 159.8047
236.235031 98.968 159.8629
237.946884 98.939 159.9227
239.671143 98.909 159.9832
241.407898 98.879 160.0455
243.157242 98.848 160.1102
244.919266 98.816 160.1765
246.694046 98.781 160.2450
248.481689 98.744 160.3187
250.282288 98.705 160.4020
252.095932 98.666 160.5005
253.922729 98.630 160.6178
255.762756 98.597 160.7499
257.616119 98.568 160.8851
259.482910 98.543 161.0103
261.363220 98.518 161.1183
263.257172 98.493 161.2092
265.164856 98.466 161.2876
267.086365 98.438 161.3612
269.021790 98.409 161.4396
270.971222 98.379 161.5309
272.934784 98.350 161.6378
274.912567 98.322 161.7582
276.904694 98.295 161.8881
278.911255 98.269 162.0235
280.932373 98.245 162.1596
282.968140 98.223 162.2899
285.018646 98.202 162.4072
287.084015 98.183 162.5054
289.164337 98.163 162.5825
291.259735 98.143 162.6408
293.370331 98.121 162.6888
295.496216 98.097 162.7384
297.637512 98.072 162.8008
299.794312 98.045 162.8821
301.966736 98.018 162.9812
304.154907 97.991 163.0902
306.358948 97.962 163.1999
308.578949 97.932 163.3035
310.815033 97.900 163.3999
313.067322 97.868 163.4913
315.335938 97.835 163.5829
317.621002 97.802 163.6815
319.922607 97.769 163.7944
322.240906 97.737 163.9276
324.575989 97.707 164.0837
326.928009 97.680 164.2603
329.297058 97.653 164.4497
331.683289 97.627 164.6390
334.086792 97.603 164.8155
336.507721 97.579 164.9738
338.946198 97.556 165.1172
341.402344 97.533 165.2548
343.876282 97.510 165.3972
346.368164 97.488 165.5517
348.878082 97.464 165.7191
351.406189 97.440 165.8942
353.952637 97.416 166.0712
356.517517 97.393 166.2469
359.100983 97.370 166.4215
361.703186 97.347 166.5975
364.324249 97.326 166.7778
366.964294 97.305 166.9644
369.623474 97.286 167.1564
372.301910 97.267 167.3507
374.999756 97.249 167.5437
377.717163 97.233 167.7327
380.454254 97.217 167.9171
383.211182 97.201 168.0996
385.988098 97.185 168.2857
388.785126 97.168 168.4794
391.602417 97.149 168.6826
394.440125 97.131 168.8939
397.298401 97.113 169.1065
400.177399 97.095 169.3065
403.077240 97.076 169.4808
405.998108 97.058 169.6306
408.940125 97.039 169.7680
411.903473 97.019 169.9066
414.888306 96.999 170.0556
417.894745 96.979 170.2205
420.922974 96.959 170.4059
423.973145 96.939 170.6145
427.045441 96.921 170.8431
430.139984 96.906 171.0816
433.256958 96.892 171.3184
436.396515 96.881 171.5472
439.558838 96.870 171.7678
442.744049 96.861 171.9808
445.952362 96.852 172.1848
449.183929 96.843 172.3754
452.438904 96.834 172.5482
455.717468 96.825 172.7023
459.019775 96.814 172.8429
462.346008 96.800 172.9815
465.696350 96.783 173.1303
469.070984 96.766 173.2957
472.470062 96.747 173.4785
475.893768 96.730 173.6760
479.342285 96.713 173.8840
482.815796 96.697 174.0973
486.314484 96.680 174.3125
489.838531 96.664 174.5311
493.388092 96.647 174.7582
496.963379 96.631 174.9976
500.564575 96.616 175.2467
504.191864 96.602 175.4979
507.845459 96.589 175.7429
511.525513 96.577 175.9781
515.232239 96.566 176.2061
518.965820 96.554 176.4330
522.726440 96.541 176.6650
526.514343 96.527 176.9066
530.329712 96.514 177.1592
534.172729 96.501 177.4195
538.043579 96.489 177.6813
541.942444 96.479 177.9415
545.869568 96.468 178.2019
549.825134 96.459 178.4658
553.809387 96.450 178.7334
557.822510 96.442 179.0009
561.864746 96.436 179.2637
565.936279 96.430 179.5203
570.037292 96.424 179.7734
574.168030 96.418 -179.9731
578.328674 96.410 -179.7148
582.519470 96.402 -179.4492
586.740662 96.394 -179.1752
590.992432 96.385 -178.8910
595.275024 96.377 -178.5957
599.588623 96.369 -178.2917
603.933472 96.363 -177.9844
608.309814 96.358 -177.6785
612.717896 96.353 -177.3753
617.157898 96.350 -177.0728
621.630066 96.347 -176.7655
626.134644 96.343 -176.4470
630.671875 96.342 -176.1138
635.242004 96.342 -175.7677
639.845215 96.344 -175.4121
644.481812 96.349 -175.0489
649.151978 96.355 -174.6793
653.856018 96.364 -174.3074
658.594116 96.376 -173.9415
663.366577 96.391 -173.5927
668.173584 96.406 -173.2689
673.015442 96.422 -172.9694
677.892395 96.436 -172.6866
682.804688 96.448 -172.4109
687.752563 96.458 -172.1344
692.736328 96.466 -171.8513
697.756165 96.473 -171.5565
702.812378 96.480 -171.2473
707.905273 96.487 -170.9253
713.035034 96.496 -170.5947
718.201965 96.506 -170.2596
723.406372 96.516 -169.9217
728.648499 96.527 -169.5812
733.928589 96.539 -169.2385
739.246948 96.552 -168.8939
744.603821 96.566 -168.5470
749.999512 96.581 -168.1959
755.434326 96.597 -167.8386
760.908508 96.615 -167.4745
766.422363 96.633 -167.1043
771.976196 96.653 -166.7293
777.570251 96.674 -166.3515
783.204834 96.696 -165.9718
788.880249 96.720 -165.5886
794.596802 96.745 -165.1984
800.354797 96.772 -164.7987
806.154480 96.801 -164.3914
811.996216 96.834 -163.9831
817.880249 96.871 -163.5819
823.806946 96.912 -163.1957
829.776611 96.955 -162.8313
835.789490 96.998 -162.4909
841.845947 97.040 -162.1699
847.946289 97.080 -161.8592
854.090881 97.118 -161.5513
860.279968 97.156 -161.2415
866.513916 97.193 -160.9262
872.793030 97.230 -160.6014
879.117676 97.269 -160.2666
885.488098 97.309 -159.9254
891.904724 97.350 -159.5813
898.367859 97.393 -159.2340
904.877808 97.437 -158.8814
911.434937 97.483 -158.5232
918.039551 97.530 -158.1628
924.692017 97.580 -157.8038
931.392700 97.632 -157.4486
938.141968 97.686 -157.0994
944.940125 97.742 -156.7570
951.787537 97.798 -156.4209
958.684570 97.856 -156.0896
965.631592 97.915 -155.7614
972.628967 97.974 -155.4341
979.677063 98.035 -155.1075
986.776184 98.098 -154.7829
993.926758 98.161 -154.4594
1001.129150 98.227 -154.1323
1008.383728 98.294 -153.7961
1015.690918 98.365 -153.4508
1023.051025 98.440 -153.1013
1030.464478 98.520 -152.7558
1037.931641 98.605 -152.4268
1045.452881 98.695 -152.1273
1053.028687 98.786 -151.8629
1060.659424 98.878 -151.6299
1068.345459 98.969 -151.4209
1076.087158 99.060 -151.2279
1083.884888 99.150 -151.0454
1091.739136 99.240 -150.8710
1099.650269 99.331 -150.7049
1107.618774 99.424 -150.5472
1115.645020 99.517 -150.3977
1123.729492 99.611 -150.2562
1131.872559 99.707 -150.1230
1140.074585 99.804 -149.9985
1148.336060 99.902 -149.8836
1156.657349 100.002 -149.7790
1165.038940 100.104 -149.6852
1173.481323 100.208 -149.6022
1181.984863 100.317 -149.5316
1190.550049 100.429 -149.4794
1199.177246 100.545 -149.4566
1207.866943 100.664 -149.4749
1216.619629 100.783 -149.5405
1225.435791 100.901 -149.6517
1234.315796 101.017 -149.8013
1243.260132 101.130 -149.9816
1252.269287 101.240 -150.1850
1261.343750 101.348 -150.4066
1270.484009 101.454 -150.6445
1279.690430 101.557 -150.8968
1288.963623 101.660 -151.1621
1298.303955 101.761 -151.4408
1307.712036 101.861 -151.7356
1317.188232 101.959 -152.0498
1326.733154 102.056 -152.3849
1336.347168 102.149 -152.7389
1346.030884 102.240 -153.1078
1355.784790 102.328 -153.4867
1365.609375 102.412 -153.8709
1375.505127 102.494 -154.2548
1385.472656 102.574 -154.6326
1395.512329 102.653 -155.0029
1405.624756 102.733 -155.3703
1415.810547 102.815 -155.7458
1426.070068 102.898 -156.1421
1436.403931 102.981 -156.5665
1446.812744 103.062 -157.0181
1457.296997 103.141 -157.4911
1467.857178 103.216 -157.9793
1478.493896 103.288 -158.4777
1489.207642 103.357 -158.9828
1499.999023 103.423 -159.4908
1510.868652 103.486 -159.9988
1521.817017 103.547 -160.5041
1532.844727 103.606 -161.0048
1543.952393 103.664 -161.4992
1555.140503 103.722 -161.9866
1566.409668 103.782 -162.4702
1577.760498 103.843 -162.9599
1589.193604 103.906 -163.4695
1600.709595 103.968 -164.0087
1612.308960 104.029 -164.5789
1623.992432 104.087 -165.1753
1635.760498 104.142 -165.7908
1647.613892 104.193 -166.4199
1659.553223 104.240 -167.0581
1671.578979 104.284 -167.7025
1683.691895 104.325 -168.3524
1695.892578 104.363 -169.0083
1708.181763 104.398 -169.6705
1720.559937 104.430 -170.3373
1733.027832 104.459 -171.0052
1745.586060 104.483 -171.6693
1758.235352 104.504 -172.3239
1770.976196 104.523 -172.9638
1783.809448 104.542 -173.5893
1796.735718 104.561 -174.2084
1809.755615 104.581 -174.8337
1822.869873 104.601 -175.4753
1836.079102 104.620 -176.1359
1849.384033 104.636 -176.8138
1862.785400 104.649 -177.5049
1876.283936 104.657 -178.2031
1889.880249 104.661 -178.9019
1903.575073 104.660 -179.5943
1917.369141 104.656 179.7256
1931.263184 104.648 179.0619
1945.257935 104.639 178.4144
1959.354126 104.631 177.7750
1973.552368 104.622 177.1302
1987.853516 104.613 176.4691
2002.258301 104.601 175.7896
2016.767456 104.586 175.0963
2031.381836 104.566 174.3969
2046.102051 104.542 173.6986
2060.928955 104.513 173.0071
2075.863281 104.479 172.3238
2090.905762 104.441 171.6481
2106.057373 104.397 170.9815
2121.318848 104.349 170.3299
2136.690918 104.297 169.7032
2152.174316 104.240 169.1119
2167.769775 104.182 168.5607
2183.478271 104.124 168.0444
2199.300537 104.066 167.5515
2215.237549 104.008 167.0716
2231.290039 103.951 166.5997
2247.458984 103.891 166.1355
2263.745117 103.830 165.6828
2280.149170 103.766 165.2483
2296.672119 103.700 164.8397
2313.314697 103.632 164.4632
2330.077881 103.565 164.1202
2346.962646 103.501 163.8034
2363.969727 103.440 163.5004
2381.100098 103.382 163.2007
2398.354492 103.325 162.8988
2415.733887 103.269 162.5941
2433.239258 103.213 162.2880
2450.871582 103.156 161.9822
2468.631592 103.098 161.6770
2486.520264 103.038 161.3737
2504.538574 102.975 161.0767
2522.687500 102.909 160.7942
2540.968018 102.842 160.5347
2559.380859 102.776 160.3002
2577.927246 102.711 160.0836
2596.607910 102.648 159.8750
2615.424072 102.586 159.6664
2634.376465 102.524 159.4547
2653.466309 102.462 159.2418
2672.694336 102.397 159.0349
2692.061768 102.330 158.8433
2711.569580 102.261 158.6744
2731.218750 102.194 158.5277
2751.010254 102.128 158.3960
2770.945312 102.063 158.2708
2791.024658 101.999 158.1469
2811.249512 101.934 158.0230
2831.621094 101.869 157.8994
2852.140137 101.802 157.7767
2872.807861 101.732 157.6578
2893.625488 101.659 157.5506
2914.593994 101.584 157.4672
2935.714355 101.507 157.4183
2956.987793 101.431 157.4073
2978.415283 101.356 157.4299
2999.998047 101.283 157.4791
3021.737305 101.213 157.5488
3043.634033 101.144 157.6357
3065.689453 101.077 157.7409
3087.904785 101.013 157.8679
3110.281006 100.951 158.0165
3132.819336 100.894 158.1798
3155.520996 100.842 158.3470
3178.387207 100.793 158.5084
3201.419189 100.748 158.6575
3224.617920 100.704 158.7917
3247.984863 100.660 158.9110
3271.520996 100.616 159.0196
3295.227783 100.571 159.1277
3319.106445 100.524 159.2476
3343.157959 100.477 159.3871
3367.383789 100.430 159.5465
3391.785156 100.384 159.7220
3416.363525 100.339 159.9102
3441.119873 100.295 160.1127
3466.055664 100.251 160.3368
3491.172119 100.210 160.5899
3516.470703 100.172 160.8733
3541.952393 100.140 161.1806
3567.618896 100.115 161.5012
3593.471436 100.096 161.8229
3619.511230 100.084 162.1340
3645.739746 100.077 162.4251
3672.158203 100.073 162.6938
3698.768066 100.073 162.9454
3725.570801 100.075 163.1861
3752.567871 100.081 163.4166
3779.760498 100.091 163.6330
3807.150146 100.104 163.8310
3834.738281 100.120 164.0106
3862.526367 100.140 164.1768
3890.515869 100.164 164.3332
3918.708252 100.193 164.4761
3947.104736 100.230 164.5940
3975.707031 100.273 164.6707
4004.516602 100.323 164.6883
4033.534912 100.378 164.6296
4062.763672 100.435 164.4831
4092.204102 100.493 164.2447
4121.857910 100.548 163.9128
4151.726562 100.600 163.4843
4181.811523 100.645 162.9551
4212.114746 100.681 162.3250
4242.637695 100.703 161.6031
4273.381836 100.708 160.8065
4304.348633 100.693 159.9548
4335.539551 100.657 159.0692
4366.956543 100.598 158.1724
4398.601074 100.515 157.2910
4430.475098 100.407 156.4564
4462.580078 100.274 155.7081
4494.917969 100.118 155.0892
4527.490234 99.944 154.6371
4560.298340 99.758 154.3755
4593.344238 99.567 154.3132
4626.629395 99.379 154.4477
4660.155762 99.200 154.7671
4693.925293 99.038 155.2462
4727.939453 98.895 155.8475
4762.200195 98.774 156.5253
4796.708984 98.675 157.2344
4831.467773 98.596 157.9397
4866.478516 98.533 158.6238
4901.743164 98.482 159.2832
4937.263184 98.442 159.9189
4973.040527 98.411 160.5313
5009.077148 98.390 161.1217
5045.375000 98.377 161.6910
5081.936035 98.375 162.2344
5118.761719 98.384 162.7373
5155.854492 98.403 163.1775
5193.215820 98.432 163.5305
5230.848145 98.466 163.7780
5268.752930 98.500 163.9137
5306.932617 98.531 163.9423
5345.388672 98.554 163.8741
5384.123535 98.566 163.7244
5423.139160 98.565 163.5164
5462.437500 98.548 163.2794
5502.020508 98.516 163.0435
5541.890625 98.470 162.8329
5582.049316 98.415 162.6626
5622.499023 98.352 162.5387
5663.242188 98.284 162.4639
5704.280273 98.212 162.4376
5745.615723 98.137 162.4541
5787.250977 98.059 162.5067
5829.187988 97.979 162.5934
5871.428711 97.893 162.7189
5913.975586 97.804 162.8919
5956.830566 97.711 163.1191
5999.996094 97.616 163.4028
6043.474609 97.518 163.7447
6087.268066 97.420 164.1518
6131.378906 97.321 164.6357
6175.809570 97.225 165.2108
6220.562012 97.132 165.8917
6265.638672 97.046 166.6889
6311.041992 96.973 167.6014
6356.774414 96.917 168.6113
6402.838379 96.882 169.6858
6449.235840 96.870 170.7874
6495.969727 96.881 171.8817
6543.041992 96.912 172.9409
6590.455566 96.961 173.9471
6638.212891 97.024 174.8934
6686.315918 97.100 175.7825
6734.767578 97.189 176.6210
6783.570312 97.289 177.4138
6832.727051 97.404 178.1607
6882.239746 97.534 178.8541
6932.111328 97.680 179.4767
6982.344238 97.844 -179.9946
7032.941406 98.024 -179.5831
7083.904785 98.219 -179.3086
7135.237793 98.425 -179.1884
7186.942871 98.642 -179.2378
7239.022461 98.867 -179.4704
7291.479492 99.099 -179.9011
7344.316406 99.334 179.4512
7397.536133 99.569 178.5677
7451.141602 99.798 177.4347
7505.135742 100.016 176.0459
7559.520996 100.217 174.4010
7614.300293 100.396 172.5052
7669.476562 100.547 170.3687
7725.052734 100.666 168.0048
7781.031738 100.745 165.4303
7837.416504 100.779 162.6707
7894.209473 100.760 159.7621
7951.414062 100.684 156.7505
8009.033203 100.544 153.6931
8067.069824 100.338 150.6588
8125.527344 100.063 147.7257
8184.408203 99.722 144.9771
8243.715820 99.321 142.4903
8303.453125 98.870 140.3206
8363.623047 98.383 138.4864
8424.229492 97.868 136.9749
8485.275391 97.335 135.7605
8546.763672 96.785 134.8206
8608.697266 96.219 134.1454
8671.079102 95.637 133.7432
8733.913086 95.040 133.6339
8797.202148 94.430 133.8322
8860.950195 93.812 134.3327
8925.160156 93.188 135.1091
8989.835938 92.556 136.1411
9054.980469 91.907 137.4656
9120.596680 91.231 139.2250
9186.688477 90.526 141.6855
9253.258789 89.806 145.2090
9320.311523 89.113 150.1750
9387.850586 88.515 156.8398
9455.878906 88.101 165.1052
9524.400391 87.947 174.2849
9593.417969 88.080 -176.7778
9662.935547 88.461 -169.1370
9732.957031 89.004 -163.2835
9803.486328 89.625 -159.1906
9874.526367 90.253 -156.5919
9946.081055 90.843 -155.1770
10018.154297 91.362 -154.6582
10090.750000 91.787 -154.7675
10163.872070 92.106 -155.2281
10237.523438 92.315 -155.7259
10311.708984 92.429 -155.9047
10386.431641 92.488 -155.4046
10461.696289 92.557 -153.9536
10537.505859 92.720 -151.5034
10613.865234 93.050 -148.3498
10690.777344 93.581 -145.1051
10768.247070 94.294 -142.4669
10846.278320 95.127 -140.9512
10924.875000 96.014 -140.7990
11004.041016 96.892 -142.0406
11083.781250 97.707 -144.5887
11164.098633 98.419 -148.2890
11244.998047 98.994 -152.9364
11326.484375 99.407 -158.2839
11408.560547 99.649 -164.0619
11491.231445 99.718 -170.0086
11574.501953 99.624 -175.8940
11658.375977 99.381 178.4703
11742.857422 99.008 173.2289
11827.951172 98.524 168.4839
11913.661133 97.952 164.2932
11999.992188 97.312 160.6706
12086.949219 96.621 157.5929
12174.536133 95.890 155.0145
12262.757812 95.125 152.8967
12351.619141 94.320 151.2500
12441.124023 93.465 150.1825
12531.277344 92.553 149.9299
12622.083984 91.590 150.8379
12713.548828 90.606 153.2674
12805.676758 89.664 157.4195
12898.471680 88.845 163.1439
12991.939453 88.230 169.8740
13086.083984 87.867 176.7952
13180.911133 87.754 -176.8597
13276.425781 87.845 -171.6064
13372.631836 88.070 -167.6677
13469.535156 88.353 -165.0239
13567.140625 88.625 -163.4773
13665.454102 88.841 -162.6984
13764.479492 88.977 -162.2687
13864.222656 89.045 -161.7495
13964.688477 89.091 -160.8115
14065.882812 89.183 -159.3948
14167.809570 89.379 -157.7899
14270.475586 89.700 -156.5282
14373.885742 90.116 -156.1344
14478.044922 90.560 -156.9333
14582.958984 90.956 -159.0013
14688.632812 91.228 -162.1925
14795.072266 91.316 -166.1782
14902.283203 91.179 -170.4887
15010.271484 90.802 -174.5675
15119.041992 90.199 -177.8451
15228.600586 89.413 -179.8271
15338.953125 88.509 179.8149
15450.105469 87.571 -178.8420
15562.063477 86.683 -176.0150
15674.833008 85.917 -172.1441
15788.418945 85.313 -167.7157
15902.828125 84.881 -163.1113
16018.066406 84.612 -158.5827
16134.139648 84.488 -154.3063
16251.054688 84.486 -150.4324
16368.816406 84.581 -147.0914
16487.431641 84.744 -144.3700
16606.906250 84.945 -142.2917
16727.246094 85.159 -140.8183
16848.458984 85.367 -139.8701
16970.550781 85.556 -139.3539
17093.527344 85.720 -139.1823
17217.394531 85.854 -139.2799
17342.158203 85.959 -139.5865
17467.826172 86.038 -140.0613
17594.404297 86.092 -140.6820
17721.900391 86.125 -141.4417
17850.320312 86.136 -142.3441
17979.671875 86.128 -143.4006
18109.960938 86.102 -144.6274
18241.193359 86.059 -146.0461
18373.376953 86.002 -147.6829
18506.517578 85.929 -149.5733
18640.623047 85.836 -151.7650
18775.701172 85.711 -154.3068
18911.757812 85.538 -157.2247
19048.800781 85.296 -160.4996
19186.835938 84.972 -164.0633
19325.871094 84.556 -167.8102
19465.914062 84.058 -171.6094
19606.972656 83.503 -175.2910
19749.052734 82.946 -178.6065
19892.162109 82.478 178.8004
20036.308594 82.205 177.3487
