* Measurement data measured by REW V5.31.3
* Source: EXCL: Microphone (USB Sound Device        ), MICROPHONE (Master Volume), R, volume: 0.390
* Format: 256k Log Swept Sine, 1 sweep at -12.0 dBFS with no timing reference
* Dated: Apr 16, 2025 11:52:03 PM
* REW Settings:
*  C-weighting compensation: Off
*  Target level: 75.0 dB
* Note: LetShuoer DX1 L
* Measurement: L LetShuoer DX1
* Smoothing: 1/12 octave
* Frequency Step: 96 ppo
* Start Frequency: 0.36621094 Hz
*
* Freq(Hz) SPL(dB) Phase(degrees)
0.366211 87.111 -108.7404
0.368865 87.126 -108.7827
0.371538 87.148 -108.8456
0.374230 87.176 -108.9242
0.376942 87.207 -109.0137
0.379673 87.240 -109.1111
0.382424 87.274 -109.2141
0.385196 87.310 -109.3214
0.387987 87.346 -109.4321
0.390798 87.383 -109.5460
0.393630 87.420 -109.6627
0.396483 87.457 -109.7820
0.399356 87.494 -109.9039
0.402250 87.532 -110.0284
0.405165 87.570 -110.1553
0.408101 87.609 -110.2848
0.411058 87.647 -110.4166
0.414037 87.686 -110.5509
0.417037 87.725 -110.6875
0.420059 87.765 -110.8265
0.423103 87.805 -110.9678
0.426169 87.845 -111.1113
0.429257 87.885 -111.2571
0.432368 87.926 -111.4050
0.435501 87.967 -111.5552
0.438656 88.008 -111.7074
0.441835 88.049 -111.8618
0.445037 88.091 -112.0181
0.448262 88.133 -112.1765
0.451510 88.176 -112.3368
0.454782 88.219 -112.4990
0.458077 88.262 -112.6631
0.461397 88.305 -112.8290
0.464740 88.349 -112.9967
0.468108 88.393 -113.1660
0.471500 88.437 -113.3371
0.474917 88.482 -113.5098
0.478358 88.527 -113.6840
0.481825 88.572 -113.8598
0.485316 88.618 -114.0371
0.488833 88.664 -114.2157
0.492375 88.710 -114.3958
0.495943 88.757 -114.5772
0.499537 88.804 -114.7599
0.503157 88.851 -114.9438
0.506803 88.899 -115.1289
0.510475 88.947 -115.3151
0.514175 88.995 -115.5024
0.517900 89.044 -115.6908
0.521653 89.093 -115.8801
0.525434 89.142 -116.0704
0.529241 89.192 -116.2616
0.533076 89.242 -116.4537
0.536939 89.293 -116.6466
0.540830 89.344 -116.8402
0.544749 89.395 -117.0346
0.548696 89.446 -117.2297
0.552673 89.498 -117.4254
0.556677 89.551 -117.6217
0.560711 89.603 -117.8187
0.564774 89.657 -118.0161
0.568867 89.710 -118.2141
0.572989 89.764 -118.4126
0.577141 89.818 -118.6115
0.581324 89.873 -118.8108
0.585536 89.928 -119.0105
0.589779 89.983 -119.2106
0.594053 90.039 -119.4111
0.598358 90.096 -119.6119
0.602694 90.152 -119.8130
0.607061 90.209 -120.0144
0.611460 90.267 -120.2160
0.615891 90.325 -120.4179
0.620354 90.383 -120.6201
0.624849 90.442 -120.8226
0.629377 90.501 -121.0253
0.633938 90.561 -121.2282
0.638532 90.621 -121.4314
0.643159 90.681 -121.6348
0.647819 90.742 -121.8385
0.652514 90.804 -122.0425
0.657242 90.865 -122.2467
0.662005 90.928 -122.4512
0.666802 90.990 -122.6560
0.671634 91.054 -122.8612
0.676501 91.117 -123.0667
0.681403 91.181 -123.2727
0.686341 91.246 -123.4790
0.691314 91.311 -123.6858
0.696324 91.376 -123.8932
0.701370 91.441 -124.1011
0.706452 91.507 -124.3098
0.711571 91.572 -124.5193
0.716728 91.636 -124.7299
0.721921 91.699 -124.9418
0.727153 91.759 -125.1555
0.732422 91.815 -125.3714
0.737729 91.868 -125.5903
0.743075 91.917 -125.8126
0.748460 91.963 -126.0387
0.753883 92.007 -126.2690
0.759346 92.049 -126.5035
0.764849 92.090 -126.7423
0.770391 92.130 -126.9854
0.775974 92.169 -127.2327
0.781597 92.207 -127.4840
0.787261 92.244 -127.7393
0.792966 92.281 -127.9984
0.798712 92.317 -128.2612
0.804500 92.352 -128.5276
0.810329 92.386 -128.7973
0.816201 92.420 -129.0703
0.822116 92.453 -129.3463
0.828073 92.485 -129.6253
0.834074 92.516 -129.9071
0.840118 92.547 -130.1915
0.846206 92.577 -130.4784
0.852338 92.606 -130.7676
0.858514 92.634 -131.0589
0.864735 92.661 -131.3522
0.871001 92.688 -131.6472
0.877313 92.714 -131.9440
0.883670 92.739 -132.2422
0.890074 92.763 -132.5416
0.896524 92.787 -132.8423
0.903020 92.810 -133.1438
0.909564 92.831 -133.4462
0.916155 92.853 -133.7491
0.922794 92.873 -134.0524
0.929481 92.892 -134.3560
0.936216 92.911 -134.6597
0.943000 92.929 -134.9633
0.949834 92.946 -135.2665
0.956717 92.962 -135.5693
0.963649 92.977 -135.8714
0.970632 92.992 -136.1727
0.977666 93.006 -136.4729
0.984750 93.019 -136.7720
0.991886 93.031 -137.0696
0.999074 93.043 -137.3656
1.006314 93.053 -137.6598
1.013606 93.063 -137.9521
1.020951 93.073 -138.2421
1.028349 93.081 -138.5298
1.035801 93.089 -138.8150
1.043307 93.096 -139.0974
1.050867 93.102 -139.3770
1.058482 93.108 -139.6537
1.066152 93.113 -139.9274
1.073878 93.117 -140.1984
1.081660 93.120 -140.4671
1.089498 93.123 -140.7342
1.097393 93.125 -141.0008
1.105345 93.126 -141.2684
1.113355 93.126 -141.5385
1.121423 93.125 -141.8124
1.129549 93.124 -142.0909
1.137734 93.121 -142.3746
1.145979 93.117 -142.6639
1.154283 93.112 -142.9590
1.162647 93.105 -143.2597
1.171072 93.098 -143.5660
1.179558 93.089 -143.8777
1.188106 93.079 -144.1948
1.196715 93.067 -144.5168
1.205387 93.055 -144.8437
1.214122 93.040 -145.1751
1.222920 93.024 -145.5108
1.231782 93.007 -145.8503
1.240708 92.988 -146.1933
1.249699 92.968 -146.5395
1.258754 92.946 -146.8883
1.267876 92.922 -147.2393
1.277063 92.896 -147.5920
1.286318 92.869 -147.9458
1.295639 92.840 -148.3000
1.305027 92.809 -148.6541
1.314484 92.776 -149.0071
1.324009 92.741 -149.3585
1.333604 92.703 -149.7072
1.343268 92.664 -150.0525
1.353002 92.623 -150.3932
1.362806 92.579 -150.7283
1.372681 92.533 -151.0567
1.382628 92.484 -151.3771
1.392647 92.433 -151.6883
1.402739 92.380 -151.9889
1.412904 92.324 -152.2777
1.423142 92.265 -152.5535
1.433455 92.203 -152.8152
1.443843 92.138 -153.0623
1.454305 92.070 -153.2948
1.464844 91.998 -153.5132
1.475459 91.922 -153.7189
1.486150 91.841 -153.9133
1.496920 91.755 -154.0978
1.507767 91.665 -154.2731
1.518693 91.569 -154.4396
1.529698 91.469 -154.5974
1.540783 91.364 -154.7461
1.551948 91.254 -154.8852
1.563194 91.140 -155.0140
1.574521 91.022 -155.1317
1.585931 90.900 -155.2373
1.597423 90.775 -155.3297
1.608999 90.646 -155.4077
1.620658 90.514 -155.4702
1.632402 90.380 -155.5155
1.644232 90.243 -155.5421
1.656146 90.105 -155.5483
1.668147 89.964 -155.5322
1.680235 89.823 -155.4917
1.692411 89.681 -155.4245
1.704675 89.538 -155.3283
1.717028 89.396 -155.2002
1.729470 89.254 -155.0375
1.742003 89.113 -154.8370
1.754626 88.974 -154.5953
1.767341 88.837 -154.3088
1.780147 88.701 -153.9735
1.793047 88.568 -153.5852
1.806040 88.437 -153.1392
1.819128 88.308 -152.6305
1.832310 88.178 -152.0537
1.845587 88.048 -151.4027
1.858961 87.916 -150.6714
1.872432 87.780 -149.8537
1.886001 87.641 -148.9432
1.899667 87.499 -147.9338
1.913433 87.353 -146.8197
1.927299 87.205 -145.5951
1.941265 87.056 -144.2545
1.955332 86.906 -142.7933
1.969501 86.758 -141.2075
1.983773 86.611 -139.4945
1.998148 86.468 -137.6531
2.012627 86.329 -135.6847
2.027212 86.198 -133.5928
2.041902 86.074 -131.3844
2.056698 85.960 -129.0698
2.071602 85.858 -126.6628
2.086614 85.769 -124.1811
2.101734 85.695 -121.6454
2.116964 85.640 -119.0790
2.132304 85.603 -116.5062
2.147756 85.589 -113.9512
2.163320 85.598 -111.4359
2.178996 85.634 -108.9784
2.194786 85.698 -106.5917
2.210690 85.792 -104.2846
2.226710 85.916 -102.0629
2.242845 86.070 -99.9326
2.259098 86.253 -97.9000
2.275468 86.463 -95.9717
2.291957 86.699 -94.1536
2.308566 86.957 -92.4504
2.325295 87.236 -90.8650
2.342145 87.532 -89.3987
2.359117 87.842 -88.0510
2.376212 88.163 -86.8203
2.393431 88.493 -85.7037
2.410775 88.827 -84.6978
2.428244 89.162 -83.7986
2.445840 89.496 -83.0017
2.463564 89.826 -82.3027
2.481416 90.147 -81.6971
2.499397 90.459 -81.1805
2.517509 90.759 -80.7485
2.535752 91.046 -80.3967
2.554127 91.321 -80.1207
2.572635 91.584 -79.9156
2.591277 91.838 -79.7765
2.610055 92.083 -79.6984
2.628968 92.323 -79.6762
2.648019 92.558 -79.7048
2.667208 92.788 -79.7795
2.686535 93.014 -79.8957
2.706003 93.236 -80.0491
2.725612 93.454 -80.2359
2.745363 93.668 -80.4525
2.765257 93.878 -80.6955
2.785295 94.084 -80.9623
2.805478 94.286 -81.2503
2.825808 94.483 -81.5574
2.846285 94.676 -81.8822
2.866910 94.864 -82.2238
2.887685 95.048 -82.5823
2.908611 95.226 -82.9584
2.929688 95.399 -83.3537
2.950917 95.566 -83.7701
2.972301 95.727 -84.2093
2.993839 95.882 -84.6713
3.015534 96.031 -85.1555
3.037386 96.174 -85.6597
3.059396 96.312 -86.1814
3.081565 96.444 -86.7176
3.103896 96.571 -87.2652
3.126388 96.694 -87.8210
3.149043 96.812 -88.3821
3.171862 96.926 -88.9456
3.194847 97.036 -89.5093
3.217998 97.143 -90.0716
3.241317 97.247 -90.6315
3.264805 97.347 -91.1896
3.288463 97.444 -91.7473
3.312293 97.537 -92.3073
3.336295 97.626 -92.8726
3.360471 97.711 -93.4451
3.384822 97.791 -94.0256
3.409350 97.867 -94.6135
3.434056 97.938 -95.2073
3.458940 98.005 -95.8045
3.484005 98.068 -96.4023
3.509252 98.128 -96.9978
3.534681 98.185 -97.5878
3.560295 98.238 -98.1695
3.586094 98.289 -98.7404
3.612081 98.337 -99.2990
3.638255 98.383 -99.8446
3.664620 98.426 -100.3779
3.691175 98.465 -100.9005
3.717923 98.502 -101.4145
3.744864 98.535 -101.9215
3.772001 98.565 -102.4223
3.799335 98.591 -102.9168
3.826866 98.615 -103.4045
3.854597 98.636 -103.8841
3.882529 98.655 -104.3541
3.910664 98.673 -104.8129
3.939002 98.689 -105.2585
3.967546 98.704 -105.6893
3.996296 98.718 -106.1038
4.025255 98.731 -106.5011
4.054423 98.742 -106.8810
4.083804 98.753 -107.2439
4.113396 98.762 -107.5905
4.143204 98.770 -107.9220
4.173227 98.777 -108.2394
4.203468 98.783 -108.5440
4.233928 98.789 -108.8368
4.264609 98.795 -109.1187
4.295512 98.801 -109.3904
4.326639 98.809 -109.6521
4.357992 98.817 -109.9037
4.389572 98.827 -110.1446
4.421380 98.838 -110.3741
4.453419 98.850 -110.5917
4.485691 98.864 -110.7978
4.518196 98.878 -110.9936
4.550936 98.894 -111.1815
4.583914 98.911 -111.3639
4.617131 98.930 -111.5440
4.650589 98.950 -111.7247
4.684289 98.971 -111.9085
4.718233 98.995 -112.0972
4.752424 99.020 -112.2919
4.786862 99.047 -112.4925
4.821549 99.076 -112.6988
4.856488 99.107 -112.9106
4.891680 99.140 -113.1287
4.927127 99.174 -113.3541
4.962831 99.210 -113.5889
4.998794 99.246 -113.8350
5.035017 99.282 -114.0947
5.071503 99.319 -114.3699
5.108253 99.356 -114.6622
5.145270 99.393 -114.9721
5.182555 99.431 -115.3000
5.220110 99.468 -115.6452
5.257937 99.506 -116.0070
5.296038 99.542 -116.3845
5.334415 99.579 -116.7770
5.373071 99.614 -117.1838
5.412006 99.647 -117.6047
5.451224 99.679 -118.0397
5.490725 99.709 -118.4894
5.530514 99.737 -118.9540
5.570590 99.763 -119.4336
5.610957 99.787 -119.9273
5.651616 99.809 -120.4333
5.692570 99.828 -120.9493
5.733821 99.845 -121.4728
5.775370 99.859 -122.0015
5.817221 99.871 -122.5339
5.859375 99.880 -123.0689
5.901834 99.886 -123.6066
5.944602 99.890 -124.1468
5.987679 99.890 -124.6888
6.031068 99.888 -125.2311
6.074771 99.884 -125.7716
6.118792 99.877 -126.3076
6.163131 99.868 -126.8369
6.207792 99.858 -127.3575
6.252776 99.845 -127.8684
6.298086 99.831 -128.3693
6.343725 99.815 -128.8602
6.389694 99.797 -129.3409
6.435996 99.779 -129.8111
6.482634 99.760 -130.2701
6.529610 99.741 -130.7170
6.576926 99.722 -131.1510
6.624585 99.703 -131.5715
6.672590 99.685 -131.9786
6.720942 99.667 -132.3730
6.769645 99.650 -132.7561
6.818700 99.634 -133.1296
6.868111 99.620 -133.4952
6.917881 99.608 -133.8543
6.968010 99.597 -134.2078
7.018504 99.589 -134.5564
7.069362 99.582 -134.9010
7.120590 99.578 -135.2434
7.172189 99.576 -135.5857
7.224161 99.576 -135.9305
7.276511 99.578 -136.2802
7.329239 99.582 -136.6363
7.382350 99.587 -137.0000
7.435845 99.594 -137.3719
7.489729 99.603 -137.7527
7.544002 99.613 -138.1430
7.598669 99.624 -138.5438
7.653732 99.635 -138.9560
7.709194 99.646 -139.3800
7.765058 99.657 -139.8159
7.821327 99.669 -140.2631
7.878004 99.679 -140.7206
7.935091 99.690 -141.1868
7.992592 99.699 -141.6606
8.050510 99.706 -142.1409
8.108847 99.713 -142.6265
8.167607 99.718 -143.1165
8.226793 99.722 -143.6090
8.286408 99.724 -144.1021
8.346454 99.724 -144.5933
8.406936 99.723 -145.0807
8.467856 99.721 -145.5628
8.529218 99.717 -146.0383
8.591024 99.712 -146.5061
8.653278 99.705 -146.9650
8.715983 99.698 -147.4135
8.779143 99.691 -147.8504
8.842760 99.683 -148.2750
8.906839 99.675 -148.6870
8.971381 99.668 -149.0866
9.036392 99.660 -149.4741
9.101873 99.653 -149.8501
9.167829 99.647 -150.2149
9.234263 99.642 -150.5693
9.301178 99.638 -150.9142
9.368578 99.636 -151.2511
9.436467 99.634 -151.5813
9.504847 99.634 -151.9065
9.573723 99.635 -152.2280
9.643099 99.637 -152.5468
9.712976 99.640 -152.8639
9.783361 99.644 -153.1806
9.854255 99.649 -153.4979
9.925663 99.654 -153.8166
9.997588 99.660 -154.1370
10.070035 99.665 -154.4594
10.143007 99.671 -154.7835
10.216507 99.676 -155.1093
10.290540 99.681 -155.4365
10.365109 99.685 -155.7645
10.440219 99.688 -156.0928
10.515873 99.690 -156.4204
10.592076 99.692 -156.7466
10.668830 99.692 -157.0705
10.746141 99.692 -157.3915
10.824012 99.691 -157.7090
10.902447 99.689 -158.0225
10.981451 99.686 -158.3315
11.061027 99.682 -158.6358
11.141180 99.678 -158.9352
11.221913 99.673 -159.2299
11.303232 99.667 -159.5202
11.385140 99.662 -159.8064
11.467641 99.656 -160.0889
11.550741 99.649 -160.3681
11.634442 99.642 -160.6448
11.718750 99.635 -160.9194
11.803669 99.628 -161.1923
11.889203 99.620 -161.4641
11.975357 99.611 -161.7350
12.062136 99.602 -162.0052
12.149543 99.593 -162.2749
12.237583 99.582 -162.5442
12.326262 99.572 -162.8129
12.415583 99.560 -163.0810
12.505552 99.548 -163.3484
12.596172 99.535 -163.6150
12.687449 99.522 -163.8807
12.779387 99.508 -164.1457
12.871992 99.494 -164.4101
12.965268 99.480 -164.6741
13.059220 99.465 -164.9381
13.153852 99.450 -165.2027
13.249170 99.436 -165.4685
13.345179 99.421 -165.7361
13.441884 99.406 -166.0063
13.539289 99.391 -166.2796
13.637401 99.376 -166.5566
13.736223 99.361 -166.8377
13.835761 99.345 -167.1232
13.936021 99.330 -167.4132
14.037007 99.314 -167.7075
14.138725 99.297 -168.0057
14.241180 99.280 -168.3074
14.344377 99.263 -168.6117
14.448323 99.245 -168.9179
14.553021 99.226 -169.2254
14.658478 99.208 -169.5331
14.764700 99.189 -169.8406
14.871691 99.170 -170.1472
14.979457 99.151 -170.4527
15.088005 99.132 -170.7570
15.197339 99.114 -171.0600
15.307465 99.097 -171.3622
15.418389 99.080 -171.6640
15.530117 99.064 -171.9658
15.642655 99.048 -172.2682
15.756008 99.034 -172.5717
15.870182 99.020 -172.8765
15.985184 99.006 -173.1828
16.101019 98.993 -173.4906
16.217694 98.981 -173.7995
16.335214 98.968 -174.1089
16.453586 98.956 -174.4182
16.572815 98.944 -174.7266
16.692909 98.932 -175.0332
16.813872 98.921 -175.3371
16.935713 98.909 -175.6375
17.058436 98.898 -175.9341
17.182048 98.887 -176.2262
17.306556 98.876 -176.5138
17.431967 98.866 -176.7969
17.558286 98.856 -177.0755
17.685521 98.846 -177.3498
17.813677 98.837 -177.6202
17.942762 98.827 -177.8868
18.072783 98.818 -178.1497
18.203746 98.809 -178.4089
18.335658 98.800 -178.6642
18.468526 98.790 -178.9156
18.602356 98.780 -179.1625
18.737156 98.770 -179.4048
18.872934 98.759 -179.6422
19.009695 98.748 -179.8745
19.147447 98.736 179.8984
19.286197 98.724 179.6765
19.425953 98.712 179.4594
19.566721 98.699 179.2468
19.708510 98.685 179.0385
19.851326 98.672 178.8339
19.995177 98.657 178.6326
20.140070 98.642 178.4343
20.286013 98.627 178.2385
20.433014 98.611 178.0449
20.581080 98.595 177.8528
20.730219 98.578 177.6617
20.880439 98.561 177.4709
21.031747 98.543 177.2796
21.184152 98.525 177.0870
21.337661 98.507 176.8923
21.492282 98.488 176.6948
21.648024 98.468 176.4940
21.804895 98.448 176.2898
21.962902 98.427 176.0825
22.122054 98.405 175.8728
22.282360 98.382 175.6615
22.443827 98.358 175.4499
22.606464 98.334 175.2390
22.770280 98.309 175.0297
22.935283 98.285 174.8225
23.101481 98.260 174.6174
23.268884 98.236 174.4141
23.437500 98.213 174.2114
23.607338 98.190 174.0082
23.778406 98.169 173.8032
23.950714 98.148 173.5951
24.124271 98.128 173.3834
24.299086 98.109 173.1678
24.475167 98.090 172.9487
24.652524 98.071 172.7270
24.831166 98.052 172.5041
25.011103 98.034 172.2813
25.192344 98.015 172.0601
25.374898 97.996 171.8416
25.558775 97.978 171.6268
25.743984 97.960 171.4162
25.930536 97.942 171.2102
26.118439 97.924 171.0090
26.307704 97.907 170.8129
26.498341 97.889 170.6219
26.690359 97.872 170.4364
26.883768 97.854 170.2566
27.078579 97.837 170.0827
27.274801 97.819 169.9148
27.472446 97.801 169.7527
27.671522 97.783 169.5961
27.872042 97.765 169.4446
28.074014 97.747 169.2977
28.277450 97.728 169.1549
28.482360 97.709 169.0159
28.688755 97.689 168.8804
28.896645 97.669 168.7482
29.106042 97.648 168.6190
29.316957 97.627 168.4924
29.529400 97.605 168.3676
29.743382 97.583 168.2441
29.958915 97.561 168.1207
30.176009 97.538 167.9967
30.394677 97.515 167.8714
30.614929 97.492 167.7441
30.836778 97.468 167.6148
31.060234 97.444 167.4832
31.285309 97.420 167.3495
31.512015 97.396 167.2138
31.740364 97.371 167.0761
31.970368 97.347 166.9363
32.202039 97.322 166.7947
32.435388 97.298 166.6512
32.670428 97.273 166.5060
32.907171 97.249 166.3595
33.145630 97.225 166.2122
33.385817 97.202 166.0645
33.627745 97.178 165.9173
33.871425 97.154 165.7711
34.116871 97.131 165.6267
34.364096 97.107 165.4850
34.613113 97.084 165.3467
34.863934 97.061 165.2125
35.116572 97.038 165.0829
35.371041 97.015 164.9581
35.627354 96.992 164.8380
35.885525 96.969 164.7222
36.145566 96.947 164.6103
36.407492 96.924 164.5016
36.671316 96.902 164.3956
36.937051 96.879 164.2920
37.204712 96.856 164.1907
37.474313 96.832 164.0917
37.745867 96.808 163.9951
38.019389 96.784 163.9010
38.294893 96.759 163.8094
38.572394 96.733 163.7203
38.851905 96.708 163.6335
39.133442 96.682 163.5487
39.417019 96.655 163.4659
39.702651 96.629 163.3849
39.990353 96.603 163.3058
40.280140 96.576 163.2286
40.572026 96.550 163.1532
40.866028 96.524 163.0790
41.162160 96.498 163.0056
41.460438 96.473 162.9320
41.760877 96.447 162.8580
42.063494 96.422 162.7833
42.368303 96.397 162.7086
42.675322 96.372 162.6351
42.984565 96.347 162.5639
43.296048 96.321 162.4962
43.609789 96.296 162.4324
43.925804 96.270 162.3724
44.244108 96.245 162.3157
44.564719 96.220 162.2615
44.887654 96.195 162.2087
45.212928 96.171 162.1566
45.540560 96.146 162.1049
45.870565 96.121 162.0532
46.202962 96.097 162.0014
46.537768 96.071 161.9497
46.875000 96.046 161.8985
47.214676 96.020 161.8481
47.556813 95.994 161.7987
47.901429 95.968 161.7505
48.248542 95.942 161.7035
48.598171 95.916 161.6577
48.950334 95.890 161.6133
49.305048 95.863 161.5710
49.662333 95.837 161.5316
50.022206 95.810 161.4963
50.384688 95.783 161.4656
50.749796 95.756 161.4399
51.117550 95.730 161.4188
51.487969 95.703 161.4019
51.861072 95.678 161.3884
52.236879 95.652 161.3779
52.615409 95.626 161.3702
52.996681 95.601 161.3647
53.380717 95.576 161.3605
53.767536 95.552 161.3566
54.157158 95.527 161.3524
54.549603 95.502 161.3477
54.944892 95.478 161.3430
55.343045 95.453 161.3386
55.744084 95.429 161.3343
56.148028 95.405 161.3288
56.554900 95.381 161.3209
56.964720 95.358 161.3100
57.377510 95.334 161.2974
57.793291 95.309 161.2850
58.212085 95.284 161.2747
58.633914 95.259 161.2672
59.058799 95.235 161.2618
59.486764 95.210 161.2576
59.917829 95.185 161.2544
60.352019 95.159 161.2531
60.789354 95.133 161.2552
61.229859 95.107 161.2617
61.673556 95.081 161.2725
62.120468 95.055 161.2869
62.570618 95.029 161.3037
63.024031 95.003 161.3226
63.480729 94.977 161.3432
63.940736 94.951 161.3656
64.404077 94.926 161.3895
64.870776 94.902 161.4142
65.340856 94.878 161.4388
65.814343 94.854 161.4623
66.291261 94.831 161.4839
66.771635 94.807 161.5038
67.255489 94.783 161.5234
67.742850 94.759 161.5455
68.233743 94.734 161.5728
68.728193 94.710 161.6067
69.226226 94.686 161.6460
69.727867 94.663 161.6876
70.233144 94.641 161.7273
70.742083 94.620 161.7626
71.254709 94.599 161.7933
71.771050 94.577 161.8209
72.291132 94.554 161.8481
72.814984 94.532 161.8775
73.342631 94.509 161.9112
73.874102 94.486 161.9503
74.409424 94.464 161.9943
74.948626 94.443 162.0416
75.491734 94.423 162.0898
76.038779 94.403 162.1375
76.589787 94.384 162.1852
77.144788 94.364 162.2347
77.703811 94.346 162.2880
78.266885 94.327 162.3451
78.834039 94.310 162.4027
79.405303 94.295 162.4561
79.980706 94.280 162.5009
80.560280 94.264 162.5360
81.144053 94.248 162.5634
81.732056 94.231 162.5858
82.324320 94.213 162.6053
82.920876 94.193 162.6229
83.521755 94.171 162.6406
84.126988 94.148 162.6621
84.736607 94.124 162.6902
85.350643 94.100 162.7240
85.969129 94.075 162.7608
86.592097 94.050 162.7994
87.219579 94.025 162.8419
87.851608 93.999 162.8915
88.488217 93.973 162.9493
89.129439 93.949 163.0150
89.775308 93.924 163.0873
90.425856 93.901 163.1658
91.081119 93.878 163.2495
91.741131 93.857 163.3365
92.405925 93.835 163.4252
93.075536 93.814 163.5140
93.750000 93.793 163.6007
94.429351 93.773 163.6833
95.113625 93.752 163.7611
95.802858 93.731 163.8350
96.497085 93.710 163.9063
97.196342 93.688 163.9765
97.900667 93.667 164.0475
98.610096 93.647 164.1218
99.324665 93.626 164.2013
100.044413 93.607 164.2871
100.769376 93.588 164.3800
101.499592 93.569 164.4807
102.235100 93.551 164.5891
102.975938 93.534 164.7034
103.722144 93.517 164.8198
104.473757 93.501 164.9348
105.230817 93.485 165.0462
105.993363 93.470 165.1534
106.761435 93.455 165.2571
107.535072 93.440 165.3589
108.314315 93.425 165.4603
109.099206 93.410 165.5623
109.889783 93.395 165.6649
110.686090 93.380 165.7673
111.488167 93.363 165.8688
112.296056 93.345 165.9680
113.109800 93.324 166.0639
113.929440 93.302 166.1561
114.755020 93.278 166.2446
115.586582 93.253 166.3299
116.424170 93.228 166.4141
117.267827 93.203 166.5023
118.117598 93.180 166.6028
118.973527 93.160 166.7243
119.835658 93.145 166.8708
120.704037 93.137 167.0355
121.578708 93.134 167.2034
122.459718 93.135 167.3630
123.347111 93.137 167.5104
124.240935 93.138 167.6462
125.141236 93.137 167.7719
126.048061 93.134 167.8890
126.961458 93.128 167.9987
127.881473 93.121 168.1008
128.808154 93.112 168.1943
129.741551 93.103 168.2783
130.681712 93.094 168.3526
131.628686 93.084 168.4182
132.582521 93.072 168.4776
133.543269 93.059 168.5343
134.510979 93.044 168.5922
135.485701 93.029 168.6545
136.467486 93.012 168.7227
137.456386 92.995 168.7971
138.452451 92.978 168.8771
139.455735 92.962 168.9625
140.466288 92.946 169.0523
141.484165 92.930 169.1456
142.509418 92.914 169.2412
143.542100 92.898 169.3384
144.582265 92.882 169.4360
145.629968 92.866 169.5335
146.685262 92.849 169.6306
147.748204 92.833 169.7285
148.818849 92.816 169.8288
149.897251 92.799 169.9341
150.983469 92.781 170.0469
152.077557 92.763 170.1697
153.179574 92.746 170.3039
154.289576 92.730 170.4493
155.407622 92.715 170.6036
156.533770 92.702 170.7618
157.668078 92.691 170.9181
158.810606 92.681 171.0671
159.961413 92.673 171.2056
161.120559 92.665 171.3325
162.288105 92.657 171.4493
163.464112 92.647 171.5592
164.648640 92.637 171.6659
165.841752 92.626 171.7736
167.043510 92.614 171.8858
168.253976 92.601 172.0050
169.473213 92.587 172.1327
170.701286 92.574 172.2689
171.938258 92.562 172.4122
173.184194 92.551 172.5598
174.439158 92.540 172.7087
175.703216 92.531 172.8565
176.976434 92.523 173.0016
178.258878 92.515 173.1440
179.550615 92.507 173.2836
180.851713 92.500 173.4208
182.162239 92.492 173.5557
183.482262 92.485 173.6881
184.811850 92.478 173.8182
186.151073 92.471 173.9462
187.500000 92.463 174.0729
188.858702 92.454 174.1998
190.227250 92.445 174.3278
191.605715 92.436 174.4576
192.994169 92.425 174.5899
194.392685 92.415 174.7252
195.801334 92.404 174.8647
197.220191 92.393 175.0096
198.649330 92.383 175.1609
200.088825 92.374 175.3193
201.538751 92.366 175.4839
202.999184 92.360 175.6520
204.470200 92.355 175.8195
205.951875 92.352 175.9816
207.444287 92.349 176.1346
208.947514 92.346 176.2761
210.461634 92.343 176.4066
211.986726 92.339 176.5289
213.522869 92.333 176.6482
215.070144 92.326 176.7701
216.628631 92.319 176.8996
218.198411 92.311 177.0390
219.779567 92.304 177.1870
221.372180 92.298 177.3391
222.976334 92.293 177.4899
224.592112 92.288 177.6364
226.219600 92.284 177.7778
227.858880 92.280 177.9150
229.510039 92.276 178.0500
231.173164 92.271 178.1843
232.848340 92.266 178.3182
234.535655 92.262 178.4512
236.235197 92.257 178.5821
237.947054 92.251 178.7104
239.671317 92.246 178.8367
241.408074 92.239 178.9628
243.157416 92.231 179.0913
244.919435 92.223 179.2256
246.694223 92.213 179.3685
248.481871 92.203 179.5225
250.282473 92.193 179.6899
252.096123 92.183 179.8719
253.922915 92.175 -179.9334
255.762945 92.170 -179.7319
257.616309 92.167 -179.5338
259.483103 92.168 -179.3497
261.363424 92.169 -179.1852
263.257372 92.169 -179.0386
265.165043 92.168 -178.9028
267.086538 92.165 -178.7691
269.021957 92.161 -178.6297
270.971401 92.155 -178.4802
272.934972 92.150 -178.3199
274.912771 92.146 -178.1503
276.904902 92.143 -177.9739
278.911469 92.142 -177.7932
280.932577 92.142 -177.6107
282.968330 92.143 -177.4301
285.018835 92.147 -177.2569
287.084199 92.153 -177.0982
289.164530 92.159 -176.9600
291.259935 92.164 -176.8434
293.370525 92.168 -176.7432
295.496408 92.168 -176.6493
297.637697 92.166 -176.5522
299.794503 92.162 -176.4456
301.966937 92.156 -176.3275
304.155114 92.151 -176.1992
306.359147 92.145 -176.0643
308.579152 92.140 -175.9269
310.815244 92.135 -175.7906
313.067539 92.131 -175.6566
315.336156 92.125 -175.5233
317.621211 92.120 -175.3867
319.922826 92.114 -175.2419
322.241118 92.108 -175.0865
324.576210 92.103 -174.9211
326.928223 92.098 -174.7489
329.297280 92.095 -174.5735
331.683504 92.093 -174.3981
334.087019 92.091 -174.2249
336.507952 92.090 -174.0557
338.946427 92.089 -173.8911
341.402572 92.087 -173.7302
343.876516 92.085 -173.5706
346.368387 92.082 -173.4097
348.878315 92.078 -173.2458
351.406431 92.075 -173.0785
353.952867 92.072 -172.9083
356.517756 92.070 -172.7366
359.101230 92.067 -172.5645
361.703426 92.065 -172.3928
364.324478 92.064 -172.2217
366.964523 92.062 -172.0507
369.623699 92.060 -171.8789
372.302145 92.059 -171.7052
375.000000 92.058 -171.5289
377.717405 92.056 -171.3499
380.454501 92.055 -171.1685
383.211431 92.054 -170.9848
385.988339 92.053 -170.7993
388.785369 92.051 -170.6123
391.602668 92.050 -170.4241
394.440383 92.049 -170.2351
397.298660 92.048 -170.0458
400.177650 92.048 -169.8565
403.077502 92.048 -169.6685
405.998368 92.048 -169.4830
408.940400 92.048 -169.3003
411.903750 92.047 -169.1186
414.888575 92.047 -168.9348
417.895028 92.045 -168.7452
420.923268 92.044 -168.5472
423.973452 92.043 -168.3401
427.045738 92.044 -168.1257
430.140287 92.046 -167.9082
433.257261 92.050 -167.6922
436.396822 92.055 -167.4808
439.559133 92.061 -167.2743
442.744360 92.068 -167.0724
445.952668 92.077 -166.8770
449.184225 92.086 -166.6927
452.439199 92.095 -166.5255
455.717760 92.104 -166.3784
459.020079 92.110 -166.2476
462.346327 92.113 -166.1227
465.696680 92.113 -165.9916
469.071310 92.111 -165.8470
472.470394 92.108 -165.6870
475.894109 92.105 -165.5144
479.342634 92.103 -165.3350
482.816148 92.101 -165.1546
486.314833 92.098 -164.9750
489.838871 92.095 -164.7921
493.388445 92.091 -164.5986
496.963741 92.088 -164.3907
500.564945 92.085 -164.1718
504.192245 92.084 -163.9492
507.845830 92.085 -163.7294
511.525890 92.086 -163.5154
515.232618 92.087 -163.3058
518.966206 92.088 -163.0970
522.726849 92.087 -162.8844
526.514743 92.086 -162.6641
530.330086 92.086 -162.4342
534.173076 92.086 -162.1970
538.043915 92.087 -161.9569
541.942803 92.089 -161.7163
545.869944 92.091 -161.4746
549.825542 92.095 -161.2310
553.809805 92.099 -160.9874
557.822939 92.103 -160.7466
561.865154 92.108 -160.5107
565.936660 92.113 -160.2793
570.037671 92.117 -160.0493
574.168399 92.121 -159.8171
578.329060 92.125 -159.5805
582.519870 92.128 -159.3395
586.741049 92.131 -159.0944
590.992817 92.134 -158.8433
595.275394 92.138 -158.5839
599.589005 92.142 -158.3174
603.933874 92.148 -158.0482
608.310228 92.154 -157.7804
612.718295 92.160 -157.5148
617.158304 92.166 -157.2484
621.630488 92.171 -156.9749
626.135079 92.176 -156.6878
630.672311 92.181 -156.3849
635.242423 92.188 -156.0708
639.845651 92.197 -155.7522
644.482237 92.208 -155.4317
649.152421 92.220 -155.1087
653.856447 92.234 -154.7844
658.594560 92.252 -154.4649
663.367008 92.271 -154.1603
668.174039 92.292 -153.8784
673.015903 92.313 -153.6187
677.892854 92.331 -153.3734
682.805145 92.348 -153.1337
687.753032 92.362 -152.8929
692.736774 92.375 -152.6461
697.756631 92.387 -152.3890
702.812863 92.400 -152.1200
707.905735 92.412 -151.8412
713.035511 92.426 -151.5564
718.202461 92.441 -151.2684
723.406852 92.457 -150.9778
728.648956 92.472 -150.6834
733.929047 92.488 -150.3842
739.247399 92.505 -150.0800
744.604290 92.521 -149.7711
750.000000 92.539 -149.4575
755.434809 92.557 -149.1393
760.909001 92.576 -148.8167
766.422861 92.595 -148.4901
771.976677 92.616 -148.1604
777.570739 92.638 -147.8283
783.205337 92.661 -147.4936
788.880766 92.685 -147.1549
794.597321 92.710 -146.8092
800.355301 92.736 -146.4546
806.155005 92.766 -146.0927
811.996736 92.798 -145.7297
817.880799 92.835 -145.3747
823.807501 92.874 -145.0372
829.777150 92.915 -144.7252
835.790057 92.957 -144.4407
841.846536 92.997 -144.1770
847.946903 93.035 -143.9237
854.091476 93.071 -143.6726
860.280575 93.106 -143.4197
866.514523 93.140 -143.1620
872.793644 93.174 -142.8965
879.118267 93.209 -142.6227
885.488720 93.244 -142.3444
891.905336 93.281 -142.0650
898.368450 93.318 -141.7849
904.878398 93.355 -141.5024
911.435520 93.394 -141.2172
918.040157 93.434 -140.9312
924.692655 93.476 -140.6474
931.393359 93.520 -140.3690
938.142619 93.564 -140.0990
944.940787 93.610 -139.8388
951.788218 93.655 -139.5874
958.685268 93.701 -139.3424
965.632296 93.747 -139.1015
972.629666 93.793 -138.8627
979.677741 93.840 -138.6258
986.776890 93.887 -138.3913
993.927482 93.934 -138.1580
1001.129891 93.982 -137.9216
1008.384491 94.030 -137.6780
1015.691660 94.081 -137.4278
1023.051781 94.135 -137.1756
1030.465236 94.192 -136.9289
1037.932411 94.252 -136.6990
1045.453698 94.315 -136.4980
1053.029486 94.379 -136.3312
1060.660172 94.441 -136.1956
1068.346153 94.501 -136.0832
1076.087829 94.559 -135.9847
1083.885605 94.615 -135.8941
1091.739887 94.670 -135.8090
1099.651084 94.724 -135.7291
1107.619609 94.777 -135.6534
1115.645878 94.830 -135.5808
1123.730308 94.881 -135.5100
1131.873321 94.932 -135.4401
1140.075341 94.983 -135.3705
1148.336797 95.034 -135.3006
1156.658119 95.084 -135.2298
1165.039741 95.135 -135.1566
1173.482099 95.186 -135.0793
1181.985634 95.239 -134.9983
1190.550789 95.294 -134.9196
1199.178011 95.352 -134.8538
1207.867749 95.412 -134.8125
1216.620457 95.471 -134.8019
1225.436590 95.528 -134.8192
1234.316609 95.583 -134.8563
1243.260976 95.634 -134.9046
1252.270157 95.683 -134.9567
1261.344623 95.729 -135.0082
1270.484846 95.774 -135.0575
1279.691303 95.818 -135.1032
1288.964474 95.861 -135.1435
1298.304842 95.903 -135.1787
1307.712894 95.946 -135.2114
1317.189120 95.989 -135.2448
1326.734016 96.031 -135.2810
1336.348077 96.073 -135.3198
1346.031806 96.113 -135.3590
1355.785708 96.152 -135.3956
1365.610290 96.191 -135.4261
1375.506065 96.229 -135.4462
1385.473549 96.267 -135.4507
1395.513261 96.306 -135.4381
1405.625726 96.348 -135.4129
1415.811469 96.394 -135.3863
1426.071023 96.442 -135.3725
1436.404921 96.493 -135.3812
1446.813703 96.543 -135.4140
1457.297912 96.593 -135.4666
1467.858093 96.641 -135.5342
1478.494798 96.688 -135.6129
1489.208581 96.733 -135.6992
1500.000000 96.778 -135.7894
1510.869618 96.821 -135.8799
1521.818002 96.864 -135.9675
1532.845723 96.907 -136.0502
1543.953355 96.951 -136.1268
1555.141477 96.995 -136.1973
1566.410674 97.043 -136.2653
1577.761531 97.093 -136.3405
1589.194642 97.146 -136.4359
1600.710601 97.201 -136.5607
1612.310010 97.254 -136.7167
1623.993473 97.306 -136.9004
1635.761599 97.355 -137.1059
1647.615002 97.402 -137.3277
1659.554299 97.446 -137.5608
1671.580114 97.488 -137.8012
1683.693072 97.529 -138.0471
1695.893807 97.568 -138.2998
1708.182952 97.606 -138.5613
1720.561150 97.641 -138.8317
1733.029045 97.675 -139.1084
1745.587288 97.705 -139.3867
1758.236533 97.734 -139.6606
1770.977440 97.763 -139.9246
1783.810673 97.792 -140.1790
1796.736900 97.823 -140.4315
1809.756796 97.856 -140.6953
1822.871040 97.891 -140.9804
1836.080315 97.925 -141.2907
1849.385310 97.958 -141.6255
1862.786718 97.989 -141.9817
1876.285239 98.017 -142.3547
1889.881575 98.042 -142.7386
1903.576436 98.064 -143.1267
1917.370535 98.084 -143.5127
1931.264593 98.102 -143.8922
1945.259332 98.121 -144.2652
1959.355483 98.141 -144.6397
1973.553781 98.163 -145.0285
1987.854965 98.185 -145.4425
2002.259781 98.207 -145.8868
2016.768981 98.226 -146.3613
2031.383320 98.242 -146.8628
2046.103561 98.253 -147.3860
2060.930471 98.261 -147.9261
2075.864823 98.264 -148.4792
2090.907395 98.262 -149.0423
2106.058972 98.254 -149.6111
2121.320344 98.240 -150.1788
2136.692305 98.220 -150.7359
2152.175658 98.195 -151.2725
2167.771210 98.167 -151.7838
2183.479774 98.137 -152.2735
2199.302169 98.107 -152.7509
2215.239219 98.075 -153.2236
2231.291755 98.042 -153.6954
2247.460615 98.006 -154.1659
2263.746641 97.966 -154.6310
2280.150683 97.923 -155.0837
2296.673595 97.876 -155.5150
2313.316238 97.827 -155.9172
2330.079481 97.776 -156.2875
2346.964198 97.727 -156.6317
2363.971268 97.678 -156.9610
2381.101578 97.630 -157.2853
2398.356022 97.581 -157.6099
2415.735498 97.531 -157.9357
2433.240913 97.479 -158.2603
2450.873180 97.424 -158.5809
2468.633217 97.366 -158.8951
2486.521951 97.305 -159.1996
2504.540314 97.240 -159.4883
2522.689246 97.171 -159.7509
2540.969692 97.098 -159.9771
2559.382606 97.025 -160.1625
2577.928947 96.951 -160.3112
2596.609683 96.877 -160.4311
2615.425787 96.804 -160.5293
2634.378241 96.731 -160.6092
2653.468031 96.657 -160.6693
2672.696154 96.582 -160.7039
2692.063613 96.505 -160.7047
2711.571415 96.430 -160.6662
2731.220579 96.357 -160.5908
2751.012130 96.287 -160.4882
2770.947098 96.221 -160.3693
2791.026522 96.158 -160.2423
2811.251451 96.096 -160.1109
2831.622938 96.036 -159.9764
2852.142045 95.975 -159.8385
2872.809842 95.915 -159.6952
2893.627406 95.853 -159.5406
2914.595823 95.790 -159.3642
2935.716186 95.726 -159.1565
2956.989596 95.663 -158.9150
2978.417161 95.603 -158.6443
3000.000000 95.545 -158.3516
3021.739237 95.490 -158.0422
3043.636005 95.437 -157.7167
3065.691446 95.385 -157.3696
3087.906710 95.335 -156.9928
3110.282955 95.288 -156.5827
3132.821347 95.245 -156.1437
3155.523062 95.208 -155.6855
3178.389283 95.177 -155.2184
3201.421202 95.150 -154.7502
3224.620020 95.128 -154.2868
3247.986946 95.109 -153.8313
3271.523198 95.092 -153.3827
3295.230004 95.078 -152.9335
3319.108599 95.065 -152.4731
3343.160228 95.055 -151.9952
3367.386145 95.048 -151.5004
3391.787613 95.047 -150.9934
3416.365904 95.050 -150.4784
3441.122300 95.058 -149.9550
3466.058091 95.070 -149.4172
3491.174576 95.088 -148.8591
3516.473066 95.114 -148.2816
3541.954880 95.149 -147.6940
3567.621345 95.194 -147.1104
3593.473800 95.250 -146.5465
3619.513592 95.316 -146.0176
3645.742080 95.391 -145.5369
3672.160630 95.473 -145.1114
3698.770620 95.561 -144.7420
3725.573436 95.655 -144.4287
3752.570477 95.755 -144.1759
3779.763150 95.860 -143.9908
3807.152872 95.969 -143.8798
3834.741071 96.079 -143.8428
3862.529185 96.191 -143.8735
3890.518664 96.304 -143.9659
3918.710966 96.419 -144.1204
3947.107561 96.537 -144.3443
3975.709929 96.658 -144.6494
4004.519563 96.782 -145.0494
4033.537962 96.905 -145.5574
4062.766641 97.026 -146.1810
4092.207123 97.144 -146.9209
4121.860942 97.255 -147.7768
4151.729646 97.360 -148.7507
4181.814790 97.455 -149.8457
4212.117944 97.538 -151.0616
4242.640687 97.606 -152.3900
4273.384610 97.656 -153.8164
4304.351317 97.687 -155.3251
4335.542421 97.698 -156.9024
4366.959549 97.687 -158.5353
4398.604338 97.652 -160.2108
4430.478438 97.592 -161.9124
4462.583511 97.503 -163.6156
4494.921231 97.385 -165.2887
4527.493283 97.237 -166.8984
4560.301365 97.060 -168.4133
4593.347189 96.854 -169.8035
4626.632476 96.620 -171.0362
4660.158962 96.360 -172.0763
4693.928395 96.077 -172.8897
4727.942535 95.776 -173.4490
4762.203156 95.462 -173.7353
4796.712043 95.140 -173.7390
4831.470996 94.816 -173.4549
4866.481826 94.494 -172.8776
4901.746360 94.180 -172.0012
4937.266434 93.880 -170.8248
4973.043902 93.600 -169.3556
5009.080628 93.349 -167.6057
5045.378492 93.133 -165.5903
5081.939384 92.959 -163.3334
5118.765212 92.838 -160.8767
5155.857894 92.776 -158.2850
5193.219366 92.780 -155.6464
5230.851574 92.851 -153.0612
5268.756481 92.986 -150.6291
5306.936062 93.179 -148.4419
5345.392309 93.423 -146.5802
5384.127225 93.704 -145.1061
5423.142830 94.011 -144.0560
5462.441159 94.331 -143.4410
5502.024259 94.651 -143.2542
5541.894195 94.963 -143.4768
5582.053045 95.255 -144.0827
5622.502902 95.521 -145.0374
5663.245876 95.753 -146.2954
5704.284090 95.944 -147.8024
5745.619684 96.091 -149.4996
5787.254813 96.191 -151.3244
5829.191647 96.244 -153.2093
5871.432373 96.248 -155.0857
5913.979192 96.209 -156.8891
5956.834323 96.131 -158.5653
6000.000000 96.021 -160.0748
6043.478473 95.883 -161.3909
6087.272010 95.726 -162.4980
6131.382892 95.555 -163.3920
6175.813420 95.375 -164.0775
6220.565910 95.190 -164.5620
6265.642695 95.005 -164.8525
6311.046124 94.821 -164.9551
6356.778566 94.644 -164.8788
6402.842404 94.476 -164.6374
6449.240040 94.320 -164.2480
6495.973891 94.179 -163.7301
6543.046396 94.055 -163.1047
6590.460007 93.948 -162.3920
6638.217197 93.859 -161.6067
6686.320456 93.788 -160.7568
6734.772290 93.737 -159.8478
6783.575226 93.705 -158.8869
6832.731809 93.697 -157.8847
6882.244600 93.713 -156.8561
6932.116181 93.755 -155.8216
6982.349153 93.825 -154.8044
7032.946133 93.923 -153.8252
7083.909760 94.049 -152.9016
7135.242690 94.204 -152.0502
7186.947600 94.390 -151.2916
7239.027185 94.609 -150.6530
7291.484160 94.862 -150.1717
7344.321260 95.151 -149.8961
7397.541239 95.473 -149.8824
7451.146872 95.827 -150.1887
7505.140954 96.207 -150.8747
7559.526299 96.609 -152.0023
7614.305743 97.022 -153.6339
7669.482141 97.436 -155.8290
7725.058371 97.837 -158.6391
7781.037328 98.204 -162.0965
7837.421932 98.519 -166.2004
7894.215122 98.760 -170.9062
7951.419859 98.907 -176.1210
8009.039125 98.945 178.2948
8067.075924 98.864 172.5191
8125.533282 98.660 166.7503
8184.414245 98.335 161.1856
8243.721885 97.899 156.0021
8303.459292 97.363 151.3422
8363.629581 96.743 147.3056
8424.235888 96.057 143.9485
8485.281374 95.325 141.2863
8546.769221 94.566 139.2970
8608.702634 93.797 137.9312
8671.084842 93.032 137.1234
8733.919097 92.283 136.8043
8797.208675 91.556 136.9092
8860.956876 90.858 137.3815
8925.167022 90.192 138.1694
8989.842461 89.560 139.2224
9054.986566 88.964 140.4926
9120.602731 88.404 141.9394
9186.694378 87.878 143.5329
9253.264952 87.383 145.2548
9320.317925 86.920 147.0918
9387.856790 86.486 149.0287
9455.885071 86.083 151.0481
9524.406312 85.708 153.1328
9593.424086 85.360 155.2715
9662.941992 85.038 157.4623
9732.963653 84.742 159.7061
9803.492719 84.471 161.9994
9874.532869 84.227 164.3330
9946.087805 84.008 166.6951
10018.161257 83.815 169.0779
10090.756983 83.647 171.4815
10163.878768 83.505 173.9061
10237.530423 83.389 176.3465
10311.715789 83.300 178.7924
10386.438732 83.238 -178.7650
10461.703149 83.203 -176.3278
10537.512962 83.196 -173.8943
10613.872125 83.218 -171.4668
10690.784618 83.272 -169.0560
10768.254450 83.360 -166.6780
10846.285661 83.482 -164.3466
10924.882318 83.642 -162.0729
11004.048518 83.841 -159.8722
11083.788390 84.084 -157.7706
11164.106090 84.372 -155.8059
11245.005805 84.709 -154.0218
11326.491752 85.097 -152.4667
11408.568180 85.537 -151.1995
11491.239368 86.028 -150.2960
11574.509626 86.569 -149.8463
11658.383294 87.149 -149.9447
11742.864745 87.758 -150.6810
11827.958384 88.377 -152.1349
11913.668646 88.985 -154.3699
12000.000000 89.555 -157.4207
12086.956947 90.057 -161.2766
12174.544019 90.463 -165.8706
12262.765784 90.745 -171.0758
12351.626840 90.880 -176.7101
12441.131819 90.856 177.4536
12531.285389 90.667 171.6682
12622.092249 90.319 166.1835
12713.557132 89.831 161.2156
12805.684808 89.225 156.9259
12898.480079 88.530 153.4150
12991.947783 87.776 150.7279
13086.092792 86.990 148.8626
13180.920015 86.199 147.7767
13276.434395 85.427 147.3974
13372.640911 84.690 147.6357
13469.544580 84.004 148.4001
13567.150452 83.377 149.6006
13665.463617 82.815 151.1515
13764.489200 82.321 152.9762
13864.232362 81.899 155.0125
13964.698305 81.549 157.2081
14065.892266 81.274 159.5132
14167.819519 81.078 161.8770
14270.485380 80.967 164.2467
14373.895200 80.946 166.5594
14478.054370 81.025 168.7324
14582.968320 81.210 170.6583
14688.642520 81.507 172.2054
14795.082478 81.917 173.2150
14902.293745 82.434 173.5043
15010.281908 83.038 172.8828
15119.052599 83.697 171.1770
15228.611486 84.369 168.2527
15338.964283 85.002 164.0391
15450.116741 85.536 158.5551
15562.074656 85.913 151.9327
15674.843864 86.082 144.4297
15788.430244 86.004 136.4232
15902.839718 85.662 128.3677
16018.078250 85.062 120.7184
16134.151848 84.230 113.8547
16251.066563 83.204 108.0444
16368.828491 82.030 103.4445
16487.443769 80.754 100.1176
16606.918584 79.419 98.0477
16727.259161 78.070 97.1576
16848.471777 76.742 97.3270
16970.562748 75.468 98.4068
17093.538442 74.273 100.2353
17217.405268 73.174 102.6572
17342.169684 72.180 105.5350
17467.838194 71.296 108.7499
17594.417350 70.521 112.2024
17721.913751 69.855 115.8094
17850.334044 69.298 119.4936
17979.684923 68.849 123.1748
18109.973131 68.511 126.7628
18241.205462 68.287 130.1429
18373.388756 68.179 133.1656
18506.529905 68.184 135.6477
18640.635849 68.294 137.3837
18775.713581 68.486 138.1675
18911.770141 68.729 137.8279
19048.812624 68.977 136.2622
19186.848172 69.181 133.4656
19325.883983 69.289 129.5581
19465.927305 69.266 124.8096
19606.985439 69.104 119.6576
19749.065738 68.840 114.7130
19892.175609 68.562 110.7289
20036.322514 68.382 108.4760
