* Measurement data measured by REW V5.31.3
* Source: EXCL: Microphone (USB Sound Device        ), MICROPHONE (Master Volume), R, volume: 0.390
* Format: 256k Log Swept Sine, 1 sweep at -15.0 dBFS with no timing reference
* Dated: May 17, 2025 4:17:15 PM
* REW Settings:
*  C-weighting compensation: Off
*  Target level: 75.0 dB
* Note: Lime Ears Maris R
* Measurement: R Lime Ears Maris
* Smoothing: 1/12 octave
* Frequency Step: 96 ppo
* Start Frequency: 0.36621094 Hz
*
* Freq(Hz) SPL(dB) Phase(degrees)
0.366211 94.374 157.6511
0.368865 94.368 157.6280
0.371538 94.358 157.5934
0.374230 94.347 157.5499
0.376942 94.334 157.4997
0.379673 94.320 157.4445
0.382424 94.305 157.3854
0.385196 94.291 157.3230
0.387987 94.275 157.2577
0.390798 94.260 157.1898
0.393630 94.244 157.1192
0.396483 94.229 157.0461
0.399356 94.213 156.9705
0.402250 94.197 156.8923
0.405165 94.181 156.8115
0.408101 94.165 156.7281
0.411058 94.149 156.6422
0.414037 94.132 156.5535
0.417037 94.116 156.4622
0.420059 94.099 156.3682
0.423103 94.082 156.2715
0.426169 94.065 156.1720
0.429257 94.049 156.0697
0.432368 94.031 155.9647
0.435501 94.014 155.8568
0.438656 93.997 155.7461
0.441835 93.979 155.6325
0.445037 93.962 155.5160
0.448262 93.944 155.3966
0.451510 93.926 155.2743
0.454782 93.908 155.1490
0.458077 93.890 155.0207
0.461397 93.872 154.8895
0.464740 93.853 154.7552
0.468108 93.835 154.6179
0.471500 93.816 154.4775
0.474917 93.797 154.3341
0.478358 93.778 154.1876
0.481825 93.759 154.0380
0.485316 93.740 153.8852
0.488833 93.721 153.7294
0.492375 93.701 153.5704
0.495943 93.682 153.4083
0.499537 93.662 153.2430
0.503157 93.642 153.0745
0.506803 93.622 152.9029
0.510475 93.602 152.7281
0.514175 93.582 152.5502
0.517900 93.561 152.3691
0.521653 93.540 152.1848
0.525434 93.520 151.9973
0.529241 93.499 151.8067
0.533076 93.478 151.6130
0.536939 93.456 151.4161
0.540830 93.435 151.2160
0.544749 93.413 151.0129
0.548696 93.392 150.8067
0.552673 93.370 150.5975
0.556677 93.348 150.3851
0.560711 93.326 150.1698
0.564774 93.303 149.9516
0.568867 93.281 149.7303
0.572989 93.258 149.5062
0.577141 93.235 149.2792
0.581324 93.212 149.0494
0.585536 93.189 148.8169
0.589779 93.166 148.5816
0.594053 93.142 148.3437
0.598358 93.119 148.1033
0.602694 93.095 147.8604
0.607061 93.071 147.6150
0.611460 93.047 147.3673
0.615891 93.022 147.1173
0.620354 92.998 146.8652
0.624849 92.973 146.6111
0.629377 92.948 146.3550
0.633938 92.923 146.0971
0.638532 92.898 145.8374
0.643159 92.872 145.5762
0.647819 92.847 145.3136
0.652514 92.821 145.0497
0.657242 92.795 144.7846
0.662005 92.769 144.5186
0.666802 92.742 144.2517
0.671634 92.716 143.9843
0.676501 92.689 143.7164
0.681403 92.662 143.4483
0.686341 92.635 143.1802
0.691314 92.607 142.9122
0.696324 92.580 142.6447
0.701370 92.552 142.3778
0.706452 92.523 142.1116
0.711571 92.494 141.8462
0.716728 92.464 141.5816
0.721921 92.433 141.3176
0.727153 92.401 141.0536
0.732422 92.366 140.7889
0.737729 92.328 140.5225
0.743075 92.289 140.2532
0.748460 92.248 139.9800
0.753883 92.205 139.7023
0.759346 92.161 139.4195
0.764849 92.117 139.1312
0.770391 92.072 138.8372
0.775974 92.026 138.5372
0.781597 91.980 138.2313
0.787261 91.933 137.9192
0.792966 91.886 137.6009
0.798712 91.838 137.2763
0.804500 91.790 136.9453
0.810329 91.741 136.6079
0.816201 91.692 136.2639
0.822116 91.641 135.9135
0.828073 91.590 135.5564
0.834074 91.538 135.1926
0.840118 91.486 134.8222
0.846206 91.432 134.4450
0.852338 91.378 134.0611
0.858514 91.323 133.6704
0.864735 91.267 133.2729
0.871001 91.209 132.8686
0.877313 91.151 132.4575
0.883670 91.092 132.0397
0.890074 91.031 131.6151
0.896524 90.969 131.1839
0.903020 90.906 130.7460
0.909564 90.841 130.3017
0.916155 90.775 129.8508
0.922794 90.708 129.3937
0.929481 90.639 128.9303
0.936216 90.568 128.4609
0.943000 90.496 127.9856
0.949834 90.422 127.5047
0.956717 90.346 127.0183
0.963649 90.268 126.5268
0.970632 90.189 126.0305
0.977666 90.107 125.5295
0.984750 90.023 125.0245
0.991886 89.937 124.5156
0.999074 89.848 124.0034
1.006314 89.757 123.4884
1.013606 89.664 122.9711
1.020951 89.568 122.4520
1.028349 89.469 121.9319
1.035801 89.368 121.4114
1.043307 89.263 120.8912
1.050867 89.156 120.3721
1.058482 89.045 119.8549
1.066152 88.931 119.3404
1.073878 88.814 118.8292
1.081660 88.693 118.3219
1.089498 88.568 117.8188
1.097393 88.438 117.3198
1.105345 88.305 116.8244
1.113355 88.167 116.3318
1.121423 88.023 115.8411
1.129549 87.875 115.3515
1.137734 87.721 114.8623
1.145979 87.563 114.3728
1.154283 87.399 113.8824
1.162647 87.230 113.3905
1.171072 87.056 112.8966
1.179558 86.878 112.4001
1.188106 86.695 111.9004
1.196715 86.507 111.3969
1.205387 86.315 110.8889
1.214122 86.119 110.3757
1.222920 85.919 109.8567
1.231782 85.714 109.3310
1.240708 85.507 108.7978
1.249699 85.295 108.2562
1.258754 85.081 107.7053
1.267876 84.863 107.1440
1.277063 84.643 106.5713
1.286318 84.420 105.9859
1.295639 84.195 105.3867
1.305027 83.969 104.7722
1.314484 83.740 104.1410
1.324009 83.510 103.4916
1.333604 83.279 102.8222
1.343268 83.047 102.1312
1.353002 82.815 101.4165
1.362806 82.582 100.6761
1.372681 82.350 99.9079
1.382628 82.119 99.1095
1.392647 81.889 98.2786
1.402739 81.660 97.4127
1.412904 81.433 96.5091
1.423142 81.208 95.5655
1.433455 80.985 94.5790
1.443843 80.764 93.5473
1.454305 80.544 92.4677
1.464844 80.323 91.3372
1.475459 80.101 90.1521
1.486150 79.876 88.9072
1.496920 79.646 87.5956
1.507767 79.410 86.2075
1.518693 79.169 84.7311
1.529698 78.922 83.1511
1.540783 78.670 81.4487
1.551948 78.414 79.6008
1.563194 78.154 77.5786
1.574521 77.892 75.3462
1.585931 77.627 72.8586
1.597423 77.362 70.0594
1.608999 77.098 66.8772
1.620658 76.836 63.2226
1.632402 76.578 58.9847
1.644232 76.323 54.0298
1.656146 76.076 48.2067
1.668147 75.835 41.3646
1.680235 75.605 33.3962
1.692411 75.385 24.3113
1.704675 75.178 14.3223
1.717028 74.986 3.8784
1.729470 74.811 -6.4246
1.742003 74.656 -16.0361
1.754626 74.521 -24.6096
1.767341 74.410 -32.0329
1.780147 74.325 -38.3625
1.793047 74.269 -43.7377
1.806040 74.245 -48.3209
1.819128 74.256 -52.2677
1.832310 74.304 -55.7136
1.845587 74.391 -58.7708
1.858961 74.519 -61.5268
1.872432 74.688 -64.0465
1.886001 74.897 -66.3761
1.899667 75.144 -68.5485
1.913433 75.426 -70.5871
1.927299 75.740 -72.5087
1.941265 76.083 -74.3262
1.955332 76.452 -76.0491
1.969501 76.843 -77.6850
1.983773 77.251 -79.2401
1.998148 77.674 -80.7191
2.012627 78.107 -82.1262
2.027212 78.546 -83.4646
2.041902 78.988 -84.7371
2.056698 79.427 -85.9459
2.071602 79.860 -87.0930
2.086614 80.283 -88.1802
2.101734 80.691 -89.2092
2.116964 81.081 -90.1817
2.132304 81.450 -91.1001
2.147756 81.794 -91.9676
2.163320 82.111 -92.7886
2.178996 82.401 -93.5697
2.194786 82.664 -94.3192
2.210690 82.901 -95.0471
2.226710 83.116 -95.7628
2.242845 83.311 -96.4739
2.259098 83.488 -97.1850
2.275468 83.648 -97.8985
2.291957 83.793 -98.6144
2.308566 83.925 -99.3317
2.325295 84.044 -100.0486
2.342145 84.151 -100.7626
2.359117 84.247 -101.4708
2.376212 84.333 -102.1702
2.393431 84.411 -102.8575
2.410775 84.482 -103.5294
2.428244 84.545 -104.1824
2.445840 84.604 -104.8129
2.463564 84.658 -105.4174
2.481416 84.710 -105.9928
2.499397 84.758 -106.5363
2.517509 84.806 -107.0462
2.535752 84.852 -107.5220
2.554127 84.896 -107.9651
2.572635 84.937 -108.3788
2.591277 84.974 -108.7674
2.610055 85.007 -109.1352
2.628968 85.033 -109.4855
2.648019 85.053 -109.8203
2.667208 85.067 -110.1405
2.686535 85.075 -110.4461
2.706003 85.077 -110.7361
2.725612 85.075 -111.0094
2.745363 85.068 -111.2642
2.765257 85.058 -111.4985
2.785295 85.045 -111.7098
2.805478 85.029 -111.8956
2.825808 85.013 -112.0529
2.846285 84.996 -112.1786
2.866910 84.979 -112.2692
2.887685 84.962 -112.3215
2.908611 84.946 -112.3320
2.929688 84.929 -112.2976
2.950917 84.912 -112.2161
2.972301 84.893 -112.0866
2.993839 84.873 -111.9096
3.015534 84.850 -111.6867
3.037386 84.826 -111.4208
3.059396 84.800 -111.1154
3.081565 84.775 -110.7745
3.103896 84.749 -110.4024
3.126388 84.725 -110.0035
3.149043 84.703 -109.5825
3.171862 84.685 -109.1434
3.194847 84.671 -108.6897
3.217998 84.662 -108.2235
3.241317 84.660 -107.7450
3.264805 84.666 -107.2520
3.288463 84.678 -106.7399
3.312293 84.699 -106.2034
3.336295 84.728 -105.6391
3.360471 84.763 -105.0467
3.384822 84.806 -104.4293
3.409350 84.856 -103.7926
3.434056 84.911 -103.1436
3.458940 84.972 -102.4905
3.484005 85.038 -101.8421
3.509252 85.109 -101.2070
3.534681 85.184 -100.5938
3.560295 85.263 -100.0106
3.586094 85.345 -99.4640
3.612081 85.431 -98.9593
3.638255 85.521 -98.4995
3.664620 85.614 -98.0852
3.691175 85.712 -97.7147
3.717923 85.815 -97.3857
3.744864 85.922 -97.0960
3.772001 86.034 -96.8443
3.799335 86.149 -96.6298
3.826866 86.266 -96.4527
3.854597 86.385 -96.3132
3.882529 86.505 -96.2120
3.910664 86.623 -96.1499
3.939002 86.739 -96.1278
3.967546 86.852 -96.1467
3.996296 86.961 -96.2076
4.025255 87.067 -96.3115
4.054423 87.169 -96.4587
4.083804 87.268 -96.6487
4.113396 87.363 -96.8795
4.143204 87.455 -97.1483
4.173227 87.544 -97.4513
4.203468 87.629 -97.7841
4.233928 87.710 -98.1425
4.264609 87.786 -98.5225
4.295512 87.858 -98.9210
4.326639 87.925 -99.3357
4.357992 87.986 -99.7661
4.389572 88.041 -100.2131
4.421380 88.090 -100.6785
4.453419 88.133 -101.1642
4.485691 88.169 -101.6705
4.518196 88.200 -102.1955
4.550936 88.225 -102.7358
4.583914 88.245 -103.2864
4.617131 88.258 -103.8418
4.650589 88.267 -104.3964
4.684289 88.270 -104.9455
4.718233 88.268 -105.4855
4.752424 88.260 -106.0151
4.786862 88.247 -106.5346
4.821549 88.228 -107.0454
4.856488 88.203 -107.5488
4.891680 88.173 -108.0444
4.927127 88.138 -108.5308
4.962831 88.098 -109.0049
4.998794 88.055 -109.4630
5.035017 88.009 -109.9009
5.071503 87.959 -110.3144
5.108253 87.908 -110.7001
5.145270 87.854 -111.0557
5.182555 87.798 -111.3803
5.220110 87.739 -111.6743
5.257937 87.679 -111.9389
5.296038 87.617 -112.1759
5.334415 87.555 -112.3867
5.373071 87.494 -112.5729
5.412006 87.436 -112.7352
5.451224 87.380 -112.8737
5.490725 87.327 -112.9877
5.530514 87.278 -113.0763
5.570590 87.233 -113.1397
5.610957 87.191 -113.1803
5.651616 87.154 -113.2025
5.692570 87.122 -113.2126
5.733821 87.094 -113.2178
5.775370 87.072 -113.2251
5.817221 87.056 -113.2402
5.859375 87.046 -113.2669
5.901834 87.043 -113.3071
5.944602 87.047 -113.3624
5.987679 87.056 -113.4352
6.031068 87.071 -113.5291
6.074771 87.091 -113.6495
6.118792 87.115 -113.8017
6.163131 87.143 -113.9912
6.207792 87.173 -114.2221
6.252776 87.206 -114.4965
6.298086 87.241 -114.8150
6.343725 87.279 -115.1765
6.389694 87.318 -115.5793
6.435996 87.358 -116.0216
6.482634 87.397 -116.5020
6.529610 87.436 -117.0197
6.576926 87.472 -117.5743
6.624585 87.507 -118.1656
6.672590 87.539 -118.7927
6.720942 87.568 -119.4525
6.769645 87.595 -120.1407
6.818700 87.619 -120.8516
6.868111 87.639 -121.5798
6.917881 87.656 -122.3208
6.968010 87.670 -123.0717
7.018504 87.679 -123.8307
7.069362 87.685 -124.5957
7.120590 87.688 -125.3634
7.172189 87.687 -126.1288
7.224161 87.684 -126.8864
7.276511 87.678 -127.6310
7.329239 87.670 -128.3584
7.382350 87.661 -129.0662
7.435845 87.650 -129.7530
7.489729 87.638 -130.4177
7.544002 87.626 -131.0586
7.598669 87.615 -131.6739
7.653732 87.606 -132.2614
7.709194 87.598 -132.8195
7.765058 87.593 -133.3479
7.821327 87.591 -133.8473
7.878004 87.593 -134.3201
7.935091 87.598 -134.7690
7.992592 87.608 -135.1971
8.050510 87.623 -135.6066
8.108847 87.644 -135.9997
8.167607 87.669 -136.3786
8.226793 87.700 -136.7465
8.286408 87.737 -137.1078
8.346454 87.778 -137.4668
8.406936 87.823 -137.8274
8.467856 87.873 -138.1924
8.529218 87.927 -138.5634
8.591024 87.985 -138.9417
8.653278 88.045 -139.3285
8.715983 88.107 -139.7251
8.779143 88.170 -140.1324
8.842760 88.234 -140.5506
8.906839 88.298 -140.9788
8.971381 88.361 -141.4151
9.036392 88.424 -141.8573
9.101873 88.486 -142.3028
9.167829 88.545 -142.7495
9.234263 88.602 -143.1953
9.301178 88.657 -143.6375
9.368578 88.710 -144.0733
9.436467 88.760 -144.4992
9.504847 88.808 -144.9121
9.573723 88.853 -145.3096
9.643099 88.896 -145.6901
9.712976 88.937 -146.0519
9.783361 88.976 -146.3936
9.854255 89.014 -146.7139
9.925663 89.051 -147.0122
9.997588 89.088 -147.2883
10.070035 89.123 -147.5430
10.143007 89.158 -147.7774
10.216507 89.194 -147.9928
10.290540 89.229 -148.1909
10.365109 89.265 -148.3731
10.440219 89.302 -148.5415
10.515873 89.338 -148.6985
10.592076 89.375 -148.8464
10.668830 89.412 -148.9872
10.746141 89.449 -149.1227
10.824012 89.486 -149.2542
10.902447 89.522 -149.3833
10.981451 89.558 -149.5112
11.061027 89.592 -149.6386
11.141180 89.626 -149.7660
11.221913 89.658 -149.8935
11.303232 89.689 -150.0212
11.385140 89.718 -150.1490
11.467641 89.745 -150.2768
11.550741 89.770 -150.4045
11.634442 89.794 -150.5318
11.718750 89.816 -150.6589
11.803669 89.836 -150.7858
11.889203 89.854 -150.9129
11.975357 89.871 -151.0408
12.062136 89.886 -151.1703
12.149543 89.900 -151.3021
12.237583 89.913 -151.4372
12.326262 89.924 -151.5765
12.415583 89.933 -151.7212
12.505552 89.941 -151.8721
12.596172 89.948 -152.0299
12.687449 89.953 -152.1951
12.779387 89.955 -152.3680
12.871992 89.956 -152.5487
12.965268 89.955 -152.7369
13.059220 89.952 -152.9321
13.153852 89.948 -153.1338
13.249170 89.941 -153.3411
13.345179 89.932 -153.5536
13.441884 89.923 -153.7704
13.539289 89.911 -153.9913
13.637401 89.899 -154.2159
13.736223 89.887 -154.4445
13.835761 89.874 -154.6776
13.936021 89.861 -154.9161
14.037007 89.849 -155.1611
14.138725 89.837 -155.4141
14.241180 89.826 -155.6768
14.344377 89.816 -155.9508
14.448323 89.807 -156.2376
14.553021 89.799 -156.5385
14.658478 89.792 -156.8543
14.764700 89.786 -157.1855
14.871691 89.780 -157.5317
14.979457 89.775 -157.8923
15.088005 89.770 -158.2659
15.197339 89.765 -158.6506
15.307465 89.760 -159.0441
15.418389 89.756 -159.4442
15.530117 89.752 -159.8481
15.642655 89.748 -160.2537
15.756008 89.746 -160.6586
15.870182 89.744 -161.0612
15.985184 89.744 -161.4603
16.101019 89.746 -161.8552
16.217694 89.751 -162.2456
16.335214 89.757 -162.6317
16.453586 89.766 -163.0141
16.572815 89.778 -163.3934
16.692909 89.791 -163.7702
16.813872 89.807 -164.1448
16.935713 89.825 -164.5174
17.058436 89.845 -164.8876
17.182048 89.865 -165.2547
17.306556 89.886 -165.6173
17.431967 89.908 -165.9740
17.558286 89.930 -166.3230
17.685521 89.953 -166.6625
17.813677 89.975 -166.9908
17.942762 89.997 -167.3065
18.072783 90.019 -167.6085
18.203746 90.041 -167.8961
18.335658 90.063 -168.1693
18.468526 90.084 -168.4282
18.602356 90.106 -168.6733
18.737156 90.127 -168.9056
18.872934 90.147 -169.1257
19.009695 90.167 -169.3347
19.147447 90.186 -169.5335
19.286197 90.204 -169.7227
19.425953 90.221 -169.9031
19.566721 90.237 -170.0754
19.708510 90.251 -170.2403
19.851326 90.264 -170.3987
19.995177 90.275 -170.5515
20.140070 90.285 -170.6997
20.286013 90.293 -170.8448
20.433014 90.300 -170.9881
20.581080 90.305 -171.1307
20.730219 90.308 -171.2741
20.880439 90.310 -171.4194
21.031747 90.310 -171.5673
21.184152 90.309 -171.7187
21.337661 90.305 -171.8742
21.492282 90.301 -172.0346
21.648024 90.295 -172.2007
21.804895 90.289 -172.3736
21.962902 90.282 -172.5547
22.122054 90.274 -172.7458
22.282360 90.266 -172.9489
22.443827 90.258 -173.1656
22.606464 90.251 -173.3979
22.770280 90.243 -173.6469
22.935283 90.235 -173.9131
23.101481 90.226 -174.1961
23.268884 90.218 -174.4950
23.437500 90.209 -174.8077
23.607338 90.199 -175.1319
23.778406 90.190 -175.4649
23.950714 90.180 -175.8040
24.124271 90.171 -176.1468
24.299086 90.163 -176.4914
24.475167 90.156 -176.8363
24.652524 90.151 -177.1805
24.831166 90.147 -177.5234
25.011103 90.145 -177.8643
25.192344 90.145 -178.2030
25.374898 90.146 -178.5386
25.558775 90.149 -178.8705
25.743984 90.154 -179.1976
25.930536 90.160 -179.5188
26.118439 90.167 -179.8332
26.307704 90.174 179.8603
26.498341 90.183 179.5626
26.690359 90.192 179.2744
26.883768 90.201 178.9961
27.078579 90.210 178.7283
27.274801 90.219 178.4710
27.472446 90.227 178.2245
27.671522 90.235 177.9883
27.872042 90.242 177.7618
28.074014 90.248 177.5443
28.277450 90.254 177.3342
28.482360 90.258 177.1303
28.688755 90.261 176.9310
28.896645 90.263 176.7347
29.106042 90.263 176.5403
29.316957 90.261 176.3464
29.529400 90.258 176.1520
29.743382 90.254 175.9560
29.958915 90.247 175.7570
30.176009 90.240 175.5537
30.394677 90.231 175.3446
30.614929 90.221 175.1284
30.836778 90.210 174.9043
31.060234 90.198 174.6722
31.285309 90.185 174.4326
31.512015 90.171 174.1868
31.740364 90.157 173.9360
31.970368 90.143 173.6815
32.202039 90.129 173.4236
32.435388 90.117 173.1620
32.670428 90.106 172.8953
32.907171 90.097 172.6216
33.145630 90.090 172.3391
33.385817 90.085 172.0468
33.627745 90.080 171.7448
33.871425 90.076 171.4346
34.116871 90.073 171.1191
34.364096 90.069 170.8022
34.613113 90.065 170.4881
34.863934 90.060 170.1805
35.116572 90.055 169.8824
35.371041 90.051 169.5956
35.627354 90.046 169.3201
35.885525 90.042 169.0553
36.145566 90.039 168.7994
36.407492 90.035 168.5503
36.671316 90.032 168.3063
36.937051 90.028 168.0661
37.204712 90.023 167.8289
37.474313 90.018 167.5943
37.745867 90.011 167.3619
38.019389 90.004 167.1310
38.294893 89.995 166.9007
38.572394 89.986 166.6697
38.851905 89.976 166.4373
39.133442 89.965 166.2030
39.417019 89.952 165.9675
39.702651 89.940 165.7314
39.990353 89.926 165.4956
40.280140 89.913 165.2600
40.572026 89.901 165.0234
40.866028 89.889 164.7839
41.162160 89.878 164.5394
41.460438 89.868 164.2883
41.760877 89.858 164.0300
42.063494 89.849 163.7651
42.368303 89.840 163.4950
42.675322 89.831 163.2212
42.984565 89.821 162.9451
43.296048 89.812 162.6681
43.609789 89.801 162.3914
43.925804 89.790 162.1165
44.244108 89.778 161.8451
44.564719 89.766 161.5788
44.887654 89.752 161.3185
45.212928 89.739 161.0650
45.540560 89.725 160.8180
45.870565 89.711 160.5770
46.202962 89.697 160.3407
46.537768 89.684 160.1068
46.875000 89.672 159.8719
47.214676 89.661 159.6314
47.556813 89.650 159.3816
47.901429 89.639 159.1208
48.248542 89.626 158.8513
48.598171 89.611 158.5786
48.950334 89.595 158.3094
49.305048 89.578 158.0494
49.662333 89.561 157.7997
50.022206 89.545 157.5574
50.384688 89.530 157.3168
50.749796 89.516 157.0728
51.117550 89.502 156.8229
51.487969 89.487 156.5684
51.861072 89.471 156.3124
52.236879 89.454 156.0582
52.615409 89.437 155.8076
52.996681 89.419 155.5602
53.380717 89.401 155.3146
53.767536 89.384 155.0682
54.157158 89.367 154.8185
54.549603 89.351 154.5634
54.944892 89.335 154.3019
55.343045 89.319 154.0339
55.744084 89.303 153.7599
56.148028 89.288 153.4801
56.554900 89.273 153.1939
56.964720 89.257 152.9013
57.377510 89.240 152.6046
57.793291 89.222 152.3091
58.212085 89.202 152.0231
58.633914 89.182 151.7534
59.058799 89.161 151.5025
59.486764 89.142 151.2673
59.917829 89.125 151.0399
60.352019 89.110 150.8120
60.789354 89.095 150.5773
61.229859 89.080 150.3340
61.673556 89.063 150.0833
62.120468 89.045 149.8287
62.570618 89.026 149.5732
63.024031 89.005 149.3186
63.480729 88.984 149.0646
63.940736 88.963 148.8097
64.404077 88.942 148.5520
64.870776 88.921 148.2909
65.340856 88.899 148.0272
65.814343 88.877 147.7625
66.291261 88.856 147.4985
66.771635 88.834 147.2357
67.255489 88.813 146.9738
67.742850 88.792 146.7125
68.233743 88.771 146.4525
68.728193 88.749 146.1951
69.226226 88.728 145.9402
69.727867 88.708 145.6857
70.233144 88.688 145.4277
70.742083 88.667 145.1633
71.254709 88.646 144.8918
71.771050 88.624 144.6150
72.291132 88.600 144.3369
72.814984 88.574 144.0638
73.342631 88.547 143.8034
73.874102 88.519 143.5602
74.409424 88.494 143.3308
74.948626 88.471 143.1044
75.491734 88.450 142.8698
76.038779 88.429 142.6229
76.589787 88.408 142.3669
77.144788 88.387 142.1048
77.703811 88.365 141.8371
78.266885 88.343 141.5636
78.834039 88.319 141.2870
79.405303 88.295 141.0112
79.980706 88.271 140.7361
80.560280 88.246 140.4575
81.144053 88.222 140.1703
81.732056 88.197 139.8730
82.324320 88.170 139.5687
82.920876 88.140 139.2620
83.521755 88.109 138.9570
84.126988 88.076 138.6566
84.736607 88.041 138.3626
85.350643 88.005 138.0760
85.969129 87.969 137.7960
86.592097 87.933 137.5211
87.219579 87.897 137.2500
87.851608 87.861 136.9825
88.488217 87.825 136.7193
89.129439 87.789 136.4622
89.775308 87.753 136.2121
90.425856 87.718 135.9686
91.081119 87.683 135.7295
91.741131 87.648 135.4926
92.405925 87.613 135.2575
93.075536 87.579 135.0237
93.750000 87.546 134.7881
94.429351 87.513 134.5454
95.113625 87.479 134.2935
95.802858 87.445 134.0358
96.497085 87.409 133.7794
97.196342 87.373 133.5299
97.900667 87.337 133.2886
98.610096 87.300 133.0542
99.324665 87.264 132.8260
100.044413 87.226 132.6040
100.769376 87.189 132.3882
101.499592 87.151 132.1767
102.235100 87.113 131.9646
102.975938 87.076 131.7475
103.722144 87.038 131.5249
104.473757 87.000 131.3017
105.230817 86.963 131.0833
105.993363 86.926 130.8703
106.761435 86.891 130.6576
107.535072 86.857 130.4393
108.314315 86.823 130.2128
109.099206 86.787 129.9799
109.889783 86.749 129.7435
110.686090 86.710 129.5048
111.488167 86.671 129.2615
112.296056 86.631 129.0081
113.109800 86.591 128.7410
113.929440 86.550 128.4641
114.755020 86.508 128.1901
115.586582 86.466 127.9352
116.424170 86.425 127.7103
117.267827 86.387 127.5141
118.117598 86.350 127.3345
118.973527 86.313 127.1573
119.835658 86.272 126.9803
120.704037 86.226 126.8158
121.578708 86.174 126.6755
122.459718 86.121 126.5565
123.347111 86.067 126.4457
124.240935 86.016 126.3311
125.141236 85.967 126.2064
126.048061 85.921 126.0707
126.961458 85.879 125.9264
127.881473 85.840 125.7764
128.808154 85.804 125.6244
129.741551 85.769 125.4724
130.681712 85.735 125.3202
131.628686 85.701 125.1649
132.582521 85.667 125.0021
133.543269 85.632 124.8285
134.510979 85.595 124.6447
135.485701 85.557 124.4556
136.467486 85.518 124.2668
137.456386 85.478 124.0818
138.452451 85.438 123.9011
139.455735 85.398 123.7234
140.466288 85.357 123.5471
141.484165 85.316 123.3712
142.509418 85.272 123.1957
143.542100 85.228 123.0212
144.582265 85.183 122.8482
145.629968 85.137 122.6764
146.685262 85.091 122.5063
147.748204 85.045 122.3400
148.818849 85.000 122.1801
149.897251 84.955 122.0289
150.983469 84.910 121.8884
152.077557 84.865 121.7606
153.179574 84.821 121.6478
154.289576 84.778 121.5500
155.407622 84.738 121.4627
156.533770 84.699 121.3780
157.668078 84.663 121.2882
158.810606 84.630 121.1873
159.961413 84.598 121.0692
161.120559 84.568 120.9299
162.288105 84.537 120.7701
163.464112 84.507 120.5965
164.648640 84.475 120.4201
165.841752 84.442 120.2520
167.043510 84.409 120.1024
168.253976 84.374 119.9779
169.473213 84.337 119.8788
170.701286 84.299 119.7973
171.938258 84.258 119.7189
173.184194 84.215 119.6259
174.439158 84.170 119.5028
175.703216 84.122 119.3452
176.976434 84.073 119.1640
178.258878 84.022 118.9809
179.550615 83.972 118.8147
180.851713 83.924 118.6678
182.162239 83.880 118.5296
183.482262 83.837 118.3902
184.811850 83.796 118.2462
186.151073 83.754 118.0981
187.500000 83.712 117.9492
188.858702 83.670 117.8029
190.227250 83.628 117.6630
191.605715 83.585 117.5316
192.994169 83.541 117.4098
194.392685 83.497 117.2969
195.801334 83.453 117.1925
197.220191 83.408 117.0959
198.649330 83.363 117.0070
200.088825 83.318 116.9254
201.538751 83.273 116.8496
202.999184 83.229 116.7766
204.470200 83.185 116.7026
205.951875 83.143 116.6243
207.444287 83.103 116.5392
208.947514 83.062 116.4470
210.461634 83.022 116.3496
211.986726 82.981 116.2516
213.522869 82.938 116.1596
215.070144 82.894 116.0800
216.628631 82.850 116.0175
218.198411 82.806 115.9732
219.779567 82.763 115.9440
221.372180 82.722 115.9235
222.976334 82.682 115.9040
224.592112 82.644 115.8795
226.219600 82.606 115.8471
227.858880 82.569 115.8077
229.510039 82.534 115.7635
231.173164 82.500 115.7166
232.848340 82.468 115.6676
234.535655 82.435 115.6164
236.235197 82.401 115.5622
237.947054 82.367 115.5041
239.671317 82.332 115.4420
241.408074 82.295 115.3784
243.157416 82.258 115.3171
244.919435 82.221 115.2626
246.694223 82.183 115.2188
248.481871 82.145 115.1890
250.282473 82.107 115.1755
252.096123 82.070 115.1790
253.922915 82.036 115.1970
255.762945 82.004 115.2226
257.616309 81.976 115.2443
259.483103 81.950 115.2508
261.363424 81.925 115.2363
263.257372 81.900 115.2033
265.165043 81.874 115.1601
267.086538 81.846 115.1157
269.021957 81.817 115.0775
270.971401 81.787 115.0493
272.934972 81.758 115.0317
274.912771 81.730 115.0235
276.904902 81.704 115.0222
278.911469 81.680 115.0251
280.932577 81.658 115.0288
282.968330 81.639 115.0284
285.018835 81.623 115.0188
287.084199 81.608 114.9943
289.164530 81.595 114.9503
291.259935 81.581 114.8853
293.370525 81.565 114.8029
295.496408 81.546 114.7116
297.637697 81.525 114.6202
299.794503 81.502 114.5349
301.966937 81.477 114.4584
304.155114 81.453 114.3907
306.359147 81.429 114.3296
308.579152 81.405 114.2715
310.815244 81.382 114.2126
313.067539 81.359 114.1519
315.336156 81.336 114.0913
317.621211 81.312 114.0359
319.922826 81.289 113.9901
322.241118 81.266 113.9552
324.576210 81.244 113.9289
326.928223 81.223 113.9062
329.297280 81.204 113.8827
331.683504 81.186 113.8549
334.087019 81.170 113.8209
336.507952 81.154 113.7797
338.946427 81.138 113.7319
341.402572 81.123 113.6792
343.876516 81.107 113.6246
346.368387 81.091 113.5708
348.878315 81.076 113.5186
351.406431 81.060 113.4674
353.952867 81.045 113.4164
356.517756 81.031 113.3654
359.101230 81.017 113.3141
361.703426 81.004 113.2623
364.324478 80.991 113.2101
366.964523 80.978 113.1586
369.623699 80.966 113.1085
372.302145 80.954 113.0591
375.000000 80.943 113.0086
377.717405 80.933 112.9551
380.454501 80.923 112.8983
383.211431 80.914 112.8388
385.988339 80.906 112.7775
388.785369 80.897 112.7151
391.602668 80.889 112.6520
394.440383 80.882 112.5881
397.298660 80.875 112.5221
400.177650 80.868 112.4521
403.077502 80.862 112.3763
405.998368 80.857 112.2936
408.940400 80.851 112.2051
411.903750 80.846 112.1135
414.888575 80.840 112.0217
417.895028 80.834 111.9317
420.923268 80.828 111.8448
423.973452 80.823 111.7615
427.045738 80.819 111.6816
430.140287 80.817 111.6025
433.257261 80.816 111.5206
436.396822 80.817 111.4328
439.559133 80.819 111.3388
442.744360 80.821 111.2382
445.952668 80.825 111.1279
449.184225 80.830 111.0012
452.439199 80.836 110.8513
455.717760 80.840 110.6755
459.020079 80.843 110.4797
462.346327 80.842 110.2762
465.696680 80.839 110.0779
469.071310 80.832 109.8923
472.470394 80.825 109.7198
475.894109 80.818 109.5569
479.342634 80.811 109.3977
482.816148 80.804 109.2370
486.314833 80.796 109.0728
489.838871 80.788 108.9092
493.388445 80.779 108.7543
496.963741 80.770 108.6134
500.564945 80.762 108.4844
504.192245 80.756 108.3602
507.845830 80.751 108.2336
511.525890 80.746 108.1002
515.232618 80.742 107.9595
518.966206 80.737 107.8140
522.726849 80.731 107.6675
526.514743 80.724 107.5243
530.330086 80.718 107.3867
534.173076 80.713 107.2530
538.043915 80.708 107.1197
541.942803 80.705 106.9858
545.869944 80.701 106.8534
549.825542 80.699 106.7241
553.809805 80.698 106.5960
557.822939 80.697 106.4650
561.865154 80.697 106.3279
565.936660 80.696 106.1837
570.037671 80.695 106.0345
574.168399 80.693 105.8833
578.329060 80.691 105.7325
582.519870 80.688 105.5831
586.741049 80.685 105.4360
590.992817 80.681 105.2938
595.275394 80.678 105.1585
599.589005 80.675 105.0288
603.933874 80.674 104.9001
608.310228 80.674 104.7683
612.718295 80.673 104.6325
617.158304 80.673 104.4962
621.630488 80.671 104.3658
626.135079 80.669 104.2480
630.672311 80.669 104.1444
635.242423 80.669 104.0501
639.845651 80.672 103.9583
644.482237 80.676 103.8662
649.152421 80.682 103.7745
653.856447 80.691 103.6815
658.594560 80.703 103.5809
663.367008 80.716 103.4630
668.174039 80.731 103.3212
673.015903 80.745 103.1570
677.892854 80.757 102.9791
682.805145 80.766 102.7966
687.753032 80.773 102.6161
692.736774 80.778 102.4424
697.756631 80.781 102.2797
702.812863 80.785 102.1292
707.905735 80.788 101.9888
713.035511 80.793 101.8547
718.202461 80.798 101.7240
723.406852 80.804 101.5958
728.648956 80.810 101.4713
733.929047 80.816 101.3526
739.247399 80.823 101.2416
744.604290 80.831 101.1401
750.000000 80.840 101.0492
755.434809 80.851 100.9687
760.909001 80.864 100.8967
766.422861 80.879 100.8301
771.976677 80.897 100.7645
777.570739 80.918 100.6951
783.205337 80.941 100.6181
788.880766 80.966 100.5320
794.597321 80.993 100.4379
800.355301 81.021 100.3375
806.155005 81.051 100.2296
811.996736 81.083 100.1100
817.880799 81.118 99.9731
823.807501 81.154 99.8134
829.777150 81.190 99.6270
835.790057 81.225 99.4152
841.846536 81.256 99.1874
847.946903 81.284 98.9564
854.091476 81.310 98.7318
860.280575 81.333 98.5181
866.514523 81.356 98.3178
872.793644 81.378 98.1334
879.118267 81.402 97.9639
885.488720 81.427 97.8041
891.905336 81.453 97.6490
898.368450 81.481 97.4967
904.878398 81.510 97.3484
911.435520 81.541 97.2042
918.040157 81.575 97.0620
924.692655 81.610 96.9185
931.393359 81.648 96.7704
938.142619 81.688 96.6135
944.940787 81.730 96.4457
951.788218 81.772 96.2675
958.685268 81.814 96.0810
965.632296 81.857 95.8889
972.629666 81.899 95.6943
979.677741 81.943 95.4995
986.776890 81.986 95.3051
993.927482 82.030 95.1142
1001.129891 82.075 94.9322
1008.384491 82.121 94.7637
1015.691660 82.170 94.6070
1023.051781 82.223 94.4550
1030.465236 82.281 94.2980
1037.932411 82.344 94.1226
1045.453698 82.411 93.9153
1053.029486 82.481 93.6699
1060.660172 82.550 93.3890
1068.346153 82.618 93.0808
1076.087829 82.684 92.7543
1083.885605 82.748 92.4166
1091.739887 82.811 92.0704
1099.651084 82.873 91.7164
1107.619609 82.934 91.3555
1115.645878 82.994 90.9890
1123.730308 83.054 90.6183
1131.873321 83.113 90.2448
1140.075341 83.171 89.8697
1148.336797 83.229 89.4942
1156.658119 83.288 89.1196
1165.039741 83.346 88.7472
1173.482099 83.406 88.3781
1181.985634 83.467 88.0117
1190.550789 83.532 87.6422
1199.178011 83.599 87.2581
1207.867749 83.669 86.8477
1216.620457 83.739 86.4055
1225.436590 83.807 85.9352
1234.316609 83.873 85.4453
1243.260976 83.935 84.9452
1252.270157 83.995 84.4427
1261.344623 84.052 83.9424
1270.484846 84.108 83.4452
1279.691303 84.163 82.9521
1288.964474 84.217 82.4645
1298.304842 84.270 81.9819
1307.712894 84.324 81.5021
1317.189120 84.379 81.0219
1326.734016 84.433 80.5393
1336.348077 84.487 80.0547
1346.031806 84.540 79.5709
1355.785708 84.591 79.0913
1365.610290 84.642 78.6194
1375.506065 84.693 78.1590
1385.473549 84.744 77.7145
1395.513261 84.797 77.2866
1405.625726 84.853 76.8701
1415.811469 84.914 76.4534
1426.071023 84.979 76.0222
1436.404921 85.046 75.5672
1446.813703 85.114 75.0881
1457.297912 85.181 74.5908
1467.858093 85.247 74.0820
1478.494798 85.313 73.5667
1489.208581 85.377 73.0485
1500.000000 85.440 72.5310
1510.869618 85.503 72.0175
1521.818002 85.565 71.5108
1532.845723 85.627 71.0132
1543.953355 85.690 70.5262
1555.141477 85.756 70.0495
1566.410674 85.825 69.5783
1577.761531 85.898 69.1018
1589.194642 85.975 68.6068
1600.710601 86.055 68.0853
1612.310010 86.136 67.5373
1623.993473 86.216 66.9683
1635.761599 86.296 66.3850
1647.615002 86.376 65.7924
1659.554299 86.455 65.1937
1671.580114 86.536 64.5896
1683.693072 86.617 63.9773
1695.893807 86.699 63.3514
1708.182952 86.781 62.7066
1720.561150 86.863 62.0411
1733.029045 86.944 61.3574
1745.587288 87.023 60.6613
1758.236533 87.100 59.9615
1770.977440 87.177 59.2656
1783.810673 87.256 58.5748
1796.736900 87.338 57.8801
1809.756796 87.423 57.1656
1822.871040 87.510 56.4173
1836.080315 87.598 55.6281
1849.385310 87.685 54.7971
1862.786718 87.769 53.9279
1876.285239 87.848 53.0271
1889.881575 87.922 52.1038
1903.576436 87.991 51.1682
1917.370535 88.054 50.2300
1931.264593 88.113 49.2970
1945.259332 88.169 48.3717
1959.355483 88.224 47.4492
1973.553781 88.278 46.5195
1987.854965 88.330 45.5755
2002.259781 88.378 44.6170
2016.768981 88.422 43.6498
2031.383320 88.461 42.6819
2046.103561 88.496 41.7217
2060.930471 88.526 40.7764
2075.864823 88.552 39.8498
2090.907395 88.575 38.9442
2106.058972 88.595 38.0620
2121.320344 88.613 37.2071
2136.692305 88.631 36.3840
2152.175658 88.649 35.5955
2167.771210 88.670 34.8370
2183.479774 88.695 34.0949
2199.302169 88.725 33.3514
2215.239219 88.758 32.5924
2231.291755 88.793 31.8113
2247.460615 88.828 31.0086
2263.746641 88.861 30.1903
2280.150683 88.892 29.3665
2296.673595 88.920 28.5480
2313.316238 88.947 27.7437
2330.079481 88.974 26.9559
2346.964198 89.003 26.1779
2363.971268 89.035 25.3974
2381.101578 89.068 24.6039
2398.356022 89.103 23.7928
2415.735498 89.136 22.9647
2433.240913 89.168 22.1245
2450.873180 89.198 21.2778
2468.633217 89.226 20.4296
2486.521951 89.252 19.5852
2504.540314 89.275 18.7521
2522.689246 89.296 17.9393
2540.969692 89.318 17.1535
2559.382606 89.342 16.3917
2577.928947 89.371 15.6403
2596.609683 89.406 14.8804
2615.425787 89.445 14.0952
2634.378241 89.487 13.2738
2653.468031 89.529 12.4126
2672.696154 89.569 11.5153
2692.063613 89.607 10.5910
2711.571415 89.642 9.6483
2731.220579 89.674 8.6903
2751.012130 89.705 7.7151
2770.947098 89.732 6.7202
2791.026522 89.757 5.7058
2811.251451 89.777 4.6748
2831.622938 89.794 3.6315
2852.142045 89.806 2.5797
2872.809842 89.813 1.5234
2893.627406 89.816 0.4691
2914.595823 89.813 -0.5740
2935.716186 89.807 -1.5979
2956.989596 89.799 -2.6024
2978.417161 89.790 -3.5941
3000.000000 89.782 -4.5818
3021.739237 89.773 -5.5730
3043.636005 89.763 -6.5707
3065.691446 89.752 -7.5731
3087.906710 89.739 -8.5756
3110.282955 89.725 -9.5780
3132.821347 89.711 -10.5867
3155.523062 89.697 -11.6116
3178.389283 89.682 -12.6613
3201.421202 89.664 -13.7397
3224.620020 89.643 -14.8475
3247.986946 89.616 -15.9818
3271.523198 89.582 -17.1361
3295.230004 89.539 -18.2983
3319.108599 89.489 -19.4549
3343.160228 89.431 -20.5969
3367.386145 89.368 -21.7225
3391.787613 89.299 -22.8340
3416.365904 89.225 -23.9334
3441.122300 89.146 -25.0183
3466.058091 89.061 -26.0813
3491.174576 88.971 -27.1149
3516.473066 88.877 -28.1180
3541.954880 88.782 -29.0967
3567.621345 88.686 -30.0602
3593.473800 88.588 -31.0183
3619.513592 88.489 -31.9795
3645.742080 88.386 -32.9487
3672.160630 88.277 -33.9246
3698.770620 88.162 -34.8978
3725.573436 88.039 -35.8574
3752.570477 87.909 -36.7965
3779.763150 87.772 -37.7126
3807.152872 87.628 -38.6032
3834.741071 87.476 -39.4618
3862.529185 87.316 -40.2761
3890.518664 87.149 -41.0345
3918.710966 86.977 -41.7319
3947.107561 86.801 -42.3698
3975.709929 86.622 -42.9540
4004.519563 86.442 -43.4918
4033.537962 86.258 -43.9891
4062.766641 86.070 -44.4452
4092.207123 85.877 -44.8513
4121.860942 85.678 -45.1957
4151.729646 85.474 -45.4686
4181.814790 85.264 -45.6627
4212.117944 85.049 -45.7677
4242.640687 84.828 -45.7655
4273.384610 84.603 -45.6337
4304.351317 84.377 -45.3528
4335.542421 84.153 -44.9115
4366.959549 83.937 -44.3074
4398.604338 83.732 -43.5469
4430.478438 83.543 -42.6423
4462.583511 83.373 -41.6055
4494.921231 83.226 -40.4496
4527.493283 83.106 -39.1963
4560.301365 83.017 -37.8801
4593.347189 82.959 -36.5443
4626.632476 82.933 -35.2311
4660.158962 82.938 -33.9772
4693.928395 82.969 -32.8158
4727.942535 83.025 -31.7780
4762.203156 83.100 -30.8909
4796.712043 83.190 -30.1754
4831.470996 83.287 -29.6406
4866.481826 83.386 -29.2804
4901.746360 83.482 -29.0784
4937.266434 83.571 -29.0153
4973.043902 83.650 -29.0715
5009.080628 83.716 -29.2242
5045.378492 83.767 -29.4446
5081.939384 83.803 -29.7030
5118.765212 83.826 -29.9755
5155.857894 83.838 -30.2473
5193.219366 83.840 -30.5134
5230.851574 83.833 -30.7737
5268.756481 83.818 -31.0273
5306.936062 83.794 -31.2724
5345.392309 83.763 -31.5089
5384.127225 83.721 -31.7358
5423.142830 83.669 -31.9445
5462.441159 83.604 -32.1177
5502.024259 83.526 -32.2332
5541.894195 83.436 -32.2679
5582.053045 83.336 -32.2023
5622.502902 83.226 -32.0183
5663.245876 83.111 -31.6976
5704.284090 82.993 -31.2225
5745.619684 82.877 -30.5807
5787.254813 82.766 -29.7637
5829.191647 82.668 -28.7643
5871.432373 82.586 -27.5786
5913.979192 82.530 -26.2128
5956.834323 82.507 -24.6927
6000.000000 82.525 -23.0688
6043.478473 82.589 -21.4135
6087.272010 82.700 -19.8138
6131.382892 82.855 -18.3643
6175.813420 83.047 -17.1525
6220.565910 83.264 -16.2426
6265.642695 83.490 -15.6644
6311.046124 83.712 -15.4130
6356.778566 83.917 -15.4553
6402.842404 84.096 -15.7371
6449.240040 84.241 -16.1905
6495.973891 84.351 -16.7441
6543.046396 84.425 -17.3315
6590.460007 84.466 -17.8941
6638.217197 84.477 -18.3805
6686.320456 84.462 -18.7466
6734.772290 84.429 -18.9583
6783.575226 84.385 -18.9948
6832.731809 84.337 -18.8491
6882.244600 84.291 -18.5280
6932.116181 84.255 -18.0510
6982.349153 84.232 -17.4465
7032.946133 84.226 -16.7441
7083.909760 84.238 -15.9712
7135.242690 84.269 -15.1549
7186.947600 84.320 -14.3246
7239.027185 84.392 -13.5120
7291.484160 84.483 -12.7516
7344.321260 84.591 -12.0797
7397.541239 84.712 -11.5278
7451.146872 84.841 -11.1174
7505.140954 84.972 -10.8578
7559.526299 85.101 -10.7484
7614.305743 85.223 -10.7800
7669.482141 85.334 -10.9391
7725.058371 85.431 -11.2137
7781.037328 85.511 -11.5939
7837.421932 85.571 -12.0662
7894.215122 85.608 -12.6108
7951.419859 85.619 -13.2025
8009.039125 85.604 -13.8131
8067.075924 85.561 -14.4146
8125.533282 85.491 -14.9839
8184.414245 85.396 -15.5032
8243.721885 85.274 -15.9530
8303.459292 85.126 -16.3088
8363.629581 84.953 -16.5421
8424.235888 84.756 -16.6224
8485.281374 84.540 -16.5237
8546.769221 84.308 -16.2311
8608.702634 84.064 -15.7393
8671.084842 83.813 -15.0470
8733.919097 83.557 -14.1525
8797.208675 83.299 -13.0515
8860.956876 83.041 -11.7394
8925.167022 82.789 -10.2177
8989.842461 82.544 -8.4979
9054.986566 82.311 -6.5981
9120.602731 82.091 -4.5352
9186.694378 81.885 -2.3193
9253.264952 81.694 0.0483
9320.317925 81.521 2.5693
9387.856790 81.369 5.2365
9455.885071 81.242 8.0264
9524.406312 81.144 10.8972
9593.424086 81.076 13.7960
9662.941992 81.034 16.6732
9732.963653 81.013 19.4922
9803.492719 81.008 22.2410
9874.532869 81.013 24.9393
9946.087805 81.026 27.6310
10018.161257 81.048 30.3601
10090.756983 81.085 33.1438
10163.878768 81.143 35.9599
10237.530423 81.226 38.7592
10311.715789 81.331 41.4907
10386.438732 81.458 44.1207
10461.703149 81.604 46.6324
10537.512962 81.768 49.0057
10613.872125 81.948 51.2025
10690.784618 82.142 53.1713
10768.254450 82.340 54.8664
10846.285661 82.535 56.2669
10924.882318 82.717 57.3793
11004.048518 82.877 58.2254
11083.788390 83.012 58.8295
11164.106090 83.114 59.2131
11245.005805 83.179 59.4006
11326.491752 83.201 59.4255
11408.568180 83.175 59.3292
11491.239368 83.096 59.1572
11574.509626 82.962 58.9585
11658.383294 82.770 58.7903
11742.864745 82.519 58.7184
11827.958384 82.210 58.8104
11913.668646 81.848 59.1249
12000.000000 81.437 59.7072
12086.956947 80.984 60.5929
12174.544019 80.494 61.8121
12262.765784 79.972 63.3886
12351.626840 79.427 65.3344
12441.131819 78.864 67.6510
12531.285389 78.288 70.3372
12622.092249 77.704 73.3933
12713.557132 77.118 76.8175
12805.684808 76.534 80.5996
12898.480079 75.956 84.7242
12991.947783 75.389 89.1768
13086.092792 74.836 93.9453
13180.920015 74.300 99.0134
13276.434395 73.785 104.3580
13372.640911 73.291 109.9547
13469.544580 72.822 115.7834
13567.150452 72.378 121.8239
13665.463617 71.960 128.0551
13764.489200 71.569 134.4606
13864.232362 71.204 141.0351
13964.698305 70.868 147.7786
14065.892266 70.562 154.6866
14167.819519 70.287 161.7468
14270.485380 70.045 168.9445
14373.895200 69.839 176.2629
14478.054370 69.670 -176.3200
14582.968320 69.538 -168.8281
14688.642520 69.446 -161.2778
14795.082478 69.394 -153.6817
14902.293745 69.386 -146.0562
15010.281908 69.423 -138.4196
15119.052599 69.509 -130.7901
15228.611486 69.649 -123.1935
15338.964283 69.845 -115.6713
15450.116741 70.103 -108.2801
15562.074656 70.426 -101.0930
15674.843864 70.817 -94.2055
15788.430244 71.276 -87.7437
15902.839718 71.801 -81.8639
16018.078250 72.384 -76.7426
16134.151848 73.007 -72.5604
16251.066563 73.646 -69.4769
16368.828491 74.270 -67.6032
16487.443769 74.837 -66.9815
16606.918584 75.307 -67.5712
16727.259161 75.635 -69.2369
16848.471777 75.784 -71.7466
16970.562748 75.724 -74.7894
17093.538442 75.441 -78.0112
17217.405268 74.937 -81.0627
17342.169684 74.227 -83.6502
17467.838194 73.337 -85.5707
17594.417350 72.295 -86.7246
17721.913751 71.129 -87.1150
17850.334044 69.865 -86.8422
17979.684923 68.520 -86.0924
18109.973131 67.106 -85.1169
18241.205462 65.625 -84.2126
18373.388756 64.073 -83.7139
18506.529905 62.440 -84.0155
18640.635849 60.718 -85.6770
18775.713581 58.912 -89.7131
18911.770141 57.060 -98.3479
19048.812624 55.255 -116.5638
19186.848172 53.662 -148.6807
19325.883983 52.467 -178.7426
19465.927305 51.755 165.7566
19606.985439 51.440 159.1815
19749.065738 51.349 156.7852
19892.175609 51.347 156.2560
20036.322514 51.359 156.3240
