* Measurement data measured by REW V5.31.3
* Source: EXCL: Microphone (USB Sound Device        ), no input selected, R, volume: 0.390
* Format: 256k Log Swept Sine, 1 sweep at -12.0 dBFS with no timing reference
* Dated: Jul 23, 2025 12:11:09 AM
* REW Settings:
*  C-weighting compensation: Off
*  Target level: 75.0 dB
* Note: Mangird Tea R
* Measurement: R Mangird Tea
* Smoothing: 1/12 octave
* Frequency Step: 96 ppo
* Start Frequency: 0.36621094 Hz
*
* Freq(Hz) SPL(dB) Phase(degrees)
0.366211 95.075 -60.4598
0.368865 95.083 -60.5204
0.371538 95.095 -60.6108
0.374230 95.111 -60.7239
0.376942 95.128 -60.8536
0.379673 95.146 -60.9951
0.382424 95.165 -61.1457
0.385196 95.184 -61.3034
0.387987 95.204 -61.4672
0.390798 95.224 -61.6365
0.393630 95.245 -61.8109
0.396483 95.265 -61.9903
0.399356 95.286 -62.1746
0.402250 95.307 -62.3638
0.405165 95.328 -62.5579
0.408101 95.349 -62.7569
0.411058 95.370 -62.9607
0.414037 95.391 -63.1693
0.417037 95.413 -63.3828
0.420059 95.435 -63.6012
0.423103 95.457 -63.8243
0.426169 95.479 -64.0523
0.429257 95.501 -64.2851
0.432368 95.523 -64.5226
0.435501 95.546 -64.7649
0.438656 95.568 -65.0119
0.441835 95.591 -65.2637
0.445037 95.614 -65.5201
0.448262 95.638 -65.7811
0.451510 95.661 -66.0468
0.454782 95.684 -66.3170
0.458077 95.708 -66.5917
0.461397 95.732 -66.8709
0.464740 95.756 -67.1545
0.468108 95.780 -67.4424
0.471500 95.805 -67.7347
0.474917 95.829 -68.0312
0.478358 95.854 -68.3320
0.481825 95.879 -68.6368
0.485316 95.904 -68.9456
0.488833 95.929 -69.2585
0.492375 95.955 -69.5752
0.495943 95.980 -69.8958
0.499537 96.006 -70.2201
0.503157 96.032 -70.5480
0.506803 96.059 -70.8795
0.510475 96.085 -71.2144
0.514175 96.112 -71.5528
0.517900 96.138 -71.8944
0.521653 96.165 -72.2392
0.525434 96.193 -72.5870
0.529241 96.220 -72.9378
0.533076 96.247 -73.2915
0.536939 96.275 -73.6480
0.540830 96.303 -74.0070
0.544749 96.331 -74.3686
0.548696 96.360 -74.7326
0.552673 96.388 -75.0989
0.556677 96.417 -75.4674
0.560711 96.446 -75.8380
0.564774 96.475 -76.2104
0.568867 96.505 -76.5847
0.572989 96.535 -76.9607
0.577141 96.564 -77.3382
0.581324 96.594 -77.7172
0.585536 96.625 -78.0975
0.589779 96.655 -78.4790
0.594053 96.686 -78.8616
0.598358 96.717 -79.2451
0.602694 96.748 -79.6294
0.607061 96.780 -80.0145
0.611460 96.811 -80.4001
0.615891 96.843 -80.7861
0.620354 96.875 -81.1725
0.624849 96.908 -81.5591
0.629377 96.940 -81.9458
0.633938 96.973 -82.3325
0.638532 97.006 -82.7191
0.643159 97.039 -83.1053
0.647819 97.073 -83.4913
0.652514 97.106 -83.8767
0.657242 97.140 -84.2616
0.662005 97.175 -84.6458
0.666802 97.209 -85.0292
0.671634 97.244 -85.4117
0.676501 97.279 -85.7933
0.681403 97.314 -86.1738
0.686341 97.350 -86.5531
0.691314 97.385 -86.9312
0.696324 97.421 -87.3080
0.701370 97.457 -87.6836
0.706452 97.494 -88.0578
0.711571 97.530 -88.4308
0.716728 97.566 -88.8028
0.721921 97.601 -89.1741
0.727153 97.636 -89.5454
0.732422 97.670 -89.9174
0.737729 97.702 -90.2911
0.743075 97.733 -90.6673
0.748460 97.763 -91.0468
0.753883 97.793 -91.4302
0.759346 97.822 -91.8176
0.764849 97.850 -92.2092
0.770391 97.879 -92.6051
0.775974 97.907 -93.0051
0.781597 97.935 -93.4092
0.787261 97.963 -93.8172
0.792966 97.991 -94.2290
0.798712 98.019 -94.6443
0.804500 98.047 -95.0632
0.810329 98.074 -95.4853
0.816201 98.102 -95.9104
0.822116 98.129 -96.3386
0.828073 98.156 -96.7694
0.834074 98.183 -97.2028
0.840118 98.210 -97.6385
0.846206 98.237 -98.0764
0.852338 98.263 -98.5163
0.858514 98.290 -98.9579
0.864735 98.316 -99.4011
0.871001 98.342 -99.8456
0.877313 98.368 -100.2914
0.883670 98.393 -100.7380
0.890074 98.419 -101.1854
0.896524 98.444 -101.6333
0.903020 98.469 -102.0816
0.909564 98.494 -102.5299
0.916155 98.518 -102.9781
0.922794 98.543 -103.4260
0.929481 98.567 -103.8734
0.936216 98.591 -104.3200
0.943000 98.614 -104.7656
0.949834 98.638 -105.2101
0.956717 98.661 -105.6531
0.963649 98.684 -106.0946
0.970632 98.706 -106.5342
0.977666 98.728 -106.9717
0.984750 98.750 -107.4070
0.991886 98.772 -107.8399
0.999074 98.793 -108.2700
1.006314 98.814 -108.6973
1.013606 98.835 -109.1214
1.020951 98.856 -109.5422
1.028349 98.876 -109.9595
1.035801 98.895 -110.3731
1.043307 98.915 -110.7828
1.050867 98.933 -111.1884
1.058482 98.952 -111.5898
1.066152 98.970 -111.9871
1.073878 98.988 -112.3802
1.081660 99.005 -112.7694
1.089498 99.022 -113.1554
1.097393 99.038 -113.5388
1.105345 99.054 -113.9208
1.113355 99.070 -114.3025
1.121423 99.084 -114.6848
1.129549 99.099 -115.0685
1.137734 99.112 -115.4542
1.145979 99.125 -115.8420
1.154283 99.138 -116.2324
1.162647 99.149 -116.6252
1.171072 99.161 -117.0205
1.179558 99.171 -117.4184
1.188106 99.181 -117.8187
1.196715 99.190 -118.2214
1.205387 99.199 -118.6265
1.214122 99.207 -119.0338
1.222920 99.214 -119.4431
1.231782 99.221 -119.8544
1.240708 99.227 -120.2675
1.249699 99.232 -120.6822
1.258754 99.236 -121.0982
1.267876 99.240 -121.5153
1.277063 99.244 -121.9333
1.286318 99.246 -122.3519
1.295639 99.248 -122.7707
1.305027 99.250 -123.1894
1.314484 99.250 -123.6077
1.324009 99.250 -124.0250
1.333604 99.249 -124.4410
1.343268 99.248 -124.8552
1.353002 99.246 -125.2670
1.362806 99.243 -125.6759
1.372681 99.240 -126.0813
1.382628 99.236 -126.4826
1.392647 99.231 -126.8792
1.402739 99.225 -127.2703
1.412904 99.219 -127.6553
1.423142 99.213 -128.0337
1.433455 99.205 -128.4049
1.443843 99.197 -128.7688
1.454305 99.188 -129.1252
1.464844 99.178 -129.4747
1.475459 99.167 -129.8179
1.486150 99.155 -130.1556
1.496920 99.142 -130.4886
1.507767 99.127 -130.8174
1.518693 99.112 -131.1425
1.529698 99.095 -131.4641
1.540783 99.077 -131.7821
1.551948 99.057 -132.0967
1.563194 99.037 -132.4077
1.574521 99.015 -132.7150
1.585931 98.992 -133.0185
1.597423 98.969 -133.3180
1.608999 98.944 -133.6132
1.620658 98.918 -133.9041
1.632402 98.891 -134.1903
1.644232 98.863 -134.4716
1.656146 98.834 -134.7476
1.668147 98.805 -135.0181
1.680235 98.775 -135.2827
1.692411 98.744 -135.5411
1.704675 98.712 -135.7928
1.717028 98.680 -136.0374
1.729470 98.647 -136.2745
1.742003 98.614 -136.5036
1.754626 98.581 -136.7241
1.767341 98.547 -136.9354
1.780147 98.513 -137.1370
1.793047 98.479 -137.3283
1.806040 98.444 -137.5086
1.819128 98.408 -137.6772
1.832310 98.372 -137.8334
1.845587 98.335 -137.9767
1.858961 98.297 -138.1066
1.872432 98.258 -138.2228
1.886001 98.217 -138.3249
1.899667 98.175 -138.4130
1.913433 98.131 -138.4870
1.927299 98.087 -138.5468
1.941265 98.041 -138.5924
1.955332 97.994 -138.6239
1.969501 97.947 -138.6414
1.983773 97.899 -138.6448
1.998148 97.851 -138.6343
2.012627 97.802 -138.6099
2.027212 97.754 -138.5718
2.041902 97.707 -138.5201
2.056698 97.660 -138.4549
2.071602 97.614 -138.3765
2.086614 97.569 -138.2851
2.101734 97.525 -138.1808
2.116964 97.484 -138.0639
2.132304 97.444 -137.9343
2.147756 97.406 -137.7919
2.163320 97.371 -137.6362
2.178996 97.339 -137.4661
2.194786 97.308 -137.2800
2.210690 97.280 -137.0757
2.226710 97.254 -136.8514
2.242845 97.230 -136.6053
2.259098 97.208 -136.3369
2.275468 97.187 -136.0461
2.291957 97.168 -135.7337
2.308566 97.151 -135.4007
2.325295 97.135 -135.0488
2.342145 97.122 -134.6799
2.359117 97.111 -134.2960
2.376212 97.102 -133.8994
2.393431 97.095 -133.4925
2.410775 97.091 -133.0780
2.428244 97.089 -132.6586
2.445840 97.090 -132.2370
2.463564 97.094 -131.8160
2.481416 97.101 -131.3983
2.499397 97.112 -130.9862
2.517509 97.126 -130.5814
2.535752 97.144 -130.1850
2.554127 97.166 -129.7968
2.572635 97.192 -129.4156
2.591277 97.223 -129.0399
2.610055 97.259 -128.6682
2.628968 97.299 -128.2998
2.648019 97.344 -127.9350
2.667208 97.394 -127.5749
2.686535 97.447 -127.2210
2.706003 97.504 -126.8751
2.725612 97.564 -126.5393
2.745363 97.627 -126.2158
2.765257 97.693 -125.9065
2.785295 97.760 -125.6136
2.805478 97.829 -125.3391
2.825808 97.899 -125.0848
2.846285 97.969 -124.8525
2.866910 98.040 -124.6437
2.887685 98.111 -124.4595
2.908611 98.182 -124.3007
2.929688 98.253 -124.1673
2.950917 98.324 -124.0591
2.972301 98.397 -123.9752
2.993839 98.471 -123.9147
3.015534 98.546 -123.8766
3.037386 98.622 -123.8598
3.059396 98.699 -123.8635
3.081565 98.777 -123.8865
3.103896 98.856 -123.9282
3.126388 98.934 -123.9874
3.149043 99.011 -124.0635
3.171862 99.088 -124.1557
3.194847 99.163 -124.2635
3.217998 99.237 -124.3865
3.241317 99.309 -124.5246
3.264805 99.378 -124.6784
3.288463 99.445 -124.8486
3.312293 99.510 -125.0363
3.336295 99.572 -125.2423
3.360471 99.633 -125.4671
3.384822 99.691 -125.7102
3.409350 99.748 -125.9703
3.434056 99.803 -126.2456
3.458940 99.855 -126.5341
3.484005 99.906 -126.8335
3.509252 99.954 -127.1414
3.534681 100.001 -127.4556
3.560295 100.045 -127.7740
3.586094 100.086 -128.0950
3.612081 100.125 -128.4177
3.638255 100.162 -128.7420
3.664620 100.196 -129.0687
3.691175 100.227 -129.3993
3.717923 100.254 -129.7351
3.744864 100.280 -130.0768
3.772001 100.302 -130.4243
3.799335 100.321 -130.7765
3.826866 100.338 -131.1318
3.854597 100.352 -131.4880
3.882529 100.364 -131.8427
3.910664 100.374 -132.1934
3.939002 100.382 -132.5379
3.967546 100.389 -132.8741
3.996296 100.393 -133.2007
4.025255 100.395 -133.5171
4.054423 100.395 -133.8235
4.083804 100.394 -134.1208
4.113396 100.389 -134.4097
4.143204 100.383 -134.6904
4.173227 100.375 -134.9633
4.203468 100.365 -135.2278
4.233928 100.354 -135.4835
4.264609 100.342 -135.7295
4.295512 100.329 -135.9649
4.326639 100.316 -136.1885
4.357992 100.303 -136.3993
4.389572 100.290 -136.5963
4.421380 100.277 -136.7788
4.453419 100.264 -136.9465
4.485691 100.251 -137.1000
4.518196 100.238 -137.2400
4.550936 100.225 -137.3679
4.583914 100.213 -137.4853
4.617131 100.201 -137.5938
4.650589 100.190 -137.6951
4.684289 100.181 -137.7903
4.718233 100.174 -137.8802
4.752424 100.168 -137.9650
4.786862 100.164 -138.0443
4.821549 100.163 -138.1179
4.856488 100.163 -138.1861
4.891680 100.165 -138.2501
4.927127 100.169 -138.3119
4.962831 100.175 -138.3740
4.998794 100.183 -138.4393
5.035017 100.192 -138.5106
5.071503 100.202 -138.5900
5.108253 100.214 -138.6793
5.145270 100.228 -138.7791
5.182555 100.244 -138.8895
5.220110 100.262 -139.0105
5.257937 100.281 -139.1422
5.296038 100.301 -139.2853
5.334415 100.322 -139.4405
5.373071 100.343 -139.6090
5.412006 100.364 -139.7921
5.451224 100.386 -139.9908
5.490725 100.406 -140.2062
5.530514 100.427 -140.4387
5.570590 100.447 -140.6882
5.610957 100.466 -140.9539
5.651616 100.485 -141.2346
5.692570 100.503 -141.5289
5.733821 100.519 -141.8351
5.775370 100.534 -142.1522
5.817221 100.546 -142.4793
5.859375 100.557 -142.8160
5.901834 100.565 -143.1624
5.944602 100.572 -143.5182
5.987679 100.576 -143.8822
6.031068 100.577 -144.2528
6.074771 100.577 -144.6275
6.118792 100.574 -145.0038
6.163131 100.569 -145.3794
6.207792 100.562 -145.7526
6.252776 100.553 -146.1224
6.298086 100.541 -146.4883
6.343725 100.527 -146.8498
6.389694 100.511 -147.2058
6.435996 100.493 -147.5547
6.482634 100.474 -147.8947
6.529610 100.454 -148.2238
6.576926 100.433 -148.5405
6.624585 100.411 -148.8443
6.672590 100.389 -149.1357
6.720942 100.366 -149.4157
6.769645 100.343 -149.6851
6.818700 100.320 -149.9443
6.868111 100.298 -150.1931
6.917881 100.276 -150.4312
6.968010 100.256 -150.6585
7.018504 100.237 -150.8750
7.069362 100.220 -151.0813
7.120590 100.205 -151.2786
7.172189 100.191 -151.4685
7.224161 100.179 -151.6531
7.276511 100.169 -151.8346
7.329239 100.161 -152.0151
7.382350 100.155 -152.1964
7.435845 100.151 -152.3799
7.489729 100.150 -152.5670
7.544002 100.150 -152.7593
7.598669 100.152 -152.9586
7.653732 100.155 -153.1665
7.709194 100.159 -153.3840
7.765058 100.164 -153.6119
7.821327 100.170 -153.8502
7.878004 100.176 -154.0987
7.935091 100.183 -154.3572
7.992592 100.189 -154.6255
8.050510 100.195 -154.9034
8.108847 100.201 -155.1905
8.167607 100.206 -155.4862
8.226793 100.210 -155.7890
8.286408 100.213 -156.0974
8.346454 100.214 -156.4097
8.406936 100.215 -156.7242
8.467856 100.214 -157.0396
8.529218 100.211 -157.3548
8.591024 100.208 -157.6686
8.653278 100.203 -157.9793
8.715983 100.197 -158.2853
8.779143 100.191 -158.5851
8.842760 100.183 -158.8777
8.906839 100.175 -159.1625
8.971381 100.167 -159.4391
9.036392 100.158 -159.7072
9.101873 100.149 -159.9667
9.167829 100.141 -160.2173
9.234263 100.133 -160.4594
9.301178 100.126 -160.6934
9.368578 100.120 -160.9203
9.436467 100.114 -161.1412
9.504847 100.109 -161.3573
9.573723 100.106 -161.5695
9.643099 100.103 -161.7789
9.712976 100.102 -161.9865
9.783361 100.102 -162.1937
9.854255 100.102 -162.4016
9.925663 100.103 -162.6112
9.997588 100.105 -162.8231
10.070035 100.108 -163.0379
10.143007 100.110 -163.2560
10.216507 100.113 -163.4774
10.290540 100.116 -163.7025
10.365109 100.118 -163.9310
10.440219 100.121 -164.1626
10.515873 100.122 -164.3968
10.592076 100.124 -164.6328
10.668830 100.124 -164.8702
10.746141 100.124 -165.1084
10.824012 100.124 -165.3467
10.902447 100.122 -165.5845
10.981451 100.120 -165.8212
11.061027 100.118 -166.0563
11.141180 100.115 -166.2896
11.221913 100.111 -166.5208
11.303232 100.107 -166.7500
11.385140 100.103 -166.9770
11.467641 100.099 -167.2021
11.550741 100.094 -167.4254
11.634442 100.089 -167.6474
11.718750 100.085 -167.8683
11.803669 100.080 -168.0885
11.889203 100.074 -168.3082
11.975357 100.069 -168.5279
12.062136 100.064 -168.7478
12.149543 100.058 -168.9680
12.237583 100.052 -169.1888
12.326262 100.046 -169.4101
12.415583 100.040 -169.6321
12.505552 100.034 -169.8546
12.596172 100.027 -170.0778
12.687449 100.020 -170.3016
12.779387 100.013 -170.5261
12.871992 100.006 -170.7514
12.965268 100.000 -170.9776
13.059220 99.993 -171.2050
13.153852 99.986 -171.4339
13.249170 99.979 -171.6648
13.345179 99.972 -171.8980
13.441884 99.966 -172.1339
13.539289 99.959 -172.3730
13.637401 99.953 -172.6155
13.736223 99.946 -172.8618
13.835761 99.940 -173.1119
13.936021 99.934 -173.3658
14.037007 99.927 -173.6233
14.138725 99.920 -173.8841
14.241180 99.913 -174.1475
14.344377 99.905 -174.4131
14.448323 99.897 -174.6801
14.553021 99.889 -174.9478
14.658478 99.881 -175.2156
14.764700 99.873 -175.4829
14.871691 99.864 -175.7493
14.979457 99.856 -176.0145
15.088005 99.848 -176.2785
15.197339 99.841 -176.5415
15.307465 99.834 -176.8038
15.418389 99.828 -177.0659
15.530117 99.823 -177.3285
15.642655 99.818 -177.5922
15.756008 99.814 -177.8576
15.870182 99.810 -178.1251
15.985184 99.807 -178.3951
16.101019 99.804 -178.6677
16.217694 99.801 -178.9427
16.335214 99.799 -179.2196
16.453586 99.796 -179.4979
16.572815 99.793 -179.7767
16.692909 99.789 179.9449
16.813872 99.786 179.6680
16.935713 99.782 179.3934
17.058436 99.778 179.1220
17.182048 99.773 178.8544
17.306556 99.769 178.5911
17.431967 99.765 178.3323
17.558286 99.761 178.0779
17.685521 99.757 177.8278
17.813677 99.753 177.5815
17.942762 99.749 177.3385
18.072783 99.746 177.0983
18.203746 99.743 176.8604
18.335658 99.740 176.6242
18.468526 99.737 176.3895
18.602356 99.733 176.1559
18.737156 99.730 175.9232
18.872934 99.727 175.6913
19.009695 99.723 175.4602
19.147447 99.718 175.2298
19.286197 99.714 175.0001
19.425953 99.709 174.7710
19.566721 99.703 174.5427
19.708510 99.697 174.3149
19.851326 99.690 174.0878
19.995177 99.683 173.8613
20.140070 99.675 173.6354
20.286013 99.667 173.4100
20.433014 99.658 173.1851
20.581080 99.648 172.9605
20.730219 99.639 172.7361
20.880439 99.628 172.5115
21.031747 99.618 172.2863
21.184152 99.607 172.0600
21.337661 99.596 171.8322
21.492282 99.585 171.6022
21.648024 99.573 171.3698
21.804895 99.561 171.1345
21.962902 99.549 170.8965
22.122054 99.537 170.6558
22.282360 99.524 170.4128
22.443827 99.511 170.1680
22.606464 99.497 169.9219
22.770280 99.484 169.6750
22.935283 99.470 169.4278
23.101481 99.456 169.1804
23.268884 99.442 168.9327
23.437500 99.429 168.6844
23.607338 99.416 168.4354
23.778406 99.404 168.1851
23.950714 99.391 167.9333
24.124271 99.379 167.6800
24.299086 99.368 167.4254
24.475167 99.356 167.1700
24.652524 99.344 166.9146
24.831166 99.333 166.6599
25.011103 99.321 166.4067
25.192344 99.310 166.1558
25.374898 99.299 165.9075
25.558775 99.288 165.6619
25.743984 99.277 165.4189
25.930536 99.266 165.1780
26.118439 99.256 164.9390
26.307704 99.246 164.7014
26.498341 99.236 164.4651
26.690359 99.226 164.2300
26.883768 99.215 163.9964
27.078579 99.204 163.7647
27.274801 99.193 163.5352
27.472446 99.181 163.3085
27.671522 99.169 163.0848
27.872042 99.156 162.8641
28.074014 99.143 162.6464
28.277450 99.130 162.4312
28.482360 99.116 162.2178
28.688755 99.103 162.0055
28.896645 99.088 161.7935
29.106042 99.074 161.5812
29.316957 99.059 161.3679
29.529400 99.043 161.1534
29.743382 99.028 160.9378
29.958915 99.011 160.7214
30.176009 98.994 160.5048
30.394677 98.976 160.2886
30.614929 98.958 160.0733
30.836778 98.940 159.8589
31.060234 98.922 159.6452
31.285309 98.905 159.4314
31.512015 98.888 159.2163
31.740364 98.871 158.9988
31.970368 98.854 158.7782
32.202039 98.838 158.5541
32.435388 98.821 158.3270
32.670428 98.804 158.0977
32.907171 98.787 157.8679
33.145630 98.770 157.6389
33.385817 98.753 157.4118
33.627745 98.735 157.1871
33.871425 98.718 156.9649
34.116871 98.701 156.7445
34.364096 98.685 156.5255
34.613113 98.668 156.3076
34.863934 98.651 156.0909
35.116572 98.633 155.8762
35.371041 98.615 155.6648
35.627354 98.597 155.4578
35.885525 98.579 155.2559
36.145566 98.560 155.0593
36.407492 98.542 154.8672
36.671316 98.523 154.6781
36.937051 98.506 154.4901
37.204712 98.488 154.3015
37.474313 98.471 154.1107
37.745867 98.453 153.9171
38.019389 98.435 153.7203
38.294893 98.416 153.5208
38.572394 98.398 153.3190
38.851905 98.378 153.1155
39.133442 98.358 152.9106
39.417019 98.338 152.7045
39.702651 98.317 152.4975
39.990353 98.296 152.2900
40.280140 98.275 152.0829
40.572026 98.253 151.8770
40.866028 98.231 151.6732
41.162160 98.209 151.4722
41.460438 98.188 151.2737
41.760877 98.166 151.0770
42.063494 98.146 150.8807
42.368303 98.125 150.6837
42.675322 98.105 150.4853
42.984565 98.084 150.2854
43.296048 98.063 150.0849
43.609789 98.042 149.8849
43.925804 98.020 149.6868
44.244108 97.998 149.4915
44.564719 97.975 149.2994
44.887654 97.952 149.1105
45.212928 97.929 148.9243
45.540560 97.905 148.7404
45.870565 97.882 148.5580
46.202962 97.859 148.3765
46.537768 97.835 148.1953
46.875000 97.812 148.0137
47.214676 97.788 147.8318
47.556813 97.764 147.6498
47.901429 97.740 147.4685
48.248542 97.716 147.2887
48.598171 97.692 147.1111
48.950334 97.668 146.9357
49.305048 97.644 146.7620
49.662333 97.620 146.5892
50.022206 97.597 146.4165
50.384688 97.574 146.2433
50.749796 97.550 146.0698
51.117550 97.527 145.8960
51.487969 97.503 145.7225
51.861072 97.479 145.5501
52.236879 97.455 145.3798
52.615409 97.430 145.2128
52.996681 97.404 145.0500
53.380717 97.379 144.8915
53.767536 97.353 144.7372
54.157158 97.328 144.5859
54.549603 97.303 144.4368
54.944892 97.278 144.2883
55.343045 97.254 144.1395
55.744084 97.231 143.9893
56.148028 97.207 143.8368
56.554900 97.184 143.6816
56.964720 97.161 143.5240
57.377510 97.138 143.3644
57.793291 97.115 143.2034
58.212085 97.092 143.0413
58.633914 97.070 142.8785
59.058799 97.047 142.7155
59.486764 97.024 142.5525
59.917829 97.001 142.3900
60.352019 96.979 142.2280
60.789354 96.956 142.0670
61.229859 96.933 141.9076
61.673556 96.910 141.7508
62.120468 96.887 141.5975
62.570618 96.865 141.4476
63.024031 96.842 141.3002
63.480729 96.820 141.1540
63.940736 96.799 141.0077
64.404077 96.777 140.8609
64.870776 96.756 140.7134
65.340856 96.734 140.5653
65.814343 96.712 140.4162
66.291261 96.690 140.2660
66.771635 96.668 140.1148
67.255489 96.645 139.9631
67.742850 96.622 139.8109
68.233743 96.599 139.6577
68.728193 96.576 139.5031
69.226226 96.553 139.3474
69.727867 96.529 139.1916
70.233144 96.506 139.0364
70.742083 96.483 138.8810
71.254709 96.460 138.7238
71.771050 96.437 138.5644
72.291132 96.414 138.4045
72.814984 96.391 138.2470
73.342631 96.368 138.0928
73.874102 96.346 137.9406
74.409424 96.323 137.7877
74.948626 96.300 137.6339
75.491734 96.277 137.4810
76.038779 96.253 137.3311
76.589787 96.230 137.1833
77.144788 96.207 137.0340
77.703811 96.184 136.8800
78.266885 96.161 136.7214
78.834039 96.138 136.5610
79.405303 96.115 136.3998
79.980706 96.093 136.2350
80.560280 96.071 136.0623
81.144053 96.049 135.8796
81.732056 96.026 135.6899
82.324320 96.001 135.4989
82.920876 95.975 135.3105
83.521755 95.948 135.1249
84.126988 95.919 134.9409
84.736607 95.889 134.7589
85.350643 95.858 134.5830
85.969129 95.825 134.4177
86.592097 95.792 134.2642
87.219579 95.759 134.1190
87.851608 95.728 133.9760
88.488217 95.698 133.8313
89.129439 95.668 133.6849
89.775308 95.637 133.5403
90.425856 95.607 133.4019
91.081119 95.578 133.2714
91.741131 95.548 133.1486
92.405925 95.519 133.0328
93.075536 95.490 132.9231
93.750000 95.461 132.8194
94.429351 95.432 132.7217
95.113625 95.403 132.6294
95.802858 95.374 132.5396
96.497085 95.346 132.4472
97.196342 95.317 132.3484
97.900667 95.288 132.2442
98.610096 95.257 132.1407
99.324665 95.225 132.0469
100.044413 95.194 131.9704
100.769376 95.163 131.9146
101.499592 95.135 131.8781
102.235100 95.110 131.8557
102.975938 95.087 131.8426
103.722144 95.067 131.8358
104.473757 95.048 131.8351
105.230817 95.031 131.8415
105.993363 95.017 131.8541
106.761435 95.007 131.8675
107.535072 95.002 131.8708
108.314315 95.002 131.8506
109.099206 95.006 131.7946
109.889783 95.013 131.6964
110.686090 95.019 131.5564
111.488167 95.023 131.3813
112.296056 95.023 131.1810
113.109800 95.017 130.9655
113.929440 95.006 130.7428
114.755020 94.989 130.5178
115.586582 94.966 130.2945
116.424170 94.938 130.0780
117.267827 94.906 129.8760
118.117598 94.874 129.6962
118.973527 94.845 129.5406
119.835658 94.822 129.3993
120.704037 94.806 129.2546
121.578708 94.796 129.0945
122.459718 94.789 128.9216
123.347111 94.782 128.7458
124.240935 94.775 128.5758
125.141236 94.767 128.4153
126.048061 94.757 128.2638
126.961458 94.746 128.1176
127.881473 94.734 127.9712
128.808154 94.722 127.8193
129.741551 94.709 127.6589
130.681712 94.695 127.4902
131.628686 94.682 127.3156
132.582521 94.668 127.1378
133.543269 94.654 126.9600
134.510979 94.639 126.7844
135.485701 94.623 126.6117
136.467486 94.606 126.4413
137.456386 94.588 126.2718
138.452451 94.569 126.1021
139.455735 94.550 125.9312
140.466288 94.530 125.7587
141.484165 94.511 125.5834
142.509418 94.491 125.4048
143.542100 94.471 125.2225
144.582265 94.451 125.0369
145.629968 94.431 124.8489
146.685262 94.411 124.6598
147.748204 94.390 124.4709
148.818849 94.369 124.2838
149.897251 94.348 124.1003
150.983469 94.327 123.9229
152.077557 94.307 123.7542
153.179574 94.288 123.5974
154.289576 94.270 123.4543
155.407622 94.255 123.3243
156.533770 94.243 123.2044
157.668078 94.232 123.0901
158.810606 94.223 122.9764
159.961413 94.214 122.8593
161.120559 94.205 122.7360
162.288105 94.193 122.6048
163.464112 94.179 122.4655
164.648640 94.164 122.3193
165.841752 94.146 122.1695
167.043510 94.127 122.0203
168.253976 94.108 121.8761
169.473213 94.089 121.7407
170.701286 94.070 121.6168
171.938258 94.053 121.5052
173.184194 94.036 121.4050
174.439158 94.020 121.3143
175.703216 94.006 121.2311
176.976434 93.991 121.1542
178.258878 93.977 121.0840
179.550615 93.962 121.0217
180.851713 93.949 120.9695
182.162239 93.936 120.9297
183.482262 93.924 120.9049
184.811850 93.915 120.8965
186.151073 93.909 120.9055
187.500000 93.906 120.9310
188.858702 93.908 120.9709
190.227250 93.916 121.0203
191.605715 93.930 121.0709
192.994169 93.952 121.1118
194.392685 93.981 121.1307
195.801334 94.016 121.1158
197.220191 94.055 121.0567
198.649330 94.097 120.9460
200.088825 94.139 120.7807
201.538751 94.180 120.5621
202.999184 94.219 120.2951
204.470200 94.254 119.9868
205.951875 94.284 119.6445
207.444287 94.309 119.2762
208.947514 94.327 118.8904
210.461634 94.339 118.4961
211.986726 94.345 118.1034
213.522869 94.347 117.7223
215.070144 94.345 117.3618
216.628631 94.340 117.0279
218.198411 94.336 116.7214
219.779567 94.332 116.4385
221.372180 94.330 116.1717
222.976334 94.329 115.9129
224.592112 94.330 115.6561
226.219600 94.332 115.3985
227.858880 94.334 115.1399
229.510039 94.337 114.8811
231.173164 94.340 114.6225
232.848340 94.343 114.3641
234.535655 94.346 114.1052
236.235197 94.349 113.8446
237.947054 94.352 113.5816
239.671317 94.354 113.3160
241.408074 94.355 113.0492
243.157416 94.356 112.7838
244.919435 94.355 112.5228
246.694223 94.354 112.2693
248.481871 94.352 112.0262
250.282473 94.351 111.7958
252.096123 94.351 111.5792
253.922915 94.353 111.3743
255.762945 94.358 111.1753
257.616309 94.366 110.9724
259.483103 94.377 110.7559
261.363424 94.388 110.5211
263.257372 94.399 110.2699
265.165043 94.409 110.0093
267.086538 94.417 109.7474
269.021957 94.424 109.4910
270.971401 94.431 109.2436
272.934972 94.439 109.0056
274.912771 94.447 108.7749
276.904902 94.457 108.5486
278.911469 94.469 108.3242
280.932577 94.482 108.0990
282.968330 94.498 107.8695
285.018835 94.515 107.6306
287.084199 94.534 107.3755
289.164530 94.554 107.0990
291.259935 94.573 106.7999
293.370525 94.590 106.4832
295.496408 94.605 106.1585
297.637697 94.616 105.8352
299.794503 94.626 105.5194
301.966937 94.635 105.2131
304.155114 94.644 104.9153
306.359147 94.653 104.6230
308.579152 94.663 104.3328
310.815244 94.672 104.0415
313.067539 94.682 103.7477
315.336156 94.692 103.4526
317.621211 94.701 103.1599
319.922826 94.710 102.8737
322.241118 94.719 102.5960
324.576210 94.730 102.3253
326.928223 94.741 102.0586
329.297280 94.754 101.7923
331.683504 94.767 101.5234
334.087019 94.782 101.2493
336.507952 94.797 100.9681
338.946427 94.812 100.6794
341.402572 94.826 100.3847
343.876516 94.840 100.0870
346.368387 94.854 99.7893
348.878315 94.868 99.4936
351.406431 94.881 99.2002
353.952867 94.895 98.9084
356.517756 94.908 98.6167
359.101230 94.922 98.3238
361.703426 94.936 98.0291
364.324478 94.951 97.7326
366.964523 94.965 97.4352
369.623699 94.979 97.1379
372.302145 94.994 96.8416
375.000000 95.009 96.5465
377.717405 95.023 96.2524
380.454501 95.038 95.9588
383.211431 95.053 95.6651
385.988339 95.068 95.3708
388.785369 95.083 95.0757
391.602668 95.099 94.7797
394.440383 95.114 94.4829
397.298660 95.130 94.1855
400.177650 95.146 93.8868
403.077502 95.162 93.5860
405.998368 95.178 93.2815
408.940400 95.194 92.9729
411.903750 95.210 92.6618
414.888575 95.225 92.3520
417.895028 95.239 92.0471
420.923268 95.254 91.7497
423.973452 95.268 91.4601
427.045738 95.284 91.1768
430.140287 95.301 90.8954
433.257261 95.319 90.6116
436.396822 95.338 90.3224
439.559133 95.359 90.0273
442.744360 95.380 89.7263
445.952668 95.401 89.4173
449.184225 95.424 89.0959
452.439199 95.447 88.7570
455.717760 95.468 88.3984
459.020079 95.486 88.0243
462.346327 95.501 87.6448
465.696680 95.513 87.2711
469.071310 95.523 86.9102
472.470394 95.532 86.5634
475.894109 95.541 86.2281
479.342634 95.550 85.8992
482.816148 95.559 85.5717
486.314833 95.567 85.2442
489.838871 95.574 84.9209
493.388445 95.580 84.6089
496.963741 95.586 84.3117
500.564945 95.593 84.0256
504.192245 95.602 83.7429
507.845830 95.612 83.4571
511.525890 95.621 83.1658
515.232618 95.630 82.8701
518.966206 95.638 82.5738
522.726849 95.645 82.2815
526.514743 95.651 81.9977
530.330086 95.657 81.7247
534.173076 95.664 81.4605
538.043915 95.671 81.2009
541.942803 95.678 80.9430
545.869944 95.686 80.6870
549.825542 95.694 80.4333
553.809805 95.702 80.1806
557.822939 95.711 79.9262
561.865154 95.719 79.6689
565.936660 95.727 79.4097
570.037671 95.734 79.1519
574.168399 95.740 78.8994
578.329060 95.745 78.6543
582.519870 95.750 78.4168
586.741049 95.755 78.1867
590.992817 95.759 77.9660
595.275394 95.763 77.7564
599.589005 95.768 77.5566
603.933874 95.774 77.3618
608.310228 95.780 77.1678
612.718295 95.787 76.9736
617.158304 95.794 76.7816
621.630488 95.800 76.5974
626.135079 95.806 76.4267
630.672311 95.812 76.2712
635.242423 95.820 76.1267
639.845651 95.830 75.9876
644.482237 95.842 75.8517
649.152421 95.855 75.7196
653.856447 95.871 75.5894
658.594560 95.888 75.4542
663.367008 95.908 75.3043
668.174039 95.928 75.1324
673.015903 95.948 74.9397
677.892854 95.965 74.7341
682.805145 95.979 74.5248
687.753032 95.992 74.3192
692.736774 96.002 74.1234
697.756631 96.011 73.9422
702.812863 96.020 73.7777
707.905735 96.030 73.6276
713.035511 96.040 73.4873
718.202461 96.051 73.3537
723.406852 96.063 73.2263
728.648956 96.076 73.1060
733.929047 96.088 72.9937
739.247399 96.102 72.8890
744.604290 96.116 72.7911
750.000000 96.132 72.6984
755.434809 96.149 72.6099
760.909001 96.167 72.5244
766.422861 96.186 72.4406
771.976677 96.206 72.3570
777.570739 96.228 72.2727
783.205337 96.251 72.1873
788.880766 96.274 72.1024
794.597321 96.298 72.0209
800.355301 96.324 71.9449
806.155005 96.351 71.8732
811.996736 96.381 71.7998
817.880799 96.414 71.7166
823.807501 96.449 71.6145
829.777150 96.486 71.4864
835.790057 96.521 71.3310
841.846536 96.555 71.1552
847.946903 96.586 70.9692
854.091476 96.614 70.7812
860.280575 96.641 70.5948
866.514523 96.667 70.4134
872.793644 96.691 70.2402
879.118267 96.716 70.0757
885.488720 96.741 69.9167
891.905336 96.766 69.7599
898.368450 96.791 69.6051
904.878398 96.816 69.4540
911.435520 96.842 69.3073
918.040157 96.868 69.1629
924.692655 96.895 69.0184
931.393359 96.922 68.8707
938.142619 96.951 68.7167
944.940787 96.979 68.5551
951.788218 97.008 68.3874
958.685268 97.035 68.2166
965.632296 97.062 68.0453
972.629666 97.088 67.8758
979.677741 97.114 67.7086
986.776890 97.139 67.5430
993.927482 97.164 67.3802
1001.129891 97.189 67.2242
1008.384491 97.214 67.0782
1015.691660 97.241 66.9418
1023.051781 97.271 66.8105
1030.465236 97.303 66.6772
1037.932411 97.338 66.5314
1045.453698 97.375 66.3616
1053.029486 97.413 66.1624
1060.660172 97.449 65.9368
1068.346153 97.483 65.6924
1076.087829 97.514 65.4377
1083.885605 97.543 65.1786
1091.739887 97.570 64.9175
1099.651084 97.597 64.6553
1107.619609 97.621 64.3934
1115.645878 97.645 64.1336
1123.730308 97.667 63.8776
1131.873321 97.687 63.6268
1140.075341 97.707 63.3817
1148.336797 97.725 63.1424
1156.658119 97.744 62.9095
1165.039741 97.762 62.6841
1173.482099 97.780 62.4678
1181.985634 97.800 62.2599
1190.550789 97.822 62.0548
1199.178011 97.846 61.8418
1207.867749 97.872 61.6097
1216.620457 97.897 61.3528
1225.436590 97.920 61.0742
1234.316609 97.940 60.7818
1243.260976 97.957 60.4839
1252.270157 97.971 60.1877
1261.344623 97.983 59.8978
1270.484846 97.992 59.6157
1279.691303 98.000 59.3435
1288.964474 98.007 59.0831
1298.304842 98.014 58.8345
1307.712894 98.020 58.5957
1317.189120 98.026 58.3636
1326.734016 98.031 58.1367
1336.348077 98.034 57.9158
1346.031806 98.037 57.7033
1355.785708 98.038 57.5026
1365.610290 98.038 57.3168
1375.506065 98.038 57.1504
1385.473549 98.037 57.0083
1395.513261 98.038 56.8918
1405.625726 98.042 56.7960
1415.811469 98.050 56.7094
1426.071023 98.060 56.6178
1436.404921 98.073 56.5117
1446.813703 98.086 56.3899
1457.297912 98.099 56.2570
1467.858093 98.110 56.1184
1478.494798 98.121 55.9785
1489.208581 98.130 55.8411
1500.000000 98.139 55.7101
1510.869618 98.147 55.5894
1521.818002 98.155 55.4821
1532.845723 98.163 55.3904
1543.953355 98.172 55.3154
1555.141477 98.183 55.2572
1566.410674 98.196 55.2122
1577.761531 98.212 55.1706
1589.194642 98.231 55.1194
1600.710601 98.253 55.0504
1612.310010 98.273 54.9630
1623.993473 98.293 54.8625
1635.761599 98.311 54.7567
1647.615002 98.327 54.6526
1659.554299 98.342 54.5569
1671.580114 98.356 54.4753
1683.693072 98.369 54.4117
1695.893807 98.383 54.3676
1708.182952 98.396 54.3442
1720.561150 98.410 54.3448
1733.029045 98.425 54.3748
1745.587288 98.441 54.4405
1758.236533 98.462 54.5475
1770.977440 98.488 54.6972
1783.810673 98.524 54.8817
1796.736900 98.572 55.0803
1809.756796 98.632 55.2630
1822.871040 98.703 55.3996
1836.080315 98.783 55.4662
1849.385310 98.869 55.4469
1862.786718 98.956 55.3341
1876.285239 99.041 55.1298
1889.881575 99.122 54.8447
1903.576436 99.198 54.4960
1917.370535 99.266 54.1038
1931.264593 99.328 53.6863
1945.259332 99.387 53.2566
1959.355483 99.442 52.8177
1973.553781 99.495 52.3653
1987.854965 99.547 51.8943
2002.259781 99.596 51.4039
2016.768981 99.642 50.8967
2031.383320 99.684 50.3765
2046.103561 99.724 49.8477
2060.930471 99.761 49.3133
2075.864823 99.796 48.7740
2090.907395 99.829 48.2289
2106.058972 99.860 47.6782
2121.320344 99.889 47.1242
2136.692305 99.916 46.5717
2152.175658 99.941 46.0253
2167.771210 99.967 45.4857
2183.479774 99.994 44.9460
2199.302169 100.023 44.3950
2215.239219 100.052 43.8232
2231.291755 100.080 43.2257
2247.460615 100.107 42.6014
2263.746641 100.130 41.9541
2280.150683 100.150 41.2910
2296.673595 100.168 40.6217
2313.316238 100.183 39.9544
2330.079481 100.197 39.2922
2346.964198 100.211 38.6299
2363.971268 100.225 37.9577
2381.101578 100.239 37.2675
2398.356022 100.251 36.5554
2415.735498 100.259 35.8221
2433.240913 100.265 35.0707
2450.873180 100.267 34.3056
2468.633217 100.264 33.5311
2486.521951 100.257 32.7521
2504.540314 100.246 31.9762
2522.689246 100.229 31.2140
2540.969692 100.208 30.4757
2559.382606 100.185 29.7661
2577.928947 100.161 29.0818
2596.609683 100.136 28.4164
2615.425787 100.110 27.7640
2634.378241 100.082 27.1223
2653.468031 100.052 26.4930
2672.696154 100.019 25.8823
2692.063613 99.984 25.2987
2711.571415 99.949 24.7483
2731.220579 99.915 24.2292
2751.012130 99.883 23.7328
2770.947098 99.853 23.2489
2791.026522 99.824 22.7698
2811.251451 99.796 22.2913
2831.622938 99.768 21.8116
2852.142045 99.740 21.3307
2872.809842 99.710 20.8505
2893.627406 99.678 20.3769
2914.595823 99.645 19.9196
2935.716186 99.610 19.4872
2956.989596 99.576 19.0822
2978.417161 99.543 18.7002
3000.000000 99.513 18.3351
3021.739237 99.485 17.9816
3043.636005 99.458 17.6376
3065.691446 99.432 17.3049
3087.906710 99.409 16.9863
3110.282955 99.389 16.6804
3132.821347 99.374 16.3773
3155.523062 99.365 16.0630
3178.389283 99.360 15.7230
3201.421202 99.358 15.3468
3224.620020 99.357 14.9277
3247.986946 99.355 14.4641
3271.523198 99.349 13.9617
3295.230004 99.338 13.4352
3319.108599 99.321 12.9060
3343.160228 99.299 12.3939
3367.386145 99.274 11.9134
3391.787613 99.250 11.4730
3416.365904 99.227 11.0764
3441.122300 99.209 10.7225
3466.058091 99.199 10.4054
3491.174576 99.201 10.1087
3516.473066 99.216 9.8030
3541.954880 99.247 9.4481
3567.621345 99.293 9.0010
3593.473800 99.350 8.4218
3619.513592 99.414 7.6781
3645.742080 99.479 6.7471
3672.160630 99.540 5.6189
3698.770620 99.590 4.2958
3725.573436 99.625 2.7875
3752.570477 99.640 1.1064
3779.763150 99.630 -0.7305
3807.152872 99.589 -2.6981
3834.741071 99.511 -4.7570
3862.529185 99.391 -6.8516
3890.518664 99.225 -8.9147
3918.710966 99.014 -10.8734
3947.107561 98.757 -12.6520
3975.709929 98.459 -14.1754
4004.519563 98.124 -15.3730
4033.537962 97.762 -16.1840
4062.766641 97.383 -16.5615
4092.207123 97.004 -16.4805
4121.860942 96.639 -15.9514
4151.729646 96.308 -15.0317
4181.814790 96.023 -13.8229
4212.117944 95.795 -12.4547
4242.640687 95.624 -11.0601
4273.384610 95.507 -9.7557
4304.351317 95.435 -8.6328
4335.542421 95.397 -7.7509
4366.959549 95.379 -7.1382
4398.604338 95.369 -6.7957
4430.478438 95.357 -6.7021
4462.583511 95.332 -6.8179
4494.921231 95.288 -7.0916
4527.493283 95.222 -7.4705
4560.301365 95.132 -7.9082
4593.347189 95.017 -8.3627
4626.632476 94.877 -8.7927
4660.158962 94.713 -9.1572
4693.928395 94.529 -9.4219
4727.942535 94.329 -9.5626
4762.203156 94.117 -9.5668
4796.712043 93.897 -9.4332
4831.470996 93.672 -9.1657
4866.481826 93.444 -8.7670
4901.746360 93.216 -8.2374
4937.266434 92.989 -7.5791
4973.043902 92.764 -6.7959
5009.080628 92.542 -5.8881
5045.378492 92.325 -4.8488
5081.939384 92.113 -3.6678
5118.765212 91.909 -2.3380
5155.857894 91.718 -0.8591
5193.219366 91.542 0.7598
5230.851574 91.385 2.5051
5268.756481 91.249 4.3649
5306.936062 91.136 6.3279
5345.392309 91.048 8.3800
5384.127225 90.988 10.5046
5423.142830 90.956 12.6888
5462.441159 90.956 14.9221
5502.024259 90.990 17.1908
5541.894195 91.062 19.4697
5582.053045 91.175 21.7179
5622.502902 91.331 23.8808
5663.245876 91.530 25.8979
5704.284090 91.769 27.7059
5745.619684 92.042 29.2399
5787.254813 92.341 30.4415
5829.191647 92.656 31.2686
5871.432373 92.976 31.6984
5913.979192 93.288 31.7271
5956.834323 93.580 31.3675
6000.000000 93.841 30.6488
6043.478473 94.060 29.6206
6087.272010 94.230 28.3512
6131.382892 94.344 26.9218
6175.813420 94.399 25.4210
6220.565910 94.396 23.9414
6265.642695 94.339 22.5745
6311.046124 94.233 21.4026
6356.778566 94.089 20.4908
6402.842404 93.918 19.8818
6449.240040 93.730 19.5966
6495.973891 93.537 19.6354
6543.046396 93.347 19.9802
6590.460007 93.169 20.6018
6638.217197 93.009 21.4675
6686.320456 92.870 22.5463
6734.772290 92.757 23.8090
6783.575226 92.672 25.2260
6832.731809 92.617 26.7672
6882.244600 92.594 28.4022
6932.116181 92.603 30.0992
6982.349153 92.644 31.8271
7032.946133 92.717 33.5603
7083.909760 92.820 35.2796
7135.242690 92.954 36.9705
7186.947600 93.120 38.6196
7239.027185 93.319 40.2108
7291.484160 93.553 41.7217
7344.321260 93.822 43.1221
7397.541239 94.126 44.3784
7451.146872 94.465 45.4559
7505.140954 94.836 46.3170
7559.526299 95.238 46.9159
7614.305743 95.668 47.1975
7669.482141 96.119 47.1002
7725.058371 96.583 46.5629
7781.037328 97.047 45.5368
7837.421932 97.497 43.9970
7894.215122 97.918 41.9471
7951.419859 98.298 39.4157
8009.039125 98.625 36.4524
8067.075924 98.890 33.1238
8125.533282 99.086 29.5094
8184.414245 99.209 25.7004
8243.721885 99.256 21.8004
8303.459292 99.228 17.9218
8363.629581 99.129 14.1769
8424.235888 98.968 10.6672
8485.281374 98.754 7.4718
8546.769221 98.501 4.6377
8608.702634 98.222 2.1796
8671.084842 97.929 0.0859
8733.919097 97.631 -1.6733
8797.208675 97.337 -3.1404
8860.956876 97.055 -4.3646
8925.167022 96.788 -5.4033
8989.842461 96.540 -6.3184
9054.986566 96.310 -7.1682
9120.602731 96.095 -7.9984
9186.694378 95.890 -8.8373
9253.264952 95.690 -9.6966
9320.317925 95.493 -10.5813
9387.856790 95.296 -11.4994
9455.885071 95.097 -12.4641
9524.406312 94.890 -13.4878
9593.424086 94.667 -14.5703
9662.941992 94.422 -15.6866
9732.963653 94.145 -16.7853
9803.492719 93.833 -17.7930
9874.532869 93.483 -18.6218
9946.087805 93.099 -19.1785
10018.161257 92.685 -19.3716
10090.756983 92.256 -19.1221
10163.878768 91.827 -18.3784
10237.530423 91.417 -17.1294
10311.715789 91.048 -15.4106
10386.438732 90.738 -13.2994
10461.703149 90.503 -10.9042
10537.512962 90.356 -8.3572
10613.872125 90.301 -5.8102
10690.784618 90.339 -3.4250
10768.254450 90.461 -1.3560
10846.285661 90.654 0.2705
10924.882318 90.898 1.3663
11004.048518 91.173 1.8813
11083.788390 91.456 1.8002
11164.106090 91.727 1.1429
11245.005805 91.966 -0.0337
11326.491752 92.158 -1.6429
11408.568180 92.293 -3.5850
11491.239368 92.368 -5.7635
11574.509626 92.379 -8.0914
11658.383294 92.324 -10.4816
11742.864745 92.206 -12.8409
11827.958384 92.027 -15.0760
11913.668646 91.796 -17.1085
12000.000000 91.526 -18.8859
12086.956947 91.229 -20.3834
12174.544019 90.918 -21.6023
12262.765784 90.606 -22.5693
12351.626840 90.305 -23.3359
12441.131819 90.023 -23.9711
12531.285389 89.764 -24.5501
12622.092249 89.528 -25.1456
12713.557132 89.314 -25.8247
12805.684808 89.116 -26.6471
12898.480079 88.924 -27.6567
12991.947783 88.726 -28.8738
13086.092792 88.512 -30.2925
13180.920015 88.268 -31.8844
13276.434395 87.985 -33.6009
13372.640911 87.652 -35.3718
13469.544580 87.265 -37.1096
13567.150452 86.822 -38.7207
13665.463617 86.326 -40.1190
13764.489200 85.783 -41.2316
13864.232362 85.201 -42.0023
13964.698305 84.592 -42.3960
14065.892266 83.966 -42.4005
14167.819519 83.334 -42.0195
14270.485380 82.707 -41.2628
14373.895200 82.092 -40.1444
14478.054370 81.497 -38.6879
14582.968320 80.931 -36.9270
14688.642520 80.401 -34.9028
14795.082478 79.912 -32.6643
14902.293745 79.468 -30.2699
15010.281908 79.073 -27.7808
15119.052599 78.726 -25.2515
15228.611486 78.426 -22.7266
15338.964283 78.171 -20.2408
15450.116741 77.957 -17.8177
15562.074656 77.782 -15.4709
15674.843864 77.643 -13.2096
15788.430244 77.539 -11.0424
15902.839718 77.470 -8.9757
16018.078250 77.435 -7.0118
16134.151848 77.435 -5.1519
16251.066563 77.475 -3.4020
16368.828491 77.560 -1.7808
16487.443769 77.700 -0.3322
16606.918584 77.902 0.8604
16727.259161 78.169 1.6702
16848.471777 78.499 1.9375
16970.562748 78.875 1.4893
17093.538442 79.269 0.1742
17217.405268 79.640 -2.0966
17342.169684 79.940 -5.3174
17467.838194 80.120 -9.3678
17594.417350 80.136 -14.0050
17721.913751 79.958 -18.8801
17850.334044 79.580 -23.5886
17979.684923 79.013 -27.7383
18109.973131 78.293 -31.0154
18241.205462 77.468 -33.2348
18373.388756 76.594 -34.3636
18506.529905 75.729 -34.5140
18640.635849 74.921 -33.9104
18775.713581 74.204 -32.8412
18911.770141 73.595 -31.6086
19048.812624 73.091 -30.4888
19186.848172 72.677 -29.6934
19325.883983 72.324 -29.3364
19465.927305 72.010 -29.4199
19606.985439 71.721 -29.8464
19749.065738 71.464 -30.4478
19892.175609 71.263 -31.0198
20036.322514 71.153 -31.3681
