* Measurement data measured by REW V5.31.3
* Source: EXCL: Microphone (USB Sound Device        ), no input selected, R, volume: 0.390
* Format: 256k Log Swept Sine, 1 sweep at -12.0 dBFS with no timing reference
* Dated: Jul 23, 2025 12:09:43 AM
* REW Settings:
*  C-weighting compensation: Off
*  Target level: 75.0 dB
* Note: Mangird Tea L
* Measurement: L Mangird Tea
* Smoothing: 1/12 octave
* Frequency Step: 96 ppo
* Start Frequency: 0.36621094 Hz
*
* Freq(Hz) SPL(dB) Phase(degrees)
0.366211 94.711 -60.1897
0.368865 94.719 -60.2497
0.371538 94.731 -60.3394
0.374230 94.746 -60.4516
0.376942 94.763 -60.5801
0.379673 94.781 -60.7206
0.382424 94.800 -60.8699
0.385196 94.819 -61.0263
0.387987 94.839 -61.1888
0.390798 94.858 -61.3567
0.393630 94.878 -61.5298
0.396483 94.899 -61.7078
0.399356 94.919 -61.8908
0.402250 94.940 -62.0786
0.405165 94.960 -62.2713
0.408101 94.981 -62.4688
0.411058 95.002 -62.6711
0.414037 95.023 -62.8783
0.417037 95.045 -63.0903
0.420059 95.066 -63.3071
0.423103 95.088 -63.5287
0.426169 95.110 -63.7551
0.429257 95.132 -63.9863
0.432368 95.154 -64.2223
0.435501 95.176 -64.4630
0.438656 95.198 -64.7084
0.441835 95.221 -64.9585
0.445037 95.244 -65.2132
0.448262 95.267 -65.4726
0.451510 95.290 -65.7366
0.454782 95.313 -66.0051
0.458077 95.336 -66.2781
0.461397 95.360 -66.5556
0.464740 95.384 -66.8375
0.468108 95.408 -67.1237
0.471500 95.432 -67.4142
0.474917 95.456 -67.7090
0.478358 95.481 -68.0079
0.481825 95.505 -68.3109
0.485316 95.530 -68.6180
0.488833 95.555 -68.9290
0.492375 95.580 -69.2440
0.495943 95.606 -69.5627
0.499537 95.631 -69.8851
0.503157 95.657 -70.2112
0.506803 95.683 -70.5409
0.510475 95.709 -70.8740
0.514175 95.735 -71.2105
0.517900 95.762 -71.5502
0.521653 95.788 -71.8931
0.525434 95.815 -72.2391
0.529241 95.842 -72.5880
0.533076 95.869 -72.9398
0.536939 95.897 -73.2943
0.540830 95.925 -73.6515
0.544749 95.952 -74.0112
0.548696 95.980 -74.3732
0.552673 96.009 -74.7376
0.556677 96.037 -75.1041
0.560711 96.066 -75.4727
0.564774 96.095 -75.8432
0.568867 96.124 -76.2156
0.572989 96.153 -76.5895
0.577141 96.183 -76.9651
0.581324 96.212 -77.3421
0.585536 96.242 -77.7204
0.589779 96.272 -78.0998
0.594053 96.303 -78.4804
0.598358 96.333 -78.8618
0.602694 96.364 -79.2441
0.607061 96.395 -79.6270
0.611460 96.427 -80.0105
0.615891 96.458 -80.3945
0.620354 96.490 -80.7787
0.624849 96.522 -81.1631
0.629377 96.554 -81.5476
0.633938 96.586 -81.9321
0.638532 96.619 -82.3164
0.643159 96.652 -82.7003
0.647819 96.685 -83.0839
0.652514 96.718 -83.4670
0.657242 96.752 -83.8495
0.662005 96.786 -84.2312
0.666802 96.820 -84.6122
0.671634 96.854 -84.9921
0.676501 96.889 -85.3711
0.681403 96.924 -85.7489
0.686341 96.959 -86.1255
0.691314 96.994 -86.5009
0.696324 97.030 -86.8748
0.701370 97.065 -87.2474
0.706452 97.101 -87.6187
0.711571 97.137 -87.9886
0.716728 97.172 -88.3574
0.721921 97.207 -88.7256
0.727153 97.241 -89.0936
0.732422 97.275 -89.4622
0.737729 97.306 -89.8324
0.743075 97.337 -90.2051
0.748460 97.367 -90.5812
0.753883 97.395 -90.9610
0.759346 97.424 -91.3448
0.764849 97.452 -91.7329
0.770391 97.480 -92.1251
0.775974 97.507 -92.5215
0.781597 97.535 -92.9220
0.787261 97.562 -93.3263
0.792966 97.590 -93.7344
0.798712 97.617 -94.1461
0.804500 97.644 -94.5612
0.810329 97.671 -94.9796
0.816201 97.698 -95.4011
0.822116 97.724 -95.8255
0.828073 97.751 -96.2526
0.834074 97.777 -96.6822
0.840118 97.803 -97.1142
0.846206 97.829 -97.5483
0.852338 97.855 -97.9844
0.858514 97.880 -98.4223
0.864735 97.906 -98.8617
0.871001 97.931 -99.3024
0.877313 97.956 -99.7443
0.883670 97.981 -100.1871
0.890074 98.006 -100.6307
0.896524 98.030 -101.0747
0.903020 98.054 -101.5190
0.909564 98.078 -101.9634
0.916155 98.102 -102.4077
0.922794 98.126 -102.8516
0.929481 98.149 -103.2950
0.936216 98.172 -103.7375
0.943000 98.194 -104.1790
0.949834 98.217 -104.6193
0.956717 98.239 -105.0581
0.963649 98.261 -105.4953
0.970632 98.283 -105.9305
0.977666 98.304 -106.3637
0.984750 98.325 -106.7944
0.991886 98.345 -107.2227
0.999074 98.366 -107.6481
1.006314 98.386 -108.0705
1.013606 98.405 -108.4898
1.020951 98.425 -108.9055
1.028349 98.443 -109.3176
1.035801 98.462 -109.7259
1.043307 98.480 -110.1301
1.050867 98.498 -110.5300
1.058482 98.515 -110.9256
1.066152 98.532 -111.3168
1.073878 98.549 -111.7036
1.081660 98.565 -112.0864
1.089498 98.580 -112.4657
1.097393 98.595 -112.8422
1.105345 98.610 -113.2170
1.113355 98.624 -113.5913
1.121423 98.637 -113.9660
1.129549 98.650 -114.3419
1.137734 98.662 -114.7195
1.145979 98.674 -115.0992
1.154283 98.684 -115.4810
1.162647 98.695 -115.8651
1.171072 98.704 -116.2515
1.179558 98.713 -116.6403
1.188106 98.721 -117.0313
1.196715 98.729 -117.4245
1.205387 98.736 -117.8198
1.214122 98.742 -118.2171
1.222920 98.748 -118.6162
1.231782 98.753 -119.0171
1.240708 98.757 -119.4196
1.249699 98.760 -119.8233
1.258754 98.763 -120.2283
1.267876 98.765 -120.6342
1.277063 98.767 -121.0406
1.286318 98.767 -121.4475
1.295639 98.767 -121.8543
1.305027 98.767 -122.2608
1.314484 98.765 -122.6666
1.324009 98.763 -123.0713
1.333604 98.760 -123.4743
1.343268 98.757 -123.8753
1.353002 98.752 -124.2737
1.362806 98.747 -124.6689
1.372681 98.742 -125.0603
1.382628 98.736 -125.4473
1.392647 98.728 -125.8292
1.402739 98.721 -126.2054
1.412904 98.712 -126.5752
1.423142 98.703 -126.9380
1.433455 98.693 -127.2933
1.443843 98.683 -127.6408
1.454305 98.671 -127.9805
1.464844 98.658 -128.3127
1.475459 98.645 -128.6382
1.486150 98.630 -128.9576
1.496920 98.614 -129.2719
1.507767 98.597 -129.5814
1.518693 98.578 -129.8865
1.529698 98.558 -130.1875
1.540783 98.537 -130.4843
1.551948 98.515 -130.7770
1.563194 98.491 -131.0654
1.574521 98.466 -131.3495
1.585931 98.440 -131.6290
1.597423 98.412 -131.9038
1.608999 98.384 -132.1736
1.620658 98.354 -132.4383
1.632402 98.324 -132.6975
1.644232 98.293 -132.9509
1.656146 98.260 -133.1983
1.668147 98.227 -133.4393
1.680235 98.194 -133.6735
1.692411 98.159 -133.9005
1.704675 98.124 -134.1200
1.717028 98.089 -134.3314
1.729470 98.053 -134.5342
1.742003 98.016 -134.7280
1.754626 97.979 -134.9121
1.767341 97.942 -135.0861
1.780147 97.905 -135.2491
1.793047 97.868 -135.4006
1.806040 97.830 -135.5398
1.819128 97.792 -135.6659
1.832310 97.753 -135.7782
1.845587 97.714 -135.8758
1.858961 97.673 -135.9581
1.872432 97.631 -136.0247
1.886001 97.587 -136.0752
1.899667 97.542 -136.1094
1.913433 97.496 -136.1273
1.927299 97.448 -136.1287
1.941265 97.399 -136.1137
1.955332 97.350 -136.0823
1.969501 97.300 -136.0346
1.983773 97.250 -135.9706
1.998148 97.199 -135.8905
2.012627 97.149 -135.7945
2.027212 97.099 -135.6826
2.041902 97.049 -135.5551
2.056698 97.001 -135.4124
2.071602 96.954 -135.2546
2.086614 96.908 -135.0823
2.101734 96.864 -134.8957
2.116964 96.823 -134.6952
2.132304 96.784 -134.4811
2.147756 96.748 -134.2533
2.163320 96.714 -134.0113
2.178996 96.684 -133.7543
2.194786 96.657 -133.4806
2.210690 96.633 -133.1880
2.226710 96.611 -132.8744
2.242845 96.593 -132.5380
2.259098 96.576 -132.1783
2.275468 96.562 -131.7954
2.291957 96.550 -131.3902
2.308566 96.541 -130.9642
2.325295 96.534 -130.5193
2.342145 96.530 -130.0577
2.359117 96.528 -129.5819
2.376212 96.529 -129.0946
2.393431 96.533 -128.5987
2.410775 96.539 -128.0971
2.428244 96.548 -127.5930
2.445840 96.561 -127.0895
2.463564 96.577 -126.5899
2.481416 96.596 -126.0970
2.499397 96.618 -125.6134
2.517509 96.644 -125.1414
2.535752 96.675 -124.6819
2.554127 96.709 -124.2350
2.572635 96.748 -123.7998
2.591277 96.792 -123.3745
2.610055 96.841 -122.9578
2.628968 96.895 -122.5491
2.648019 96.955 -122.1486
2.667208 97.018 -121.7572
2.686535 97.087 -121.3765
2.706003 97.159 -121.0080
2.725612 97.234 -120.6538
2.745363 97.313 -120.3156
2.765257 97.393 -119.9953
2.785295 97.476 -119.6947
2.805478 97.560 -119.4155
2.825808 97.645 -119.1594
2.846285 97.730 -118.9277
2.866910 97.814 -118.7216
2.887685 97.899 -118.5422
2.908611 97.983 -118.3900
2.929688 98.066 -118.2651
2.950917 98.150 -118.1671
2.972301 98.234 -118.0954
2.993839 98.319 -118.0488
3.015534 98.404 -118.0263
3.037386 98.491 -118.0267
3.059396 98.578 -118.0488
3.081565 98.665 -118.0915
3.103896 98.753 -118.1535
3.126388 98.839 -118.2339
3.149043 98.926 -118.3314
3.171862 99.011 -118.4452
3.194847 99.094 -118.5745
3.217998 99.176 -118.7188
3.241317 99.255 -118.8780
3.264805 99.332 -119.0524
3.288463 99.406 -119.2428
3.312293 99.478 -119.4503
3.336295 99.547 -119.6759
3.360471 99.614 -119.9200
3.384822 99.679 -120.1822
3.409350 99.742 -120.4611
3.434056 99.802 -120.7551
3.458940 99.860 -121.0620
3.484005 99.916 -121.3793
3.509252 99.970 -121.7047
3.534681 100.021 -122.0359
3.560295 100.071 -122.3707
3.586094 100.117 -122.7075
3.612081 100.161 -123.0453
3.638255 100.203 -123.3840
3.664620 100.242 -123.7244
3.691175 100.278 -124.0679
3.717923 100.311 -124.4159
3.744864 100.341 -124.7692
3.772001 100.368 -125.1276
3.799335 100.393 -125.4903
3.826866 100.414 -125.8557
3.854597 100.434 -126.2217
3.882529 100.451 -126.5862
3.910664 100.466 -126.9467
3.939002 100.479 -127.3010
3.967546 100.490 -127.6474
3.996296 100.500 -127.9844
4.025255 100.508 -128.3117
4.054423 100.513 -128.6295
4.083804 100.517 -128.9384
4.113396 100.518 -129.2393
4.143204 100.518 -129.5326
4.173227 100.515 -129.8184
4.203468 100.511 -130.0966
4.233928 100.506 -130.3665
4.264609 100.499 -130.6277
4.295512 100.493 -130.8791
4.326639 100.485 -131.1199
4.357992 100.478 -131.3490
4.389572 100.471 -131.5657
4.421380 100.464 -131.7693
4.453419 100.457 -131.9596
4.485691 100.449 -132.1370
4.518196 100.442 -132.3024
4.550936 100.434 -132.4572
4.583914 100.427 -132.6028
4.617131 100.421 -132.7408
4.650589 100.415 -132.8729
4.684289 100.411 -133.0001
4.718233 100.408 -133.1232
4.752424 100.407 -133.2424
4.786862 100.408 -133.3575
4.821549 100.410 -133.4682
4.856488 100.414 -133.5746
4.891680 100.419 -133.6780
4.927127 100.426 -133.7801
4.962831 100.434 -133.8831
4.998794 100.444 -133.9896
5.035017 100.455 -134.1021
5.071503 100.467 -134.2225
5.108253 100.481 -134.3524
5.145270 100.496 -134.4924
5.182555 100.512 -134.6425
5.220110 100.530 -134.8028
5.257937 100.549 -134.9732
5.296038 100.569 -135.1541
5.334415 100.589 -135.3464
5.373071 100.609 -135.5508
5.412006 100.629 -135.7684
5.451224 100.649 -136.0002
5.490725 100.669 -136.2471
5.530514 100.688 -136.5094
5.570590 100.706 -136.7872
5.610957 100.723 -137.0796
5.651616 100.740 -137.3856
5.692570 100.756 -137.7037
5.733821 100.770 -138.0325
5.775370 100.782 -138.3708
5.817221 100.793 -138.7179
5.859375 100.801 -139.0734
5.901834 100.808 -139.4373
5.944602 100.812 -139.8094
5.987679 100.814 -140.1887
6.031068 100.814 -140.5736
6.074771 100.812 -140.9619
6.118792 100.808 -141.3512
6.163131 100.802 -141.7396
6.207792 100.793 -142.1253
6.252776 100.783 -142.5076
6.298086 100.770 -142.8860
6.343725 100.755 -143.2602
6.389694 100.739 -143.6292
6.435996 100.721 -143.9919
6.482634 100.701 -144.3467
6.529610 100.681 -144.6920
6.576926 100.660 -145.0266
6.624585 100.638 -145.3494
6.672590 100.615 -145.6603
6.720942 100.592 -145.9594
6.769645 100.569 -146.2474
6.818700 100.547 -146.5247
6.868111 100.524 -146.7921
6.917881 100.503 -147.0497
6.968010 100.483 -147.2978
7.018504 100.464 -147.5367
7.069362 100.447 -147.7670
7.120590 100.431 -147.9903
7.172189 100.416 -148.2083
7.224161 100.404 -148.4232
7.276511 100.393 -148.6369
7.329239 100.384 -148.8508
7.382350 100.377 -149.0660
7.435845 100.372 -149.2834
7.489729 100.369 -149.5040
7.544002 100.367 -149.7295
7.598669 100.367 -149.9614
7.653732 100.368 -150.2013
7.709194 100.369 -150.4502
7.765058 100.372 -150.7086
7.821327 100.376 -150.9766
7.878004 100.379 -151.2539
7.935091 100.383 -151.5403
7.992592 100.387 -151.8356
8.050510 100.391 -152.1393
8.108847 100.394 -152.4512
8.167607 100.396 -152.7704
8.226793 100.397 -153.0959
8.286408 100.398 -153.4260
8.346454 100.397 -153.7590
8.406936 100.395 -154.0934
8.467856 100.393 -154.4281
8.529218 100.389 -154.7618
8.591024 100.383 -155.0935
8.653278 100.377 -155.4217
8.715983 100.371 -155.7449
8.779143 100.363 -156.0618
8.842760 100.355 -156.3715
8.906839 100.347 -156.6734
8.971381 100.338 -156.9673
9.036392 100.329 -157.2531
9.101873 100.321 -157.5306
9.167829 100.314 -157.8000
9.234263 100.307 -158.0614
9.301178 100.300 -158.3156
9.368578 100.295 -158.5634
9.436467 100.291 -158.8062
9.504847 100.288 -159.0452
9.573723 100.286 -159.2813
9.643099 100.286 -159.5156
9.712976 100.286 -159.7493
9.783361 100.288 -159.9835
9.854255 100.291 -160.2195
9.925663 100.294 -160.4583
9.997588 100.298 -160.7005
10.070035 100.303 -160.9465
10.143007 100.308 -161.1966
10.216507 100.313 -161.4510
10.290540 100.318 -161.7097
10.365109 100.323 -161.9726
10.440219 100.327 -162.2391
10.515873 100.331 -162.5086
10.592076 100.335 -162.7804
10.668830 100.337 -163.0538
10.746141 100.339 -163.3280
10.824012 100.340 -163.6023
10.902447 100.340 -163.8760
10.981451 100.340 -164.1482
11.061027 100.339 -164.4183
11.141180 100.337 -164.6861
11.221913 100.335 -164.9511
11.303232 100.333 -165.2133
11.385140 100.330 -165.4724
11.467641 100.327 -165.7287
11.550741 100.323 -165.9822
11.634442 100.320 -166.2333
11.718750 100.316 -166.4824
11.803669 100.312 -166.7299
11.889203 100.309 -166.9761
11.975357 100.305 -167.2215
12.062136 100.301 -167.4664
12.149543 100.297 -167.7113
12.237583 100.293 -167.9564
12.326262 100.289 -168.2019
12.415583 100.284 -168.4479
12.505552 100.280 -168.6947
12.596172 100.275 -168.9422
12.687449 100.270 -169.1906
12.779387 100.265 -169.4400
12.871992 100.260 -169.6904
12.965268 100.254 -169.9420
13.059220 100.249 -170.1949
13.153852 100.243 -170.4494
13.249170 100.238 -170.7058
13.345179 100.232 -170.9641
13.441884 100.226 -171.2248
13.539289 100.220 -171.4881
13.637401 100.215 -171.7541
13.736223 100.208 -172.0231
13.835761 100.202 -172.2949
13.936021 100.196 -172.5696
14.037007 100.189 -172.8469
14.138725 100.182 -173.1265
14.241180 100.174 -173.4080
14.344377 100.167 -173.6909
14.448323 100.159 -173.9746
14.553021 100.150 -174.2587
14.658478 100.142 -174.5427
14.764700 100.133 -174.8261
14.871691 100.125 -175.1088
14.979457 100.116 -175.3906
15.088005 100.108 -175.6716
15.197339 100.101 -175.9521
15.307465 100.093 -176.2325
15.418389 100.087 -176.5133
15.530117 100.080 -176.7951
15.642655 100.075 -177.0785
15.756008 100.070 -177.3641
15.870182 100.065 -177.6522
15.985184 100.060 -177.9431
16.101019 100.056 -178.2366
16.217694 100.052 -178.5327
16.335214 100.047 -178.8307
16.453586 100.043 -179.1299
16.572815 100.038 -179.4295
16.692909 100.032 -179.7284
16.813872 100.027 179.9743
16.935713 100.021 179.6796
17.058436 100.015 179.3884
17.182048 100.009 179.1011
17.306556 100.003 178.8182
17.431967 99.997 178.5397
17.558286 99.991 178.2653
17.685521 99.986 177.9947
17.813677 99.980 177.7273
17.942762 99.976 177.4623
18.072783 99.971 177.1990
18.203746 99.967 176.9367
18.335658 99.963 176.6748
18.468526 99.960 176.4130
18.602356 99.956 176.1510
18.737156 99.951 175.8887
18.872934 99.947 175.6263
19.009695 99.942 175.3640
19.147447 99.936 175.1021
19.286197 99.930 174.8410
19.425953 99.923 174.5811
19.566721 99.916 174.3226
19.708510 99.908 174.0657
19.851326 99.899 173.8105
19.995177 99.890 173.5572
20.140070 99.881 173.3056
20.286013 99.871 173.0554
20.433014 99.860 172.8066
20.581080 99.849 172.5587
20.730219 99.838 172.3115
20.880439 99.827 172.0645
21.031747 99.815 171.8172
21.184152 99.803 171.5694
21.337661 99.790 171.3205
21.492282 99.778 171.0703
21.648024 99.765 170.8184
21.804895 99.752 170.5648
21.962902 99.738 170.3094
22.122054 99.724 170.0524
22.282360 99.709 169.7940
22.443827 99.695 169.5346
22.606464 99.680 169.2746
22.770280 99.665 169.0143
22.935283 99.649 168.7540
23.101481 99.634 168.4939
23.268884 99.619 168.2338
23.437500 99.604 167.9738
23.607338 99.590 167.7133
23.778406 99.575 167.4520
23.950714 99.561 167.1895
24.124271 99.548 166.9256
24.299086 99.535 166.6600
24.475167 99.521 166.3928
24.652524 99.508 166.1243
24.831166 99.495 165.8552
25.011103 99.482 165.5861
25.192344 99.469 165.3180
25.374898 99.455 165.0518
25.558775 99.442 164.7883
25.743984 99.428 164.5283
25.930536 99.414 164.2721
26.118439 99.401 164.0198
26.307704 99.387 163.7709
26.498341 99.374 163.5250
26.690359 99.361 163.2813
26.883768 99.348 163.0389
27.078579 99.335 162.7972
27.274801 99.322 162.5559
27.472446 99.309 162.3151
27.671522 99.295 162.0755
27.872042 99.280 161.8378
28.074014 99.264 161.6031
28.277450 99.248 161.3721
28.482360 99.232 161.1452
28.688755 99.215 160.9222
28.896645 99.198 160.7019
29.106042 99.181 160.4829
29.316957 99.164 160.2635
29.529400 99.147 160.0423
29.743382 99.129 159.8184
29.958915 99.111 159.5920
30.176009 99.092 159.3642
30.394677 99.073 159.1365
30.614929 99.052 158.9108
30.836778 99.031 158.6881
31.060234 99.011 158.4686
31.285309 98.990 158.2512
31.512015 98.970 158.0338
31.740364 98.951 157.8140
31.970368 98.933 157.5897
32.202039 98.914 157.3600
32.435388 98.895 157.1254
32.670428 98.876 156.8879
32.907171 98.855 156.6507
33.145630 98.834 156.4165
33.385817 98.813 156.1874
33.627745 98.792 155.9638
33.871425 98.772 155.7443
34.116871 98.753 155.5263
34.364096 98.734 155.3069
34.613113 98.716 155.0839
34.863934 98.697 154.8571
35.116572 98.678 154.6279
35.371041 98.657 154.3994
35.627354 98.636 154.1754
35.885525 98.613 153.9592
36.145566 98.590 153.7524
36.407492 98.567 153.5543
36.671316 98.546 153.3621
36.937051 98.525 153.1716
37.204712 98.505 152.9786
37.474313 98.485 152.7798
37.745867 98.465 152.5739
38.019389 98.445 152.3622
38.294893 98.422 152.1476
38.572394 98.399 151.9344
38.851905 98.374 151.7263
39.133442 98.348 151.5254
39.417019 98.323 151.3317
39.702651 98.299 151.1428
39.990353 98.276 150.9547
40.280140 98.253 150.7628
40.572026 98.232 150.5638
40.866028 98.210 150.3561
41.162160 98.187 150.1412
41.460438 98.163 149.9227
41.760877 98.138 149.7056
42.063494 98.111 149.4947
42.368303 98.083 149.2935
42.675322 98.056 149.1028
42.984565 98.029 148.9212
43.296048 98.003 148.7449
43.609789 97.979 148.5695
43.925804 97.956 148.3904
44.244108 97.933 148.2050
44.564719 97.910 148.0119
44.887654 97.886 147.8123
45.212928 97.861 147.6088
45.540560 97.834 147.4048
45.870565 97.806 147.2044
46.202962 97.777 147.0107
46.537768 97.747 146.8263
46.875000 97.716 146.6517
47.214676 97.687 146.4860
47.556813 97.658 146.3264
47.901429 97.631 146.1690
48.248542 97.605 146.0098
48.598171 97.580 145.8452
48.950334 97.555 145.6732
49.305048 97.530 145.4938
49.662333 97.504 145.3085
50.022206 97.477 145.1205
50.384688 97.449 144.9338
50.749796 97.419 144.7524
51.117550 97.388 144.5800
51.487969 97.356 144.4185
51.861072 97.324 144.2686
52.236879 97.293 144.1289
52.615409 97.263 143.9971
52.996681 97.234 143.8699
53.380717 97.207 143.7441
53.767536 97.180 143.6169
54.157158 97.155 143.4858
54.549603 97.131 143.3488
54.944892 97.108 143.2036
55.343045 97.085 143.0488
55.744084 97.063 142.8836
56.148028 97.039 142.7087
56.554900 97.015 142.5262
56.964720 96.989 142.3391
57.377510 96.962 142.1504
57.793291 96.934 141.9632
58.212085 96.904 141.7800
58.633914 96.873 141.6028
59.058799 96.841 141.4336
59.486764 96.809 141.2733
59.917829 96.777 141.1219
60.352019 96.744 140.9789
60.789354 96.712 140.8434
61.229859 96.680 140.7146
61.673556 96.649 140.5915
62.120468 96.619 140.4730
62.570618 96.590 140.3573
63.024031 96.561 140.2427
63.480729 96.534 140.1279
63.940736 96.508 140.0118
64.404077 96.484 139.8940
64.870776 96.460 139.7740
65.340856 96.438 139.6508
65.814343 96.417 139.5226
66.291261 96.397 139.3879
66.771635 96.378 139.2452
67.255489 96.360 139.0943
67.742850 96.342 138.9359
68.233743 96.323 138.7717
68.728193 96.303 138.6036
69.226226 96.284 138.4333
69.727867 96.263 138.2621
70.233144 96.242 138.0906
70.742083 96.220 137.9186
71.254709 96.197 137.7463
71.771050 96.174 137.5739
72.291132 96.151 137.4018
72.814984 96.127 137.2304
73.342631 96.103 137.0600
73.874102 96.079 136.8909
74.409424 96.054 136.7238
74.948626 96.031 136.5604
75.491734 96.007 136.4027
76.038779 95.984 136.2527
76.589787 95.962 136.1124
77.144788 95.940 135.9831
77.703811 95.919 135.8658
78.266885 95.899 135.7603
78.834039 95.880 135.6652
79.405303 95.860 135.5781
79.980706 95.840 135.4956
80.560280 95.819 135.4141
81.144053 95.796 135.3295
81.732056 95.770 135.2378
82.324320 95.741 135.1352
82.920876 95.708 135.0188
83.521755 95.672 134.8866
84.126988 95.632 134.7379
84.736607 95.589 134.5732
85.350643 95.544 134.3940
85.969129 95.498 134.2031
86.592097 95.453 134.0042
87.219579 95.409 133.8012
87.851608 95.367 133.5980
88.488217 95.328 133.3983
89.129439 95.292 133.2065
89.775308 95.259 133.0269
90.425856 95.228 132.8635
91.081119 95.198 132.7194
91.741131 95.170 132.5950
92.405925 95.142 132.4875
93.075536 95.113 132.3922
93.750000 95.083 132.3051
94.429351 95.050 132.2253
95.113625 95.016 132.1522
95.802858 94.980 132.0838
96.497085 94.944 132.0169
97.196342 94.907 131.9489
97.900667 94.871 131.8784
98.610096 94.835 131.8054
99.324665 94.800 131.7311
100.044413 94.764 131.6574
100.769376 94.730 131.5855
101.499592 94.695 131.5154
102.235100 94.661 131.4458
102.975938 94.627 131.3741
103.722144 94.593 131.2972
104.473757 94.559 131.2117
105.230817 94.526 131.1151
105.993363 94.494 131.0061
106.761435 94.462 130.8848
107.535072 94.431 130.7523
108.314315 94.401 130.6108
109.099206 94.372 130.4626
109.889783 94.342 130.3106
110.686090 94.313 130.1568
111.488167 94.282 130.0029
112.296056 94.250 129.8511
113.109800 94.216 129.7038
113.929440 94.180 129.5640
114.755020 94.141 129.4354
115.586582 94.101 129.3229
116.424170 94.059 129.2307
117.267827 94.016 129.1620
118.117598 93.973 129.1185
118.973527 93.931 129.1028
119.835658 93.889 129.1190
120.704037 93.850 129.1686
121.578708 93.813 129.2451
122.459718 93.780 129.3364
123.347111 93.750 129.4313
124.240935 93.723 129.5222
125.141236 93.698 129.6031
126.048061 93.676 129.6699
126.961458 93.657 129.7185
127.881473 93.642 129.7457
128.808154 93.629 129.7483
129.741551 93.620 129.7234
130.681712 93.613 129.6690
131.628686 93.608 129.5847
132.582521 93.604 129.4720
133.543269 93.598 129.3340
134.510979 93.592 129.1751
135.485701 93.582 129.0010
136.467486 93.570 128.8172
137.456386 93.555 128.6289
138.452451 93.538 128.4401
139.455735 93.518 128.2537
140.466288 93.497 128.0714
141.484165 93.473 127.8943
142.509418 93.448 127.7231
143.542100 93.422 127.5578
144.582265 93.394 127.3983
145.629968 93.365 127.2445
146.685262 93.335 127.0963
147.748204 93.303 126.9543
148.818849 93.271 126.8191
149.897251 93.237 126.6919
150.983469 93.203 126.5740
152.077557 93.169 126.4667
153.179574 93.135 126.3713
154.289576 93.101 126.2873
155.407622 93.070 126.2120
156.533770 93.041 126.1401
157.668078 93.015 126.0652
158.810606 92.990 125.9824
159.961413 92.967 125.8886
161.120559 92.945 125.7826
162.288105 92.922 125.6649
163.464112 92.899 125.5382
164.648640 92.876 125.4062
165.841752 92.851 125.2739
167.043510 92.825 125.1459
168.253976 92.798 125.0265
169.473213 92.771 124.9177
170.701286 92.744 124.8195
171.938258 92.717 124.7291
173.184194 92.691 124.6432
174.439158 92.666 124.5591
175.703216 92.641 124.4753
176.976434 92.616 124.3907
178.258878 92.591 124.3051
179.550615 92.566 124.2187
180.851713 92.540 124.1326
182.162239 92.513 124.0480
183.482262 92.486 123.9659
184.811850 92.458 123.8871
186.151073 92.429 123.8128
187.500000 92.401 123.7452
188.858702 92.372 123.6863
190.227250 92.342 123.6372
191.605715 92.314 123.5978
192.994169 92.285 123.5670
194.392685 92.258 123.5444
195.801334 92.231 123.5303
197.220191 92.206 123.5260
198.649330 92.183 123.5328
200.088825 92.162 123.5509
201.538751 92.144 123.5788
202.999184 92.129 123.6126
204.470200 92.117 123.6472
205.951875 92.109 123.6769
207.444287 92.103 123.6969
208.947514 92.101 123.7031
210.461634 92.100 123.6923
211.986726 92.101 123.6620
213.522869 92.104 123.6107
215.070144 92.108 123.5387
216.628631 92.114 123.4472
218.198411 92.121 123.3376
219.779567 92.129 123.2101
221.372180 92.139 123.0638
222.976334 92.149 122.8988
224.592112 92.159 122.7167
226.219600 92.168 122.5212
227.858880 92.174 122.3166
229.510039 92.179 122.1064
231.173164 92.181 121.8930
232.848340 92.181 121.6776
234.535655 92.178 121.4606
236.235197 92.174 121.2422
237.947054 92.167 121.0222
239.671317 92.158 120.7997
241.408074 92.147 120.5748
243.157416 92.134 120.3501
244.919435 92.119 120.1296
246.694223 92.104 119.9181
248.481871 92.087 119.7199
250.282473 92.069 119.5372
252.096123 92.052 119.3698
253.922915 92.035 119.2145
255.762945 92.021 119.0650
257.616309 92.010 118.9119
259.483103 92.001 118.7457
261.363424 91.992 118.5615
263.257372 91.984 118.3609
265.165043 91.975 118.1503
267.086538 91.964 117.9387
269.021957 91.953 117.7339
270.971401 91.941 117.5409
272.934972 91.929 117.3609
274.912771 91.919 117.1921
276.904902 91.909 117.0307
278.911469 91.900 116.8730
280.932577 91.893 116.7154
282.968330 91.888 116.5544
285.018835 91.885 116.3854
287.084199 91.885 116.2018
289.164530 91.885 115.9974
291.259935 91.884 115.7698
293.370525 91.882 115.5233
295.496408 91.877 115.2675
297.637697 91.870 115.0123
299.794503 91.861 114.7644
301.966937 91.851 114.5256
304.155114 91.841 114.2945
306.359147 91.831 114.0685
308.579152 91.822 113.8444
310.815244 91.814 113.6192
313.067539 91.805 113.3912
315.336156 91.797 113.1613
317.621211 91.787 112.9335
319.922826 91.777 112.7119
322.241118 91.768 112.4982
324.576210 91.759 112.2909
326.928223 91.752 112.0869
329.297280 91.746 111.8833
331.683504 91.742 111.6782
334.087019 91.738 111.4698
336.507952 91.735 111.2562
338.946427 91.732 111.0361
341.402572 91.728 110.8104
343.876516 91.724 110.5821
346.368387 91.719 110.3542
348.878315 91.713 110.1284
351.406431 91.708 109.9048
353.952867 91.702 109.6826
356.517756 91.697 109.4606
359.101230 91.692 109.2373
361.703426 91.687 109.0121
364.324478 91.683 108.7853
366.964523 91.679 108.5575
369.623699 91.676 108.3288
372.302145 91.673 108.0991
375.000000 91.670 107.8687
377.717405 91.668 107.6372
380.454501 91.665 107.4044
383.211431 91.663 107.1700
385.988339 91.660 106.9344
388.785369 91.658 106.6984
391.602668 91.656 106.4633
394.440383 91.655 106.2292
397.298660 91.653 105.9955
400.177650 91.653 105.7603
403.077502 91.652 105.5217
405.998368 91.652 105.2777
408.940400 91.651 105.0284
411.903750 91.651 104.7761
414.888575 91.649 104.5250
417.895028 91.647 104.2789
420.923268 91.645 104.0397
423.973452 91.643 103.8075
427.045738 91.642 103.5807
430.140287 91.643 103.3562
433.257261 91.645 103.1304
436.396822 91.648 102.9007
439.559133 91.652 102.6664
442.744360 91.658 102.4268
445.952668 91.664 102.1793
449.184225 91.672 101.9194
452.439199 91.679 101.6417
455.717760 91.685 101.3435
459.020079 91.688 101.0284
462.346327 91.689 100.7064
465.696680 91.686 100.3896
469.071310 91.681 100.0857
472.470394 91.675 99.7971
475.894109 91.670 99.5209
479.342634 91.665 99.2513
482.816148 91.661 98.9821
486.314833 91.656 98.7113
489.838871 91.651 98.4437
493.388445 91.645 98.1876
496.963741 91.639 97.9470
500.564945 91.634 97.7184
504.192245 91.631 97.4938
507.845830 91.629 97.2657
511.525890 91.628 97.0307
515.232618 91.627 96.7898
518.966206 91.626 96.5479
522.726849 91.624 96.3111
526.514743 91.621 96.0844
530.330086 91.619 95.8696
534.173076 91.617 95.6641
538.043915 91.617 95.4630
541.942803 91.617 95.2629
545.869944 91.617 95.0629
549.825542 91.618 94.8624
553.809805 91.620 94.6603
557.822939 91.622 94.4555
561.865154 91.626 94.2474
565.936660 91.629 94.0370
570.037671 91.633 93.8263
574.168399 91.636 93.6175
578.329060 91.639 93.4124
582.519870 91.642 93.2107
586.741049 91.646 93.0126
590.992817 91.649 92.8201
595.275394 91.652 92.6353
599.589005 91.656 92.4573
603.933874 91.660 92.2816
608.310228 91.666 92.1046
612.718295 91.672 91.9258
617.158304 91.677 91.7482
621.630488 91.682 91.5777
626.135079 91.687 91.4201
630.672311 91.693 91.2773
635.242423 91.701 91.1451
639.845651 91.710 91.0182
644.482237 91.721 90.8951
649.152421 91.735 90.7771
653.856447 91.751 90.6631
658.594560 91.771 90.5461
663.367008 91.793 90.4150
668.174039 91.817 90.2612
673.015903 91.841 90.0842
677.892854 91.864 89.8914
682.805145 91.885 89.6914
687.753032 91.904 89.4910
692.736774 91.922 89.2945
697.756631 91.940 89.1053
702.812863 91.959 88.9246
707.905735 91.979 88.7501
713.035511 92.000 88.5771
718.202461 92.023 88.4020
723.406852 92.046 88.2239
728.648956 92.070 88.0432
733.929047 92.094 87.8601
739.247399 92.119 87.6746
744.604290 92.144 87.4864
750.000000 92.170 87.2960
755.434809 92.197 87.1042
760.909001 92.224 86.9112
766.422861 92.252 86.7166
771.976677 92.281 86.5193
777.570739 92.310 86.3188
783.205337 92.339 86.1156
788.880766 92.369 85.9113
794.597321 92.399 85.7088
800.355301 92.430 85.5102
806.155005 92.463 85.3139
811.996736 92.497 85.1146
817.880799 92.534 84.9043
823.807501 92.573 84.6745
829.777150 92.613 84.4178
835.790057 92.651 84.1327
841.846536 92.687 83.8256
847.946903 92.720 83.5064
854.091476 92.750 83.1826
860.280575 92.778 82.8581
866.514523 92.803 82.5363
872.793644 92.827 82.2216
879.118267 92.851 81.9153
885.488720 92.875 81.6149
891.905336 92.898 81.3174
898.368450 92.921 81.0226
904.878398 92.944 80.7324
911.435520 92.966 80.4471
918.040157 92.989 80.1650
924.692655 93.011 79.8846
931.393359 93.035 79.6039
938.142619 93.058 79.3212
944.940787 93.082 79.0354
951.788218 93.105 78.7469
958.685268 93.126 78.4568
965.632296 93.147 78.1667
972.629666 93.167 77.8791
979.677741 93.187 77.5958
986.776890 93.206 77.3176
993.927482 93.224 77.0473
1001.129891 93.242 76.7899
1008.384491 93.261 76.5495
1015.691660 93.281 76.3247
1023.051781 93.303 76.1099
1030.465236 93.329 75.8961
1037.932411 93.358 75.6711
1045.453698 93.389 75.4225
1053.029486 93.422 75.1458
1060.660172 93.453 74.8445
1068.346153 93.482 74.5273
1076.087829 93.510 74.2029
1083.885605 93.535 73.8772
1091.739887 93.559 73.5520
1099.651084 93.582 73.2267
1107.619609 93.604 72.9019
1115.645878 93.624 72.5789
1123.730308 93.643 72.2597
1131.873321 93.661 71.9460
1140.075341 93.678 71.6390
1148.336797 93.695 71.3398
1156.658119 93.710 71.0485
1165.039741 93.725 70.7658
1173.482099 93.741 70.4930
1181.985634 93.758 70.2295
1190.550789 93.778 69.9698
1199.178011 93.799 69.7035
1207.867749 93.823 69.4196
1216.620457 93.846 69.1127
1225.436590 93.868 68.7861
1234.316609 93.887 68.4477
1243.260976 93.903 68.1055
1252.270157 93.916 67.7666
1261.344623 93.927 67.4354
1270.484846 93.937 67.1141
1279.691303 93.945 66.8054
1288.964474 93.951 66.5119
1298.304842 93.957 66.2339
1307.712894 93.962 65.9690
1317.189120 93.967 65.7131
1326.734016 93.972 65.4634
1336.348077 93.976 65.2196
1346.031806 93.979 64.9834
1355.785708 93.982 64.7577
1365.610290 93.983 64.5463
1375.506065 93.985 64.3541
1385.473549 93.986 64.1871
1395.513261 93.990 64.0469
1405.625726 93.997 63.9281
1415.811469 94.008 63.8182
1426.071023 94.023 63.7020
1436.404921 94.041 63.5698
1446.813703 94.060 63.4203
1457.297912 94.078 63.2588
1467.858093 94.097 63.0911
1478.494798 94.114 62.9216
1489.208581 94.131 62.7540
1500.000000 94.148 62.5918
1510.869618 94.164 62.4382
1521.818002 94.181 62.2959
1532.845723 94.197 62.1667
1543.953355 94.216 62.0512
1555.141477 94.237 61.9484
1566.410674 94.262 61.8527
1577.761531 94.291 61.7528
1589.194642 94.325 61.6351
1600.710601 94.362 61.4914
1612.310010 94.399 61.3221
1623.993473 94.436 61.1328
1635.761599 94.471 60.9312
1647.615002 94.505 60.7225
1659.554299 94.536 60.5109
1671.580114 94.567 60.2996
1683.693072 94.596 60.0902
1695.893807 94.625 59.8817
1708.182952 94.653 59.6723
1720.561150 94.680 59.4630
1733.029045 94.705 59.2583
1745.587288 94.729 59.0652
1758.236533 94.753 58.8925
1770.977440 94.777 58.7478
1783.810673 94.805 58.6324
1796.736900 94.838 58.5371
1809.756796 94.878 58.4461
1822.871040 94.923 58.3454
1836.080315 94.972 58.2273
1849.385310 95.026 58.0877
1862.786718 95.083 57.9229
1876.285239 95.142 57.7293
1889.881575 95.202 57.5038
1903.576436 95.262 57.2447
1917.370535 95.322 56.9530
1931.264593 95.380 56.6325
1945.259332 95.438 56.2864
1959.355483 95.494 55.9142
1973.553781 95.549 55.5128
1987.854965 95.601 55.0826
2002.259781 95.650 54.6298
2016.768981 95.695 54.1632
2031.383320 95.737 53.6908
2046.103561 95.776 53.2173
2060.930471 95.815 52.7442
2075.864823 95.853 52.2692
2090.907395 95.891 51.7880
2106.058972 95.929 51.2959
2121.320344 95.965 50.7897
2136.692305 95.999 50.2695
2152.175658 96.032 49.7388
2167.771210 96.062 49.1996
2183.479774 96.092 48.6482
2199.302169 96.121 48.0774
2215.239219 96.147 47.4822
2231.291755 96.171 46.8629
2247.460615 96.190 46.2247
2263.746641 96.204 45.5771
2280.150683 96.213 44.9317
2296.673595 96.218 44.2998
2313.316238 96.219 43.6903
2330.079481 96.218 43.1061
2346.964198 96.218 42.5419
2363.971268 96.218 41.9866
2381.101578 96.218 41.4306
2398.356022 96.217 40.8688
2415.735498 96.215 40.3022
2433.240913 96.211 39.7360
2450.873180 96.207 39.1719
2468.633217 96.203 38.6052
2486.521951 96.200 38.0311
2504.540314 96.196 37.4512
2522.689246 96.192 36.8765
2540.969692 96.187 36.3210
2559.382606 96.182 35.7909
2577.928947 96.176 35.2792
2596.609683 96.169 34.7743
2615.425787 96.162 34.2684
2634.378241 96.154 33.7591
2653.468031 96.144 33.2481
2672.696154 96.134 32.7408
2692.063613 96.123 32.2426
2711.571415 96.113 31.7545
2731.220579 96.106 31.2681
2751.012130 96.101 30.7688
2770.947098 96.097 30.2433
2791.026522 96.093 29.6846
2811.251451 96.086 29.0928
2831.622938 96.075 28.4734
2852.142045 96.059 27.8347
2872.809842 96.036 27.1881
2893.627406 96.007 26.5488
2914.595823 95.971 25.9344
2935.716186 95.930 25.3595
2956.989596 95.886 24.8295
2978.417161 95.842 24.3411
3000.000000 95.799 23.8864
3021.739237 95.757 23.4576
3043.636005 95.716 23.0509
3065.691446 95.676 22.6665
3087.906710 95.638 22.3058
3110.282955 95.604 21.9646
3132.821347 95.576 21.6310
3155.523062 95.553 21.2889
3178.389283 95.535 20.9243
3201.421202 95.520 20.5279
3224.620020 95.506 20.0960
3247.986946 95.491 19.6311
3271.523198 95.471 19.1431
3295.230004 95.447 18.6499
3319.108599 95.417 18.1738
3343.160228 95.385 17.7334
3367.386145 95.350 17.3380
3391.787613 95.316 16.9861
3416.365904 95.285 16.6671
3441.122300 95.257 16.3668
3466.058091 95.236 16.0718
3491.174576 95.221 15.7667
3516.473066 95.215 15.4307
3541.954880 95.216 15.0389
3567.621345 95.225 14.5676
3593.473800 95.237 13.9975
3619.513592 95.249 13.3158
3645.742080 95.256 12.5169
3672.160630 95.255 11.6052
3698.770620 95.239 10.5950
3725.573436 95.206 9.5054
3752.570477 95.153 8.3560
3779.763150 95.078 7.1682
3807.152872 94.976 5.9689
3834.741071 94.847 4.7963
3862.529185 94.690 3.7002
3890.518664 94.505 2.7345
3918.710966 94.299 1.9493
3947.107561 94.075 1.3866
3975.709929 93.843 1.0763
4004.519563 93.610 1.0301
4033.537962 93.386 1.2355
4062.766641 93.180 1.6571
4092.207123 93.000 2.2403
4121.860942 92.852 2.9127
4151.729646 92.737 3.5891
4181.814790 92.653 4.1841
4212.117944 92.592 4.6306
4242.640687 92.542 4.8940
4273.384610 92.494 4.9729
4304.351317 92.436 4.8899
4335.542421 92.361 4.6848
4366.959549 92.263 4.4108
4398.604338 92.139 4.1295
4430.478438 91.988 3.9067
4462.583511 91.813 3.8081
4494.921231 91.620 3.8884
4527.493283 91.420 4.1774
4560.301365 91.221 4.6704
4593.347189 91.032 5.3342
4626.632476 90.858 6.1222
4660.158962 90.700 6.9902
4693.928395 90.557 7.9036
4727.942535 90.425 8.8402
4762.203156 90.303 9.7898
4796.712043 90.186 10.7512
4831.470996 90.073 11.7317
4866.481826 89.960 12.7478
4901.746360 89.848 13.8210
4937.266434 89.736 14.9697
4973.043902 89.628 16.2074
5009.080628 89.522 17.5472
5045.378492 89.422 19.0062
5081.939384 89.330 20.6013
5118.765212 89.250 22.3421
5155.857894 89.187 24.2267
5193.219366 89.146 26.2413
5230.851574 89.130 28.3654
5268.756481 89.142 30.5781
5306.936062 89.186 32.8576
5345.392309 89.263 35.1784
5384.127225 89.375 37.5134
5423.142830 89.523 39.8396
5462.441159 89.708 42.1383
5502.024259 89.932 44.3886
5541.894195 90.196 46.5603
5582.053045 90.502 48.6089
5622.502902 90.849 50.4809
5663.245876 91.233 52.1203
5704.284090 91.651 53.4724
5745.619684 92.094 54.4852
5787.254813 92.556 55.1162
5829.191647 93.023 55.3367
5871.432373 93.487 55.1318
5913.979192 93.936 54.4991
5956.834323 94.359 53.4480
6000.000000 94.745 52.0005
6043.478473 95.086 50.1946
6087.272010 95.370 48.0858
6131.382892 95.593 45.7465
6175.813420 95.748 43.2632
6220.565910 95.836 40.7310
6265.642695 95.858 38.2455
6311.046124 95.820 35.8963
6356.778566 95.730 33.7614
6402.842404 95.599 31.9037
6449.240040 95.439 30.3671
6495.973891 95.260 29.1741
6543.046396 95.073 28.3254
6590.460007 94.888 27.8058
6638.217197 94.711 27.5917
6686.320456 94.549 27.6569
6734.772290 94.407 27.9731
6783.575226 94.289 28.5088
6832.731809 94.201 29.2299
6882.244600 94.144 30.0998
6932.116181 94.122 31.0782
6982.349153 94.136 32.1248
7032.946133 94.186 33.2026
7083.909760 94.272 34.2806
7135.242690 94.394 35.3303
7186.947600 94.553 36.3216
7239.027185 94.749 37.2220
7291.484160 94.981 37.9929
7344.321260 95.249 38.5891
7397.541239 95.550 38.9621
7451.146872 95.881 39.0645
7505.140954 96.237 38.8506
7559.526299 96.612 38.2746
7614.305743 96.999 37.2914
7669.482141 97.389 35.8587
7725.058371 97.770 33.9397
7781.037328 98.129 31.5117
7837.421932 98.451 28.5756
7894.215122 98.722 25.1628
7951.419859 98.929 21.3357
8009.039125 99.060 17.1849
8067.075924 99.111 12.8239
8125.533282 99.078 8.3782
8184.414245 98.962 3.9756
8243.721885 98.768 -0.2621
8303.459292 98.503 -4.2272
8363.629581 98.178 -7.8347
8424.235888 97.804 -11.0277
8485.281374 97.395 -13.7820
8546.769221 96.966 -16.1078
8608.702634 96.528 -18.0450
8671.084842 96.092 -19.6520
8733.919097 95.663 -20.9958
8797.208675 95.244 -22.1434
8860.956876 94.835 -23.1567
8925.167022 94.434 -24.0912
8989.842461 94.034 -24.9899
9054.986566 93.626 -25.8717
9120.602731 93.197 -26.7164
9186.694378 92.736 -27.4525
9253.264952 92.231 -27.9520
9320.317925 91.680 -28.0416
9387.856790 91.094 -27.5299
9455.885071 90.493 -26.2535
9524.406312 89.914 -24.1401
9593.424086 89.400 -21.2682
9662.941992 88.988 -17.8849
9732.963653 88.700 -14.3513
9803.492719 88.532 -11.0271
9874.532869 88.460 -8.1616
9946.087805 88.449 -5.8505
10018.161257 88.465 -4.0585
10090.756983 88.482 -2.6715
10163.878768 88.484 -1.5494
10237.530423 88.467 -0.5587
10311.715789 88.429 0.4139
10386.438732 88.376 1.4606
10461.703149 88.317 2.6541
10537.512962 88.264 4.0422
10613.872125 88.230 5.6380
10690.784618 88.230 7.4144
10768.254450 88.276 9.3087
10846.285661 88.377 11.2353
10924.882318 88.535 13.0968
11004.048518 88.751 14.7891
11083.788390 89.020 16.2081
11164.106090 89.333 17.2617
11245.005805 89.676 17.8823
11326.491752 90.036 18.0328
11408.568180 90.397 17.7003
11491.239368 90.747 16.8889
11574.509626 91.071 15.6185
11658.383294 91.355 13.9301
11742.864745 91.588 11.8899
11827.958384 91.761 9.5861
11913.668646 91.871 7.1168
12000.000000 91.916 4.5802
12086.956947 91.902 2.0674
12174.544019 91.834 -0.3450
12262.765784 91.723 -2.6030
12351.626840 91.581 -4.6821
12441.131819 91.418 -6.5851
12531.285389 91.245 -8.3351
12622.092249 91.069 -9.9692
12713.557132 90.897 -11.5366
12805.684808 90.731 -13.0950
12898.480079 90.571 -14.7009
12991.947783 90.412 -16.3994
13086.092792 90.247 -18.2196
13180.920015 90.067 -20.1746
13276.434395 89.865 -22.2590
13372.640911 89.628 -24.4447
13469.544580 89.350 -26.6803
13567.150452 89.023 -28.8998
13665.463617 88.645 -31.0303
13764.489200 88.216 -32.9958
13864.232362 87.737 -34.7200
13964.698305 87.214 -36.1339
14065.892266 86.656 -37.1832
14167.819519 86.072 -37.8276
14270.485380 85.474 -38.0377
14373.895200 84.872 -37.7963
14478.054370 84.280 -37.1031
14582.968320 83.712 -35.9751
14688.642520 83.179 -34.4420
14795.082478 82.696 -32.5496
14902.293745 82.274 -30.3634
15010.281908 81.925 -27.9661
15119.052599 81.659 -25.4516
15228.611486 81.482 -22.9244
15338.964283 81.399 -20.4972
15450.116741 81.411 -18.2861
15562.074656 81.517 -16.4076
15674.843864 81.713 -14.9813
15788.430244 81.990 -14.1305
15902.839718 82.336 -13.9753
16018.078250 82.733 -14.6239
16134.151848 83.158 -16.1640
16251.066563 83.582 -18.6559
16368.828491 83.975 -22.1243
16487.443769 84.303 -26.5534
16606.918584 84.526 -31.8776
16727.259161 84.605 -37.9635
16848.471777 84.504 -44.5923
16970.562748 84.192 -51.4591
17093.538442 83.656 -58.1981
17217.405268 82.895 -64.4290
17342.169684 81.929 -69.8082
17467.838194 80.788 -74.0642
17594.417350 79.508 -77.0075
17721.913751 78.133 -78.5315
17850.334044 76.706 -78.6158
17979.684923 75.274 -77.3295
18109.973131 73.882 -74.8279
18241.205462 72.573 -71.3365
18373.388756 71.378 -67.1154
18506.529905 70.320 -62.4093
18640.635849 69.410 -57.4208
18775.713581 68.651 -52.3228
18911.770141 68.042 -47.2942
19048.812624 67.577 -42.5460
19186.848172 67.241 -38.3061
19325.883983 67.010 -34.7619
19465.927305 66.853 -32.0072
19606.985439 66.744 -30.0240
19749.065738 66.663 -28.7086
19892.175609 66.605 -27.9257
20036.322514 66.575 -27.5632
