* Measurement data measured by REW V5.31.3
* Source: EXCL: Microphone (USB Sound Device        ), MICROPHONE (Master Volume), R, volume: 0.390
* Format: 256k Log Swept Sine, 1 sweep at -12.0 dBFS with no timing reference
* Dated: Jul 21, 2025 9:46:53 PM
* REW Settings:
*  C-weighting compensation: Off
*  Target level: 75.0 dB
* Note: Moondrop Kadenz NozL
* Measurement: L Moondrop Kadenz L
* Smoothing: 1/12 octave
* Frequency Step: 96 ppo
* Start Frequency: 0.36621094 Hz
*
* Freq(Hz) SPL(dB) Phase(degrees)
0.366211 93.875 158.7023
0.368865 93.869 158.6801
0.371538 93.860 158.6468
0.374230 93.850 158.6050
0.376942 93.837 158.5567
0.379673 93.824 158.5037
0.382424 93.811 158.4470
0.385196 93.797 158.3872
0.387987 93.782 158.3246
0.390798 93.768 158.2594
0.393630 93.753 158.1918
0.396483 93.738 158.1219
0.399356 93.724 158.0494
0.402250 93.709 157.9746
0.405165 93.694 157.8973
0.408101 93.678 157.8176
0.411058 93.663 157.7354
0.414037 93.648 157.6507
0.417037 93.632 157.5635
0.420059 93.617 157.4737
0.423103 93.601 157.3814
0.426169 93.585 157.2865
0.429257 93.569 157.1889
0.432368 93.553 157.0887
0.435501 93.537 156.9859
0.438656 93.520 156.8803
0.441835 93.504 156.7721
0.445037 93.488 156.6611
0.448262 93.471 156.5474
0.451510 93.454 156.4309
0.454782 93.437 156.3116
0.458077 93.420 156.1895
0.461397 93.403 156.0646
0.464740 93.386 155.9369
0.468108 93.368 155.8063
0.471500 93.351 155.6728
0.474917 93.333 155.5364
0.478358 93.315 155.3971
0.481825 93.297 155.2549
0.485316 93.279 155.1098
0.488833 93.261 154.9617
0.492375 93.243 154.8107
0.495943 93.224 154.6568
0.499537 93.206 154.4998
0.503157 93.187 154.3399
0.506803 93.168 154.1770
0.510475 93.149 154.0112
0.514175 93.130 153.8423
0.517900 93.111 153.6705
0.521653 93.091 153.4957
0.525434 93.072 153.3179
0.529241 93.052 153.1372
0.533076 93.032 152.9535
0.536939 93.012 152.7669
0.540830 92.992 152.5773
0.544749 92.972 152.3849
0.548696 92.952 152.1895
0.552673 92.931 151.9913
0.556677 92.910 151.7902
0.560711 92.890 151.5863
0.564774 92.869 151.3795
0.568867 92.847 151.1701
0.572989 92.826 150.9579
0.577141 92.805 150.7430
0.581324 92.783 150.5255
0.585536 92.761 150.3054
0.589779 92.739 150.0828
0.594053 92.717 149.8577
0.598358 92.695 149.6302
0.602694 92.672 149.4004
0.607061 92.650 149.1682
0.611460 92.627 148.9339
0.615891 92.604 148.6975
0.620354 92.581 148.4590
0.624849 92.558 148.2186
0.629377 92.535 147.9764
0.633938 92.511 147.7324
0.638532 92.487 147.4869
0.643159 92.463 147.2398
0.647819 92.439 146.9914
0.652514 92.415 146.7417
0.657242 92.391 146.4910
0.662005 92.366 146.2393
0.666802 92.341 145.9868
0.671634 92.316 145.7338
0.676501 92.291 145.4803
0.681403 92.266 145.2265
0.686341 92.240 144.9727
0.691314 92.214 144.7190
0.696324 92.188 144.4656
0.701370 92.162 144.2128
0.706452 92.135 143.9605
0.711571 92.108 143.7090
0.716728 92.080 143.4582
0.721921 92.051 143.2078
0.727153 92.020 142.9575
0.732422 91.988 142.7064
0.737729 91.953 142.4537
0.743075 91.916 142.1982
0.748460 91.878 141.9393
0.753883 91.838 141.6761
0.759346 91.797 141.4082
0.764849 91.755 141.1352
0.770391 91.713 140.8570
0.775974 91.670 140.5733
0.781597 91.627 140.2842
0.787261 91.583 139.9893
0.792966 91.539 139.6888
0.798712 91.494 139.3826
0.804500 91.448 139.0705
0.810329 91.402 138.7525
0.816201 91.355 138.4286
0.822116 91.307 138.0988
0.828073 91.259 137.7630
0.834074 91.210 137.4212
0.840118 91.161 137.0733
0.846206 91.110 136.7194
0.852338 91.059 136.3593
0.858514 91.007 135.9932
0.864735 90.954 135.6210
0.871001 90.900 135.2427
0.877313 90.845 134.8584
0.883670 90.789 134.4680
0.890074 90.732 134.0717
0.896524 90.674 133.6694
0.903020 90.614 133.2613
0.909564 90.554 132.8474
0.916155 90.492 132.4279
0.922794 90.429 132.0028
0.929481 90.365 131.5722
0.936216 90.300 131.1364
0.943000 90.233 130.6955
0.949834 90.164 130.2497
0.956717 90.094 129.7992
0.963649 90.023 129.3443
0.970632 89.949 128.8852
0.977666 89.874 128.4223
0.984750 89.798 127.9558
0.991886 89.719 127.4863
0.999074 89.639 127.0140
1.006314 89.556 126.5394
1.013606 89.472 126.0629
1.020951 89.385 125.5853
1.028349 89.297 125.1068
1.035801 89.206 124.6283
1.043307 89.113 124.1504
1.050867 89.017 123.6737
1.058482 88.919 123.1989
1.066152 88.818 122.7268
1.073878 88.715 122.2579
1.081660 88.609 121.7928
1.089498 88.501 121.3317
1.097393 88.391 120.8746
1.105345 88.278 120.4211
1.113355 88.164 119.9706
1.121423 88.048 119.5224
1.129549 87.930 119.0760
1.137734 87.810 118.6306
1.145979 87.689 118.1858
1.154283 87.566 117.7411
1.162647 87.442 117.2961
1.171072 87.316 116.8504
1.179558 87.187 116.4035
1.188106 87.056 115.9551
1.196715 86.924 115.5047
1.205387 86.788 115.0518
1.214122 86.650 114.5960
1.222920 86.510 114.1367
1.231782 86.366 113.6733
1.240708 86.219 113.2054
1.249699 86.069 112.7323
1.258754 85.916 112.2534
1.267876 85.759 111.7679
1.277063 85.598 111.2752
1.286318 85.433 110.7746
1.295639 85.263 110.2651
1.305027 85.089 109.7459
1.314484 84.911 109.2162
1.324009 84.727 108.6750
1.333604 84.539 108.1212
1.343268 84.345 107.5538
1.353002 84.145 106.9717
1.362806 83.939 106.3736
1.372681 83.727 105.7585
1.382628 83.509 105.1250
1.392647 83.283 104.4719
1.402739 83.051 103.7978
1.412904 82.810 103.1017
1.423142 82.562 102.3822
1.433455 82.304 101.6386
1.443843 82.036 100.8701
1.454305 81.756 100.0763
1.464844 81.461 99.2570
1.475459 81.150 98.4120
1.486150 80.819 97.5407
1.496920 80.467 96.6417
1.507767 80.092 95.7126
1.518693 79.695 94.7502
1.529698 79.276 93.7500
1.540783 78.836 92.7067
1.551948 78.375 91.6138
1.563194 77.897 90.4636
1.574521 77.402 89.2469
1.585931 76.893 87.9527
1.597423 76.372 86.5677
1.608999 75.842 85.0759
1.620658 75.304 83.4576
1.632402 74.763 81.6889
1.644232 74.219 79.7402
1.656146 73.678 77.5747
1.668147 73.142 75.1465
1.680235 72.614 72.3980
1.692411 72.098 69.2571
1.704675 71.599 65.6343
1.717028 71.120 61.4197
1.729470 70.667 56.4838
1.742003 70.243 50.6841
1.754626 69.855 43.8860
1.767341 69.508 36.0070
1.780147 69.208 27.0844
1.793047 68.961 17.3448
1.806040 68.772 7.2155
1.819128 68.647 -2.7724
1.832310 68.591 -12.1502
1.845587 68.606 -20.6338
1.858961 68.692 -28.1327
1.872432 68.849 -34.6883
1.886001 69.075 -40.4037
1.899667 69.364 -45.3986
1.913433 69.712 -49.7860
1.927299 70.113 -53.6638
1.941265 70.561 -57.1135
1.955332 71.051 -60.2017
1.969501 71.576 -62.9823
1.983773 72.129 -65.4989
1.998148 72.705 -67.7867
2.012627 73.297 -69.8741
2.027212 73.898 -71.7845
2.041902 74.502 -73.5369
2.056698 75.103 -75.1469
2.071602 75.695 -76.6273
2.086614 76.271 -77.9892
2.101734 76.825 -79.2416
2.116964 77.353 -80.3928
2.132304 77.849 -81.4505
2.147756 78.309 -82.4227
2.163320 78.730 -83.3183
2.178996 79.112 -84.1478
2.194786 79.457 -84.9234
2.210690 79.765 -85.6588
2.226710 80.043 -86.3666
2.242845 80.293 -87.0568
2.259098 80.519 -87.7359
2.275468 80.724 -88.4073
2.291957 80.908 -89.0720
2.308566 81.075 -89.7295
2.325295 81.224 -90.3781
2.342145 81.359 -91.0157
2.359117 81.480 -91.6395
2.376212 81.588 -92.2465
2.393431 81.686 -92.8336
2.410775 81.775 -93.3973
2.428244 81.856 -93.9342
2.445840 81.932 -94.4406
2.463564 82.003 -94.9129
2.481416 82.071 -95.3479
2.499397 82.138 -95.7427
2.517509 82.205 -96.0952
2.535752 82.271 -96.4048
2.554127 82.337 -96.6724
2.572635 82.400 -96.9009
2.591277 82.460 -97.0942
2.610055 82.515 -97.2562
2.628968 82.563 -97.3900
2.648019 82.605 -97.4976
2.667208 82.640 -97.5802
2.686535 82.669 -97.6378
2.706003 82.692 -97.6704
2.725612 82.710 -97.6770
2.745363 82.724 -97.6568
2.765257 82.735 -97.6087
2.785295 82.745 -97.5313
2.805478 82.754 -97.4232
2.825808 82.764 -97.2830
2.846285 82.776 -97.1090
2.866910 82.790 -96.8997
2.887685 82.807 -96.6531
2.908611 82.827 -96.3673
2.929688 82.851 -96.0403
2.950917 82.877 -95.6702
2.972301 82.905 -95.2560
2.993839 82.935 -94.7978
3.015534 82.965 -94.2971
3.037386 82.997 -93.7567
3.059396 83.030 -93.1801
3.081565 83.064 -92.5718
3.103896 83.101 -91.9368
3.126388 83.141 -91.2805
3.149043 83.185 -90.6088
3.171862 83.232 -89.9273
3.194847 83.285 -89.2417
3.217998 83.344 -88.5570
3.241317 83.410 -87.8771
3.264805 83.483 -87.2041
3.288463 83.563 -86.5381
3.312293 83.652 -85.8776
3.336295 83.749 -85.2207
3.360471 83.854 -84.5668
3.384822 83.966 -83.9171
3.409350 84.086 -83.2754
3.434056 84.211 -82.6465
3.458940 84.342 -82.0363
3.484005 84.477 -81.4510
3.509252 84.615 -80.8969
3.534681 84.756 -80.3796
3.560295 84.897 -79.9046
3.586094 85.040 -79.4759
3.612081 85.182 -79.0966
3.638255 85.325 -78.7680
3.664620 85.467 -78.4896
3.691175 85.610 -78.2594
3.717923 85.754 -78.0744
3.744864 85.899 -77.9316
3.772001 86.044 -77.8281
3.799335 86.190 -77.7613
3.826866 86.336 -77.7293
3.854597 86.481 -77.7302
3.882529 86.624 -77.7626
3.910664 86.764 -77.8253
3.939002 86.901 -77.9176
3.967546 87.034 -78.0392
3.996296 87.163 -78.1902
4.025255 87.287 -78.3713
4.054423 87.406 -78.5830
4.083804 87.520 -78.8252
4.113396 87.630 -79.0969
4.143204 87.736 -79.3957
4.173227 87.837 -79.7181
4.203468 87.934 -80.0604
4.233928 88.027 -80.4185
4.264609 88.115 -80.7886
4.295512 88.198 -81.1675
4.326639 88.276 -81.5529
4.357992 88.350 -81.9436
4.389572 88.419 -82.3401
4.421380 88.482 -82.7438
4.453419 88.540 -83.1562
4.485691 88.592 -83.5776
4.518196 88.639 -84.0070
4.550936 88.681 -84.4417
4.583914 88.718 -84.8781
4.617131 88.751 -85.3121
4.650589 88.780 -85.7394
4.684289 88.805 -86.1562
4.718233 88.826 -86.5595
4.752424 88.843 -86.9479
4.786862 88.857 -87.3213
4.821549 88.866 -87.6806
4.856488 88.872 -88.0266
4.891680 88.874 -88.3597
4.927127 88.873 -88.6795
4.962831 88.869 -88.9848
4.998794 88.863 -89.2741
5.035017 88.856 -89.5453
5.071503 88.848 -89.7964
5.108253 88.840 -90.0257
5.145270 88.831 -90.2318
5.182555 88.823 -90.4143
5.220110 88.814 -90.5739
5.257937 88.804 -90.7125
5.296038 88.796 -90.8323
5.334415 88.788 -90.9363
5.373071 88.782 -91.0274
5.412006 88.779 -91.1079
5.451224 88.778 -91.1795
5.490725 88.781 -91.2429
5.530514 88.787 -91.2985
5.570590 88.796 -91.3468
5.610957 88.810 -91.3897
5.651616 88.826 -91.4305
5.692570 88.846 -91.4736
5.733821 88.869 -91.5241
5.775370 88.895 -91.5869
5.817221 88.925 -91.6659
5.859375 88.957 -91.7636
5.901834 88.994 -91.8812
5.944602 89.033 -92.0193
5.987679 89.076 -92.1787
6.031068 89.121 -92.3606
6.074771 89.168 -92.5669
6.118792 89.216 -92.7999
6.163131 89.265 -93.0619
6.207792 89.314 -93.3546
6.252776 89.364 -93.6789
6.298086 89.413 -94.0349
6.343725 89.462 -94.4212
6.389694 89.511 -94.8360
6.435996 89.558 -95.2770
6.482634 89.604 -95.7420
6.529610 89.648 -96.2295
6.576926 89.690 -96.7384
6.624585 89.730 -97.2681
6.672590 89.767 -97.8179
6.720942 89.801 -98.3859
6.769645 89.833 -98.9692
6.818700 89.862 -99.5639
6.868111 89.889 -100.1663
6.917881 89.913 -100.7731
6.968010 89.934 -101.3821
7.018504 89.953 -101.9922
7.069362 89.969 -102.6022
7.120590 89.984 -103.2103
7.172189 89.996 -103.8140
7.224161 90.007 -104.4103
7.276511 90.017 -104.9965
7.329239 90.027 -105.5703
7.382350 90.036 -106.1305
7.435845 90.045 -106.6769
7.489729 90.054 -107.2093
7.544002 90.064 -107.7279
7.598669 90.075 -108.2326
7.653732 90.088 -108.7233
7.709194 90.103 -109.1997
7.765058 90.120 -109.6623
7.821327 90.140 -110.1121
7.878004 90.163 -110.5510
7.935091 90.189 -110.9813
7.992592 90.219 -111.4053
8.050510 90.251 -111.8250
8.108847 90.287 -112.2416
8.167607 90.327 -112.6566
8.226793 90.370 -113.0715
8.286408 90.415 -113.4883
8.346454 90.464 -113.9092
8.406936 90.515 -114.3358
8.467856 90.569 -114.7694
8.529218 90.624 -115.2103
8.591024 90.681 -115.6586
8.653278 90.740 -116.1140
8.715983 90.799 -116.5765
8.779143 90.859 -117.0457
8.842760 90.919 -117.5211
8.906839 90.979 -118.0017
8.971381 91.038 -118.4860
9.036392 91.097 -118.9721
9.101873 91.155 -119.4579
9.167829 91.212 -119.9419
9.234263 91.268 -120.4225
9.301178 91.323 -120.8981
9.368578 91.376 -121.3671
9.436467 91.429 -121.8274
9.504847 91.480 -122.2774
9.573723 91.531 -122.7158
9.643099 91.580 -123.1417
9.712976 91.629 -123.5546
9.783361 91.677 -123.9539
9.854255 91.725 -124.3392
9.925663 91.773 -124.7103
9.997588 91.820 -125.0676
10.070035 91.868 -125.4115
10.143007 91.915 -125.7430
10.216507 91.963 -126.0628
10.290540 92.010 -126.3719
10.365109 92.058 -126.6713
10.440219 92.106 -126.9619
10.515873 92.154 -127.2447
10.592076 92.201 -127.5210
10.668830 92.249 -127.7915
10.746141 92.296 -128.0569
10.824012 92.342 -128.3177
10.902447 92.388 -128.5743
10.981451 92.433 -128.8271
11.061027 92.476 -129.0763
11.141180 92.519 -129.3218
11.221913 92.561 -129.5636
11.303232 92.601 -129.8014
11.385140 92.639 -130.0353
11.467641 92.677 -130.2650
11.550741 92.713 -130.4906
11.634442 92.747 -130.7120
11.718750 92.781 -130.9294
11.803669 92.813 -131.1430
11.889203 92.843 -131.3531
11.975357 92.873 -131.5603
12.062136 92.901 -131.7652
12.149543 92.928 -131.9683
12.237583 92.955 -132.1705
12.326262 92.979 -132.3723
12.415583 93.003 -132.5745
12.505552 93.026 -132.7778
12.596172 93.047 -132.9826
12.687449 93.067 -133.1894
12.779387 93.085 -133.3984
12.871992 93.102 -133.6100
12.965268 93.118 -133.8241
13.059220 93.132 -134.0408
13.153852 93.145 -134.2600
13.249170 93.157 -134.4816
13.345179 93.168 -134.7057
13.441884 93.177 -134.9322
13.539289 93.185 -135.1614
13.637401 93.193 -135.3935
13.736223 93.200 -135.6289
13.835761 93.207 -135.8683
13.936021 93.213 -136.1123
14.037007 93.219 -136.3620
14.138725 93.224 -136.6180
14.241180 93.230 -136.8813
14.344377 93.236 -137.1528
14.448323 93.241 -137.4330
14.553021 93.247 -137.7225
14.658478 93.252 -138.0214
14.764700 93.257 -138.3298
14.871691 93.262 -138.6472
14.979457 93.267 -138.9730
15.088005 93.271 -139.3063
15.197339 93.275 -139.6461
15.307465 93.279 -139.9911
15.418389 93.283 -140.3403
15.530117 93.287 -140.6923
15.642655 93.292 -141.0461
15.756008 93.296 -141.4010
15.870182 93.302 -141.7562
15.985184 93.308 -142.1114
16.101019 93.316 -142.4665
16.217694 93.325 -142.8215
16.335214 93.335 -143.1767
16.453586 93.347 -143.5323
16.572815 93.361 -143.8887
16.692909 93.375 -144.2460
16.813872 93.391 -144.6042
16.935713 93.408 -144.9631
17.058436 93.426 -145.3222
17.182048 93.445 -145.6809
17.306556 93.465 -146.0381
17.431967 93.485 -146.3929
17.558286 93.505 -146.7440
17.685521 93.526 -147.0901
17.813677 93.546 -147.4302
17.942762 93.567 -147.7630
18.072783 93.588 -148.0879
18.203746 93.609 -148.4039
18.335658 93.630 -148.7107
18.468526 93.651 -149.0078
18.602356 93.672 -149.2951
18.737156 93.693 -149.5724
18.872934 93.714 -149.8400
19.009695 93.734 -150.0979
19.147447 93.754 -150.3464
19.286197 93.773 -150.5857
19.425953 93.793 -150.8165
19.566721 93.811 -151.0391
19.708510 93.829 -151.2542
19.851326 93.846 -151.4626
19.995177 93.862 -151.6650
20.140070 93.878 -151.8625
20.286013 93.892 -152.0558
20.433014 93.906 -152.2457
20.581080 93.918 -152.4330
20.730219 93.929 -152.6182
20.880439 93.939 -152.8018
21.031747 93.947 -152.9843
21.184152 93.954 -153.1658
21.337661 93.960 -153.3469
21.492282 93.964 -153.5279
21.648024 93.967 -153.7096
21.804895 93.970 -153.8928
21.962902 93.972 -154.0787
22.122054 93.973 -154.2684
22.282360 93.973 -154.4633
22.443827 93.973 -154.6644
22.606464 93.972 -154.8729
22.770280 93.971 -155.0892
22.935283 93.969 -155.3136
23.101481 93.967 -155.5458
23.268884 93.964 -155.7853
23.437500 93.960 -156.0312
23.607338 93.956 -156.2824
23.778406 93.952 -156.5381
23.950714 93.949 -156.7974
24.124271 93.945 -157.0597
24.299086 93.942 -157.3248
24.475167 93.940 -157.5924
24.652524 93.939 -157.8626
24.831166 93.939 -158.1353
25.011103 93.940 -158.4102
25.192344 93.942 -158.6871
25.374898 93.945 -158.9653
25.558775 93.948 -159.2438
25.743984 93.953 -159.5218
25.930536 93.958 -159.7980
26.118439 93.964 -160.0714
26.307704 93.970 -160.3408
26.498341 93.977 -160.6053
26.690359 93.984 -160.8639
26.883768 93.991 -161.1158
27.078579 93.999 -161.3602
27.274801 94.006 -161.5968
27.472446 94.014 -161.8251
27.671522 94.022 -162.0452
27.872042 94.030 -162.2573
28.074014 94.038 -162.4622
28.277450 94.045 -162.6608
28.482360 94.052 -162.8541
28.688755 94.059 -163.0432
28.896645 94.065 -163.2291
29.106042 94.070 -163.4123
29.316957 94.074 -163.5933
29.529400 94.077 -163.7725
29.743382 94.079 -163.9502
29.958915 94.080 -164.1266
30.176009 94.080 -164.3026
30.394677 94.079 -164.4790
30.614929 94.077 -164.6569
30.836778 94.075 -164.8372
31.060234 94.072 -165.0210
31.285309 94.068 -165.2087
31.512015 94.064 -165.4005
31.740364 94.059 -165.5962
31.970368 94.054 -165.7955
32.202039 94.048 -165.9980
32.435388 94.043 -166.2035
32.670428 94.038 -166.4121
32.907171 94.034 -166.6239
33.145630 94.030 -166.8396
33.385817 94.026 -167.0593
33.627745 94.023 -167.2832
33.871425 94.021 -167.5107
34.116871 94.018 -167.7407
34.364096 94.016 -167.9718
34.613113 94.014 -168.2020
34.863934 94.012 -168.4295
35.116572 94.010 -168.6525
35.371041 94.008 -168.8699
35.627354 94.006 -169.0812
35.885525 94.004 -169.2866
36.145566 94.003 -169.4868
36.407492 94.002 -169.6826
36.671316 94.000 -169.8749
36.937051 93.999 -170.0641
37.204712 93.997 -170.2503
37.474313 93.995 -170.4332
37.745867 93.992 -170.6130
38.019389 93.989 -170.7896
38.294893 93.985 -170.9637
38.572394 93.980 -171.1365
38.851905 93.975 -171.3089
39.133442 93.970 -171.4820
39.417019 93.964 -171.6562
39.702651 93.958 -171.8317
39.990353 93.951 -172.0081
40.280140 93.944 -172.1852
40.572026 93.937 -172.3628
40.866028 93.930 -172.5414
41.162160 93.922 -172.7215
41.460438 93.915 -172.9035
41.760877 93.908 -173.0874
42.063494 93.901 -173.2727
42.368303 93.894 -173.4580
42.675322 93.886 -173.6419
42.984565 93.879 -173.8234
43.296048 93.872 -174.0018
43.609789 93.865 -174.1775
43.925804 93.858 -174.3513
44.244108 93.852 -174.5243
44.564719 93.845 -174.6973
44.887654 93.839 -174.8702
45.212928 93.832 -175.0426
45.540560 93.824 -175.2137
45.870565 93.816 -175.3828
46.202962 93.808 -175.5498
46.537768 93.799 -175.7148
46.875000 93.790 -175.8783
47.214676 93.781 -176.0405
47.556813 93.771 -176.2014
47.901429 93.762 -176.3608
48.248542 93.752 -176.5187
48.598171 93.742 -176.6754
48.950334 93.733 -176.8315
49.305048 93.724 -176.9875
49.662333 93.715 -177.1439
50.022206 93.706 -177.3007
50.384688 93.698 -177.4575
50.749796 93.689 -177.6140
51.117550 93.680 -177.7696
51.487969 93.671 -177.9236
51.861072 93.661 -178.0751
52.236879 93.651 -178.2232
52.615409 93.641 -178.3668
52.996681 93.631 -178.5058
53.380717 93.620 -178.6405
53.767536 93.610 -178.7722
54.157158 93.601 -178.9028
54.549603 93.592 -179.0347
54.944892 93.583 -179.1700
55.343045 93.575 -179.3103
55.744084 93.566 -179.4561
56.148028 93.558 -179.6070
56.554900 93.548 -179.7617
56.964720 93.539 -179.9185
57.377510 93.529 179.9240
57.793291 93.518 179.7664
58.212085 93.508 179.6090
58.633914 93.497 179.4521
59.058799 93.485 179.2960
59.486764 93.474 179.1415
59.917829 93.462 178.9892
60.352019 93.449 178.8395
60.789354 93.436 178.6926
61.229859 93.422 178.5480
61.673556 93.408 178.4056
62.120468 93.394 178.2645
62.570618 93.379 178.1245
63.024031 93.363 177.9855
63.480729 93.347 177.8481
63.940736 93.331 177.7125
64.404077 93.314 177.5782
64.870776 93.298 177.4445
65.340856 93.281 177.3107
65.814343 93.264 177.1775
66.291261 93.247 177.0460
66.771635 93.230 176.9175
67.255489 93.212 176.7931
67.742850 93.194 176.6735
68.233743 93.175 176.5601
68.728193 93.156 176.4542
69.226226 93.137 176.3575
69.727867 93.118 176.2710
70.233144 93.099 176.1957
70.742083 93.081 176.1317
71.254709 93.064 176.0782
71.771050 93.049 176.0322
72.291132 93.036 175.9885
72.814984 93.026 175.9419
73.342631 93.017 175.8880
73.874102 93.010 175.8247
74.409424 93.004 175.7513
74.948626 92.998 175.6675
75.491734 92.992 175.5740
76.038779 92.987 175.4714
76.589787 92.981 175.3611
77.144788 92.975 175.2443
77.703811 92.968 175.1218
78.266885 92.960 174.9936
78.834039 92.952 174.8587
79.405303 92.944 174.7158
79.980706 92.934 174.5648
80.560280 92.924 174.4072
81.144053 92.911 174.2448
81.732056 92.898 174.0789
82.324320 92.882 173.9102
82.920876 92.865 173.7399
83.521755 92.846 173.5709
84.126988 92.825 173.4072
84.736607 92.803 173.2521
85.350643 92.778 173.1077
85.969129 92.753 172.9752
86.592097 92.728 172.8543
87.219579 92.702 172.7440
87.851608 92.676 172.6425
88.488217 92.651 172.5481
89.129439 92.626 172.4592
89.775308 92.602 172.3744
90.425856 92.577 172.2927
91.081119 92.553 172.2134
91.741131 92.529 172.1362
92.405925 92.504 172.0610
93.075536 92.480 171.9879
93.750000 92.455 171.9171
94.429351 92.431 171.8490
95.113625 92.406 171.7839
95.802858 92.381 171.7225
96.497085 92.356 171.6654
97.196342 92.331 171.6132
97.900667 92.306 171.5657
98.610096 92.281 171.5228
99.324665 92.255 171.4847
100.044413 92.230 171.4528
100.769376 92.204 171.4294
101.499592 92.178 171.4167
102.235100 92.154 171.4146
102.975938 92.130 171.4206
103.722144 92.109 171.4312
104.473757 92.089 171.4443
105.230817 92.070 171.4604
105.993363 92.051 171.4809
106.761435 92.035 171.5058
107.535072 92.020 171.5316
108.314315 92.007 171.5504
109.099206 91.997 171.5522
109.889783 91.988 171.5288
110.686090 91.979 171.4793
111.488167 91.968 171.4115
112.296056 91.957 171.3401
113.109800 91.944 171.2811
113.929440 91.930 171.2454
114.755020 91.918 171.2353
115.586582 91.906 171.2462
116.424170 91.894 171.2717
117.267827 91.882 171.3056
118.117598 91.868 171.3382
118.973527 91.854 171.3514
119.835658 91.838 171.3251
120.704037 91.818 171.2548
121.578708 91.792 171.1574
122.459718 91.764 171.0533
123.347111 91.736 170.9521
124.240935 91.709 170.8562
125.141236 91.686 170.7673
126.048061 91.664 170.6871
126.961458 91.645 170.6163
127.881473 91.626 170.5539
128.808154 91.606 170.4975
129.741551 91.584 170.4449
130.681712 91.562 170.3945
131.628686 91.537 170.3460
132.582521 91.512 170.3009
133.543269 91.487 170.2615
134.510979 91.462 170.2303
135.485701 91.438 170.2086
136.467486 91.414 170.1962
137.456386 91.392 170.1909
138.452451 91.369 170.1897
139.455735 91.347 170.1885
140.466288 91.324 170.1842
141.484165 91.300 170.1758
142.509418 91.276 170.1645
143.542100 91.251 170.1527
144.582265 91.226 170.1422
145.629968 91.201 170.1342
146.685262 91.176 170.1291
147.748204 91.151 170.1273
148.818849 91.125 170.1292
149.897251 91.098 170.1355
150.983469 91.070 170.1476
152.077557 91.043 170.1678
153.179574 91.016 170.1980
154.289576 90.990 170.2391
155.407622 90.966 170.2897
156.533770 90.944 170.3455
157.668078 90.923 170.4004
158.810606 90.904 170.4485
159.961413 90.885 170.4866
161.120559 90.865 170.5146
162.288105 90.844 170.5346
163.464112 90.822 170.5495
164.648640 90.799 170.5634
165.841752 90.774 170.5810
167.043510 90.749 170.6065
168.253976 90.721 170.6423
169.473213 90.694 170.6888
170.701286 90.666 170.7449
171.938258 90.638 170.8080
173.184194 90.611 170.8749
174.439158 90.586 170.9424
175.703216 90.561 171.0095
176.976434 90.538 171.0764
178.258878 90.516 171.1448
179.550615 90.494 171.2164
180.851713 90.473 171.2919
182.162239 90.451 171.3708
183.482262 90.430 171.4518
184.811850 90.409 171.5336
186.151073 90.389 171.6154
187.500000 90.368 171.6973
188.858702 90.348 171.7802
190.227250 90.329 171.8649
191.605715 90.309 171.9516
192.994169 90.290 172.0392
194.392685 90.271 172.1263
195.801334 90.251 172.2117
197.220191 90.232 172.2953
198.649330 90.212 172.3779
200.088825 90.192 172.4605
201.538751 90.173 172.5435
202.999184 90.154 172.6255
204.470200 90.135 172.7046
205.951875 90.118 172.7780
207.444287 90.100 172.8444
208.947514 90.082 172.9036
210.461634 90.063 172.9578
211.986726 90.042 173.0108
213.522869 90.019 173.0679
215.070144 89.995 173.1343
216.628631 89.970 173.2145
218.198411 89.945 173.3100
219.779567 89.921 173.4189
221.372180 89.898 173.5358
222.976334 89.877 173.6548
224.592112 89.857 173.7714
226.219600 89.838 173.8836
227.858880 89.820 173.9913
229.510039 89.801 174.0954
231.173164 89.782 174.1976
232.848340 89.763 174.2987
234.535655 89.743 174.3988
236.235197 89.724 174.4973
237.947054 89.704 174.5942
239.671317 89.684 174.6903
241.408074 89.662 174.7874
243.157416 89.640 174.8876
244.919435 89.617 174.9933
246.694223 89.593 175.1071
248.481871 89.568 175.2321
250.282473 89.544 175.3707
252.096123 89.521 175.5243
253.922915 89.499 175.6915
255.762945 89.480 175.8670
257.616309 89.463 176.0412
259.483103 89.449 176.2042
261.363424 89.435 176.3505
263.257372 89.421 176.4814
265.165043 89.405 176.6039
267.086538 89.388 176.7264
269.021957 89.369 176.8562
270.971401 89.350 176.9971
272.934972 89.331 177.1500
274.912771 89.313 177.3130
276.904902 89.296 177.4835
278.911469 89.280 177.6589
280.932577 89.267 177.8365
282.968330 89.255 178.0125
285.018835 89.245 178.1808
287.084199 89.237 178.3346
289.164530 89.230 178.4682
291.259935 89.222 178.5809
293.370525 89.212 178.6783
295.496408 89.199 178.7703
297.637697 89.183 178.8661
299.794503 89.165 178.9720
301.966937 89.146 179.0895
304.155114 89.126 179.2170
306.359147 89.107 179.3514
308.579152 89.088 179.4893
310.815244 89.069 179.6282
313.067539 89.051 179.7675
315.336156 89.031 179.9091
317.621211 89.011 -179.9433
319.922826 88.990 -179.7860
322.241118 88.970 -179.6176
324.576210 88.950 -179.4392
326.928223 88.932 -179.2540
329.297280 88.915 -179.0652
331.683504 88.899 -178.8756
334.087019 88.884 -178.6877
336.507952 88.870 -178.5034
338.946427 88.856 -178.3238
341.402572 88.842 -178.1479
343.876516 88.827 -177.9731
346.368387 88.811 -177.7968
348.878315 88.795 -177.6172
351.406431 88.779 -177.4336
353.952867 88.763 -177.2459
356.517756 88.747 -177.0546
359.101230 88.732 -176.8604
361.703426 88.718 -176.6642
364.324478 88.703 -176.4668
366.964523 88.688 -176.2685
369.623699 88.674 -176.0695
372.302145 88.660 -175.8692
375.000000 88.645 -175.6667
377.717405 88.631 -175.4617
380.454501 88.617 -175.2541
383.211431 88.604 -175.0439
385.988339 88.591 -174.8318
388.785369 88.578 -174.6183
391.602668 88.565 -174.4034
394.440383 88.553 -174.1870
397.298660 88.541 -173.9693
400.177650 88.529 -173.7506
403.077502 88.518 -173.5317
405.998368 88.507 -173.3137
408.940400 88.496 -173.0970
411.903750 88.485 -172.8805
414.888575 88.473 -172.6610
417.895028 88.461 -172.4352
420.923268 88.449 -172.2005
423.973452 88.438 -171.9561
427.045738 88.428 -171.7035
430.140287 88.419 -171.4465
433.257261 88.412 -171.1900
436.396822 88.407 -170.9373
439.559133 88.402 -170.6890
442.744360 88.398 -170.4449
445.952668 88.395 -170.2070
449.184225 88.394 -169.9799
452.439199 88.392 -169.7695
455.717760 88.390 -169.5789
459.020079 88.386 -169.4041
462.346327 88.379 -169.2348
465.696680 88.369 -169.0593
469.071310 88.356 -168.8703
472.470394 88.344 -168.6661
475.894109 88.331 -168.4496
479.342634 88.319 -168.2262
482.816148 88.307 -168.0014
486.314833 88.295 -167.7766
489.838871 88.282 -167.5475
493.388445 88.268 -167.3064
496.963741 88.255 -167.0494
500.564945 88.242 -166.7802
504.192245 88.232 -166.5062
507.845830 88.223 -166.2347
511.525890 88.215 -165.9687
515.232618 88.207 -165.7075
518.966206 88.198 -165.4475
522.726849 88.188 -165.1835
526.514743 88.178 -164.9108
530.330086 88.167 -164.6272
534.173076 88.158 -164.3351
538.043915 88.150 -164.0396
541.942803 88.143 -163.7438
545.869944 88.137 -163.4470
549.825542 88.131 -163.1484
553.809805 88.126 -162.8489
557.822939 88.122 -162.5512
561.865154 88.118 -162.2572
565.936660 88.114 -161.9667
570.037671 88.109 -161.6773
574.168399 88.103 -161.3856
578.329060 88.098 -161.0898
582.519870 88.092 -160.7898
586.741049 88.086 -160.4854
590.992817 88.080 -160.1740
595.275394 88.075 -159.8527
599.589005 88.070 -159.5223
603.933874 88.066 -159.1872
608.310228 88.062 -158.8520
612.718295 88.059 -158.5182
617.158304 88.056 -158.1831
621.630488 88.052 -157.8411
626.135079 88.048 -157.4862
630.672311 88.045 -157.1168
635.242423 88.044 -156.7371
639.845651 88.045 -156.3527
644.482237 88.048 -155.9653
649.152421 88.053 -155.5738
653.856447 88.060 -155.1797
658.594560 88.071 -154.7900
663.367008 88.083 -154.4151
668.174039 88.097 -154.0629
673.015903 88.110 -153.7330
677.892854 88.121 -153.4175
682.805145 88.130 -153.1071
687.753032 88.137 -152.7949
692.736774 88.142 -152.4756
697.756631 88.146 -152.1447
702.812863 88.150 -151.8001
707.905735 88.154 -151.4436
713.035511 88.159 -151.0795
718.202461 88.165 -150.7110
723.406852 88.171 -150.3393
728.648956 88.178 -149.9636
733.929047 88.185 -149.5829
739.247399 88.192 -149.1961
744.604290 88.199 -148.8024
750.000000 88.208 -148.4011
755.434809 88.217 -147.9921
760.909001 88.227 -147.5757
766.422861 88.238 -147.1524
771.976677 88.251 -146.7228
777.570739 88.265 -146.2873
783.205337 88.280 -145.8461
788.880766 88.297 -145.3980
794.597321 88.314 -144.9404
800.355301 88.334 -144.4716
806.155005 88.357 -143.9934
811.996736 88.383 -143.5122
817.880799 88.413 -143.0369
823.807501 88.447 -142.5772
829.777150 88.483 -142.1410
835.790057 88.519 -141.7305
841.846536 88.555 -141.3394
847.946903 88.590 -140.9573
854.091476 88.623 -140.5764
860.280575 88.655 -140.1930
866.514523 88.687 -139.8044
872.793644 88.719 -139.4075
879.118267 88.751 -139.0026
885.488720 88.786 -138.5941
891.905336 88.821 -138.1862
898.368450 88.858 -137.7792
904.878398 88.895 -137.3708
911.435520 88.934 -136.9599
918.040157 88.974 -136.5480
924.692655 89.017 -136.1378
931.393359 89.061 -135.7329
938.142619 89.107 -135.3369
944.940787 89.154 -134.9513
951.788218 89.201 -134.5745
958.685268 89.248 -134.2036
965.632296 89.296 -133.8358
972.629666 89.344 -133.4687
979.677741 89.393 -133.1016
986.776890 89.442 -132.7353
993.927482 89.491 -132.3693
1001.129891 89.541 -132.0002
1008.384491 89.593 -131.6244
1015.691660 89.647 -131.2422
1023.051781 89.704 -130.8581
1030.465236 89.765 -130.4795
1037.932411 89.830 -130.1180
1045.453698 89.898 -129.7856
1053.029486 89.967 -129.4879
1060.660172 90.035 -129.2213
1068.346153 90.102 -128.9773
1076.087829 90.166 -128.7466
1083.885605 90.228 -128.5227
1091.739887 90.290 -128.3035
1099.651084 90.350 -128.0888
1107.619609 90.410 -127.8781
1115.645878 90.469 -127.6704
1123.730308 90.527 -127.4644
1131.873321 90.585 -127.2589
1140.075341 90.643 -127.0529
1148.336797 90.700 -126.8456
1156.658119 90.758 -126.6365
1165.039741 90.816 -126.4249
1173.482099 90.874 -126.2092
1181.985634 90.935 -125.9901
1190.550789 90.998 -125.7735
1199.178011 91.064 -125.5702
1207.867749 91.132 -125.3922
1216.620457 91.199 -125.2453
1225.436590 91.266 -125.1261
1234.316609 91.329 -125.0264
1243.260976 91.390 -124.9373
1252.270157 91.447 -124.8506
1261.344623 91.503 -124.7618
1270.484846 91.557 -124.6695
1279.691303 91.610 -124.5723
1288.964474 91.662 -124.4689
1298.304842 91.713 -124.3599
1307.712894 91.765 -124.2480
1317.189120 91.816 -124.1365
1326.734016 91.868 -124.0275
1336.348077 91.918 -123.9206
1346.031806 91.968 -123.8130
1355.785708 92.016 -123.7010
1365.610290 92.063 -123.5812
1375.506065 92.110 -123.4492
1385.473549 92.156 -123.3003
1395.513261 92.205 -123.1335
1405.625726 92.257 -122.9538
1415.811469 92.312 -122.7731
1426.071023 92.371 -122.6059
1436.404921 92.432 -122.4615
1446.813703 92.493 -122.3402
1457.297912 92.553 -122.2366
1467.858093 92.612 -122.1442
1478.494798 92.669 -122.0583
1489.208581 92.725 -121.9747
1500.000000 92.779 -121.8896
1510.869618 92.832 -121.7990
1521.818002 92.883 -121.6994
1532.845723 92.935 -121.5879
1543.953355 92.987 -121.4617
1555.141477 93.041 -121.3195
1566.410674 93.098 -121.1642
1577.761531 93.159 -121.0053
1589.194642 93.223 -120.8557
1600.710601 93.291 -120.7243
1612.310010 93.359 -120.6123
1623.993473 93.428 -120.5163
1635.761599 93.498 -120.4319
1647.615002 93.568 -120.3572
1659.554299 93.639 -120.2931
1671.580114 93.711 -120.2420
1683.693072 93.784 -120.2084
1695.893807 93.857 -120.1973
1708.182952 93.930 -120.2115
1720.561150 94.001 -120.2487
1733.029045 94.068 -120.3018
1745.587288 94.133 -120.3605
1758.236533 94.194 -120.4135
1770.977440 94.255 -120.4513
1783.810673 94.316 -120.4718
1796.736900 94.379 -120.4822
1809.756796 94.445 -120.4954
1822.871040 94.512 -120.5223
1836.080315 94.581 -120.5670
1849.385310 94.649 -120.6289
1862.786718 94.717 -120.7053
1876.285239 94.783 -120.7923
1889.881575 94.848 -120.8846
1903.576436 94.912 -120.9769
1917.370535 94.975 -121.0645
1931.264593 95.040 -121.1447
1945.259332 95.106 -121.2190
1959.355483 95.176 -121.2968
1973.553781 95.248 -121.3918
1987.854965 95.323 -121.5150
2002.259781 95.398 -121.6708
2016.768981 95.473 -121.8575
2031.383320 95.545 -122.0708
2046.103561 95.616 -122.3053
2060.930471 95.684 -122.5567
2075.864823 95.751 -122.8234
2090.907395 95.815 -123.1047
2106.058972 95.877 -123.3990
2121.320344 95.936 -123.7013
2136.692305 95.992 -124.0043
2152.175658 96.047 -124.3002
2167.771210 96.101 -124.5868
2183.479774 96.156 -124.8704
2199.302169 96.213 -125.1622
2215.239219 96.270 -125.4714
2231.291755 96.327 -125.8025
2247.460615 96.382 -126.1559
2263.746641 96.435 -126.5280
2280.150683 96.485 -126.9124
2296.673595 96.533 -127.3010
2313.316238 96.579 -127.6870
2330.079481 96.624 -128.0685
2346.964198 96.671 -128.4519
2363.971268 96.718 -128.8482
2381.101578 96.765 -129.2664
2398.356022 96.811 -129.7102
2415.735498 96.855 -130.1788
2433.240913 96.896 -130.6681
2450.873180 96.933 -131.1737
2468.633217 96.967 -131.6919
2486.521951 96.996 -132.2188
2504.540314 97.022 -132.7484
2522.689246 97.044 -133.2719
2540.969692 97.063 -133.7810
2559.382606 97.081 -134.2746
2577.928947 97.100 -134.7603
2596.609683 97.120 -135.2495
2615.425787 97.139 -135.7518
2634.378241 97.157 -136.2726
2653.468031 97.172 -136.8110
2672.696154 97.183 -137.3609
2692.063613 97.190 -137.9121
2711.571415 97.194 -138.4563
2731.220579 97.197 -138.9916
2751.012130 97.198 -139.5225
2770.947098 97.197 -140.0547
2791.026522 97.195 -140.5913
2811.251451 97.190 -141.1323
2831.622938 97.183 -141.6751
2852.142045 97.172 -142.2168
2872.809842 97.157 -142.7530
2893.627406 97.139 -143.2767
2914.595823 97.117 -143.7781
2935.716186 97.093 -144.2495
2956.989596 97.069 -144.6907
2978.417161 97.046 -145.1087
3000.000000 97.025 -145.5135
3021.739237 97.004 -145.9131
3043.636005 96.984 -146.3111
3065.691446 96.962 -146.7048
3087.906710 96.940 -147.0885
3110.282955 96.918 -147.4592
3132.821347 96.898 -147.8206
3155.523062 96.878 -148.1799
3178.389283 96.859 -148.5439
3201.421202 96.840 -148.9158
3224.620020 96.820 -149.2951
3247.986946 96.798 -149.6785
3271.523198 96.773 -150.0582
3295.230004 96.745 -150.4215
3319.108599 96.715 -150.7539
3343.160228 96.685 -151.0470
3367.386145 96.658 -151.3014
3391.787613 96.635 -151.5245
3416.365904 96.616 -151.7269
3441.122300 96.604 -151.9182
3466.058091 96.598 -152.1060
3491.174576 96.600 -152.2997
3516.473066 96.610 -152.5160
3541.954880 96.629 -152.7772
3567.621345 96.654 -153.1067
3593.473800 96.684 -153.5228
3619.513592 96.714 -154.0365
3645.742080 96.741 -154.6493
3672.160630 96.761 -155.3519
3698.770620 96.771 -156.1254
3725.573436 96.771 -156.9492
3752.570477 96.759 -157.8067
3779.763150 96.735 -158.6856
3807.152872 96.700 -159.5740
3834.741071 96.651 -160.4551
3862.529185 96.590 -161.3067
3890.518664 96.518 -162.1066
3918.710966 96.438 -162.8389
3947.107561 96.352 -163.4973
3975.709929 96.265 -164.0840
4004.519563 96.178 -164.6092
4033.537962 96.093 -165.0874
4062.766641 96.011 -165.5320
4092.207123 95.931 -165.9518
4121.860942 95.854 -166.3541
4151.729646 95.780 -166.7485
4181.814790 95.708 -167.1451
4212.117944 95.636 -167.5506
4242.640687 95.563 -167.9630
4273.384610 95.488 -168.3752
4304.351317 95.411 -168.7811
4335.542421 95.334 -169.1798
4366.959549 95.257 -169.5753
4398.604338 95.179 -169.9749
4430.478438 95.100 -170.3858
4462.583511 95.018 -170.8083
4494.921231 94.932 -171.2366
4527.493283 94.841 -171.6640
4560.301365 94.746 -172.0861
4593.347189 94.646 -172.4995
4626.632476 94.541 -172.8965
4660.158962 94.430 -173.2648
4693.928395 94.314 -173.5939
4727.942535 94.195 -173.8784
4762.203156 94.075 -174.1208
4796.712043 93.954 -174.3294
4831.470996 93.834 -174.5140
4866.481826 93.713 -174.6795
4901.746360 93.591 -174.8263
4937.266434 93.467 -174.9543
4973.043902 93.341 -175.0641
5009.080628 93.213 -175.1525
5045.378492 93.080 -175.2097
5081.939384 92.944 -175.2228
5118.765212 92.806 -175.1818
5155.857894 92.668 -175.0838
5193.219366 92.531 -174.9342
5230.851574 92.397 -174.7418
5268.756481 92.266 -174.5138
5306.936062 92.137 -174.2555
5345.392309 92.012 -173.9731
5384.127225 91.888 -173.6720
5423.142830 91.765 -173.3511
5462.441159 91.642 -173.0024
5502.024259 91.520 -172.6151
5541.894195 91.399 -172.1820
5582.053045 91.281 -171.7029
5622.502902 91.168 -171.1834
5663.245876 91.060 -170.6296
5704.284090 90.957 -170.0474
5745.619684 90.859 -169.4444
5787.254813 90.766 -168.8267
5829.191647 90.676 -168.1942
5871.432373 90.589 -167.5396
5913.979192 90.505 -166.8528
5956.834323 90.425 -166.1269
6000.000000 90.351 -165.3615
6043.478473 90.284 -164.5604
6087.272010 90.226 -163.7305
6131.382892 90.177 -162.8815
6175.813420 90.138 -162.0246
6220.565910 90.107 -161.1671
6265.642695 90.084 -160.3098
6311.046124 90.069 -159.4485
6356.778566 90.062 -158.5800
6402.842404 90.064 -157.7047
6449.240040 90.076 -156.8257
6495.973891 90.100 -155.9495
6543.046396 90.136 -155.0864
6590.460007 90.183 -154.2470
6638.217197 90.241 -153.4383
6686.320456 90.311 -152.6626
6734.772290 90.391 -151.9209
6783.575226 90.484 -151.2165
6832.731809 90.589 -150.5565
6882.244600 90.709 -149.9521
6932.116181 90.843 -149.4194
6982.349153 90.991 -148.9763
7032.946133 91.152 -148.6383
7083.909760 91.325 -148.4166
7135.242690 91.509 -148.3214
7186.947600 91.704 -148.3649
7239.027185 91.909 -148.5620
7291.484160 92.122 -148.9318
7344.321260 92.342 -149.4977
7397.541239 92.565 -150.2822
7451.146872 92.787 -151.3017
7505.140954 93.002 -152.5654
7559.526299 93.206 -154.0773
7614.305743 93.395 -155.8369
7669.482141 93.562 -157.8405
7725.058371 93.704 -160.0821
7781.037328 93.812 -162.5496
7837.421932 93.881 -165.2186
7894.215122 93.903 -168.0494
7951.419859 93.874 -170.9890
8009.039125 93.789 -173.9751
8067.075924 93.650 -176.9419
8125.533282 93.456 -179.8275
8184.414245 93.211 177.4221
8243.721885 92.919 174.8552
8303.459292 92.583 172.5150
8363.629581 92.210 170.4391
8424.235888 91.806 168.6581
8485.281374 91.379 167.1910
8546.769221 90.937 166.0415
8608.702634 90.486 165.1990
8671.084842 90.035 164.6457
8733.919097 89.587 164.3625
8797.208675 89.146 164.3331
8860.956876 88.716 164.5429
8925.167022 88.300 164.9744
8989.842461 87.903 165.6030
9054.986566 87.526 166.4011
9120.602731 87.171 167.3426
9186.694378 86.837 168.4074
9253.264952 86.526 169.5826
9320.317925 86.237 170.8574
9387.856790 85.972 172.2161
9455.885071 85.731 173.6387
9524.406312 85.513 175.1058
9593.424086 85.317 176.6043
9662.941992 85.142 178.1314
9732.963653 84.987 179.6887
9803.492719 84.852 -178.7251
9874.532869 84.739 -177.1154
9946.087805 84.646 -175.4892
10018.161257 84.575 -173.8494
10090.756983 84.526 -172.1940
10163.878768 84.500 -170.5228
10237.530423 84.499 -168.8434
10311.715789 84.526 -167.1711
10386.438732 84.582 -165.5228
10461.703149 84.668 -163.9104
10537.512962 84.785 -162.3442
10613.872125 84.935 -160.8400
10690.784618 85.122 -159.4238
10768.254450 85.345 -158.1277
10846.285661 85.607 -156.9840
10924.882318 85.909 -156.0246
11004.048518 86.250 -155.2883
11083.788390 86.632 -154.8264
11164.106090 87.053 -154.7015
11245.005805 87.508 -154.9796
11326.491752 87.991 -155.7252
11408.568180 88.492 -157.0014
11491.239368 88.999 -158.8684
11574.509626 89.494 -161.3758
11658.383294 89.959 -164.5498
11742.864745 90.370 -168.3833
11827.958384 90.705 -172.8320
11913.668646 90.944 -177.8135
12000.000000 91.068 176.7925
12086.956947 91.063 171.1423
12174.544019 90.921 165.4181
12262.765784 90.642 159.8091
12351.626840 90.233 154.4902
12441.131819 89.708 149.6071
12531.285389 89.084 145.2715
12622.092249 88.379 141.5606
12713.557132 87.613 138.5179
12805.684808 86.806 136.1551
12898.480079 85.976 134.4598
12991.947783 85.140 133.4066
13086.092792 84.311 132.9620
13180.920015 83.502 133.0845
13276.434395 82.725 133.7246
13372.640911 81.988 134.8291
13469.544580 81.300 136.3438
13567.150452 80.669 138.2095
13665.463617 80.099 140.3596
13764.489200 79.596 142.7237
13864.232362 79.160 145.2359
13964.698305 78.794 147.8355
14065.892266 78.495 150.4650
14167.819519 78.263 153.0727
14270.485380 78.096 155.6174
14373.895200 77.992 158.0649
14478.054370 77.949 160.3815
14582.968320 77.968 162.5336
14688.642520 78.048 164.4890
14795.082478 78.191 166.2100
14902.293745 78.400 167.6455
15010.281908 78.677 168.7302
15119.052599 79.022 169.3854
15228.611486 79.433 169.5167
15338.964283 79.904 169.0154
15450.116741 80.420 167.7685
15562.074656 80.962 165.6721
15674.843864 81.502 162.6452
15788.430244 82.003 158.6464
15902.839718 82.429 153.6912
16018.078250 82.739 147.8673
16134.151848 82.898 141.3397
16251.066563 82.877 134.3459
16368.828491 82.659 127.1761
16487.443769 82.244 120.1352
16606.918584 81.643 113.4998
16727.259161 80.881 107.4877
16848.471777 79.986 102.2453
16970.562748 78.992 97.8466
17093.538442 77.933 94.3006
17217.405268 76.837 91.5663
17342.169684 75.731 89.5669
17467.838194 74.638 88.2030
17594.417350 73.571 87.3670
17721.913751 72.542 86.9550
17850.334044 71.556 86.8714
17979.684923 70.614 87.0344
18109.973131 69.713 87.3775
18241.205462 68.851 87.8457
18373.388756 68.023 88.3914
18506.529905 67.221 88.9751
18640.635849 66.441 89.5630
18775.713581 65.676 90.1262
18911.770141 64.920 90.6429
19048.812624 64.168 91.1000
19186.848172 63.415 91.4941
19325.883983 62.662 91.8357
19465.927305 61.917 92.1466
19606.985439 61.206 92.4482
19749.065738 60.573 92.7440
19892.175609 60.086 93.0028
20036.322514 59.818 93.1616
