* Measurement data measured by REW V5.31.3
* Source: EXCL: Microphone (USB Sound Device        ), MICROPHONE (Master Volume), R, volume: 0.390
* Format: 256k Log Swept Sine, 1 sweep at -12.0 dBFS with no timing reference
* Dated: Jul 21, 2025 9:50:46 PM
* REW Settings:
*  C-weighting compensation: Off
*  Target level: 75.0 dB
* Note: L Moondrop Kadenz S
* Measurement: L Moondrop Kadenz S
* Smoothing: 1/12 octave
* Frequency Step: 96 ppo
* Start Frequency: 0.36621094 Hz
*
* Freq(Hz) SPL(dB) Phase(degrees)
0.366211 93.756 159.1012
0.368865 93.750 159.0794
0.371538 93.741 159.0467
0.374230 93.730 159.0057
0.376942 93.718 158.9584
0.379673 93.705 158.9064
0.382424 93.692 158.8507
0.385196 93.678 158.7919
0.387987 93.663 158.7305
0.390798 93.649 158.6666
0.393630 93.634 158.6003
0.396483 93.620 158.5316
0.399356 93.605 158.4606
0.402250 93.590 158.3872
0.405165 93.575 158.3114
0.408101 93.560 158.2332
0.411058 93.545 158.1526
0.414037 93.529 158.0695
0.417037 93.514 157.9839
0.420059 93.498 157.8959
0.423103 93.483 157.8053
0.426169 93.467 157.7122
0.429257 93.451 157.6165
0.432368 93.435 157.5183
0.435501 93.419 157.4174
0.438656 93.403 157.3139
0.441835 93.386 157.2078
0.445037 93.370 157.0990
0.448262 93.353 156.9874
0.451510 93.337 156.8732
0.454782 93.320 156.7563
0.458077 93.303 156.6366
0.461397 93.286 156.5141
0.464740 93.268 156.3889
0.468108 93.251 156.2608
0.471500 93.234 156.1300
0.474917 93.216 155.9963
0.478358 93.198 155.8598
0.481825 93.180 155.7204
0.485316 93.163 155.5781
0.488833 93.144 155.4330
0.492375 93.126 155.2850
0.495943 93.108 155.1341
0.499537 93.089 154.9802
0.503157 93.071 154.8235
0.506803 93.052 154.6639
0.510475 93.033 154.5013
0.514175 93.014 154.3359
0.517900 92.995 154.1675
0.521653 92.975 153.9962
0.525434 92.956 153.8220
0.529241 92.936 153.6449
0.533076 92.917 153.4649
0.536939 92.897 153.2821
0.540830 92.877 153.0963
0.544749 92.857 152.9077
0.548696 92.836 152.7163
0.552673 92.816 152.5221
0.556677 92.795 152.3251
0.560711 92.774 152.1253
0.564774 92.754 151.9228
0.568867 92.732 151.7176
0.572989 92.711 151.5097
0.577141 92.690 151.2992
0.581324 92.668 151.0861
0.585536 92.647 150.8705
0.589779 92.625 150.6525
0.594053 92.603 150.4320
0.598358 92.581 150.2091
0.602694 92.558 149.9839
0.607061 92.536 149.7566
0.611460 92.513 149.5271
0.615891 92.490 149.2955
0.620354 92.467 149.0619
0.624849 92.444 148.8264
0.629377 92.421 148.5892
0.633938 92.398 148.3502
0.638532 92.374 148.1097
0.643159 92.350 147.8677
0.647819 92.326 147.6244
0.652514 92.302 147.3799
0.657242 92.278 147.1343
0.662005 92.253 146.8878
0.666802 92.228 146.6406
0.671634 92.204 146.3927
0.676501 92.179 146.1445
0.681403 92.153 145.8959
0.686341 92.128 145.6474
0.691314 92.102 145.3989
0.696324 92.076 145.1508
0.701370 92.050 144.9032
0.706452 92.023 144.6562
0.711571 91.996 144.4099
0.716728 91.968 144.1642
0.721921 91.939 143.9191
0.727153 91.909 143.6739
0.732422 91.877 143.4280
0.737729 91.842 143.1806
0.743075 91.805 142.9305
0.748460 91.767 142.6769
0.753883 91.727 142.4193
0.759346 91.687 142.1570
0.764849 91.645 141.8898
0.770391 91.603 141.6174
0.775974 91.561 141.3397
0.781597 91.518 141.0567
0.787261 91.474 140.7681
0.792966 91.430 140.4740
0.798712 91.385 140.1743
0.804500 91.339 139.8689
0.810329 91.293 139.5578
0.816201 91.247 139.2409
0.822116 91.199 138.9182
0.828073 91.151 138.5897
0.834074 91.103 138.2553
0.840118 91.053 137.9150
0.846206 91.003 137.5688
0.852338 90.952 137.2167
0.858514 90.900 136.8586
0.864735 90.847 136.4947
0.871001 90.794 136.1248
0.877313 90.739 135.7490
0.883670 90.683 135.3673
0.890074 90.626 134.9799
0.896524 90.569 134.5866
0.903020 90.510 134.1877
0.909564 90.449 133.7832
0.916155 90.388 133.3731
0.922794 90.326 132.9576
0.929481 90.262 132.5369
0.936216 90.196 132.1110
0.943000 90.130 131.6802
0.949834 90.061 131.2446
0.956717 89.992 130.8045
0.963649 89.920 130.3601
0.970632 89.847 129.9116
0.977666 89.773 129.4594
0.984750 89.696 129.0038
0.991886 89.618 128.5451
0.999074 89.538 128.0838
1.006314 89.456 127.6203
1.013606 89.372 127.1550
1.020951 89.286 126.6885
1.028349 89.197 126.2213
1.035801 89.107 125.7540
1.043307 89.014 125.2873
1.050867 88.918 124.8218
1.058482 88.820 124.3582
1.066152 88.720 123.8973
1.073878 88.617 123.4395
1.081660 88.512 122.9854
1.089498 88.404 122.5353
1.097393 88.294 122.0891
1.105345 88.182 121.6466
1.113355 88.068 121.2070
1.121423 87.953 120.7698
1.129549 87.836 120.3344
1.137734 87.717 119.9001
1.145979 87.597 119.4666
1.154283 87.475 119.0333
1.162647 87.352 118.5999
1.171072 87.227 118.1660
1.179558 87.099 117.7311
1.188106 86.970 117.2950
1.196715 86.839 116.8570
1.205387 86.705 116.4169
1.214122 86.568 115.9742
1.222920 86.429 115.5283
1.231782 86.287 115.0788
1.240708 86.142 114.6251
1.249699 85.993 114.1666
1.258754 85.841 113.7028
1.267876 85.686 113.2329
1.277063 85.526 112.7563
1.286318 85.362 112.2722
1.295639 85.194 111.7800
1.305027 85.021 111.2787
1.314484 84.844 110.7675
1.324009 84.661 110.2454
1.333604 84.473 109.7115
1.343268 84.279 109.1648
1.353002 84.080 108.6041
1.362806 83.874 108.0284
1.372681 83.662 107.4364
1.382628 83.443 106.8269
1.392647 83.216 106.1985
1.402739 82.983 105.5502
1.412904 82.741 104.8806
1.423142 82.490 104.1886
1.433455 82.230 103.4732
1.443843 81.959 102.7337
1.454305 81.676 101.9696
1.464844 81.377 101.1808
1.475459 81.061 100.3671
1.486150 80.725 99.5280
1.496920 80.367 98.6621
1.507767 79.986 97.7673
1.518693 79.581 96.8404
1.529698 79.153 95.8772
1.540783 78.704 94.8726
1.551948 78.233 93.8203
1.563194 77.744 92.7130
1.574521 77.238 91.5416
1.585931 76.717 90.2954
1.597423 76.184 88.9617
1.608999 75.641 87.5246
1.620658 75.090 85.9649
1.632402 74.535 84.2591
1.644232 73.978 82.3779
1.656146 73.423 80.2845
1.668147 72.873 77.9329
1.680235 72.331 75.2646
1.692411 71.802 72.2056
1.704675 71.290 68.6624
1.717028 70.799 64.5180
1.729470 70.333 59.6304
1.742003 69.899 53.8372
1.754626 69.501 46.9751
1.767341 69.146 38.9269
1.780147 68.839 29.7015
1.793047 68.586 19.5279
1.806040 68.395 8.8853
1.819128 68.269 -1.6070
1.832310 68.215 -11.3999
1.845587 68.234 -20.1714
1.858961 68.328 -27.8355
1.872432 68.495 -34.4586
1.886001 68.732 -40.1730
1.899667 69.035 -45.1221
1.913433 69.398 -49.4367
1.927299 69.817 -53.2267
1.941265 70.285 -56.5815
1.955332 70.794 -59.5726
1.969501 71.340 -62.2570
1.983773 71.915 -64.6802
1.998148 72.513 -66.8784
2.012627 73.127 -68.8809
2.027212 73.751 -70.7112
2.041902 74.377 -72.3884
2.056698 75.000 -73.9281
2.071602 75.612 -75.3431
2.086614 76.209 -76.6442
2.101734 76.783 -77.8403
2.116964 77.329 -78.9396
2.132304 77.843 -79.9496
2.147756 78.319 -80.8778
2.163320 78.756 -81.7330
2.178996 79.152 -82.5250
2.194786 79.510 -83.2655
2.210690 79.831 -83.9674
2.226710 80.119 -84.6427
2.242845 80.380 -85.3008
2.259098 80.616 -85.9478
2.275468 80.829 -86.5868
2.291957 81.021 -87.2189
2.308566 81.196 -87.8434
2.325295 81.353 -88.4590
2.342145 81.494 -89.0635
2.359117 81.622 -89.6545
2.376212 81.737 -90.2292
2.393431 81.841 -90.7846
2.410775 81.936 -91.3177
2.428244 82.024 -91.8251
2.445840 82.105 -92.3038
2.463564 82.183 -92.7503
2.481416 82.259 -93.1619
2.499397 82.334 -93.5358
2.517509 82.408 -93.8703
2.535752 82.483 -94.1650
2.554127 82.558 -94.4208
2.572635 82.632 -94.6403
2.591277 82.703 -94.8272
2.610055 82.769 -94.9852
2.628968 82.829 -95.1174
2.648019 82.883 -95.2255
2.667208 82.931 -95.3108
2.686535 82.973 -95.3736
2.706003 83.009 -95.4138
2.725612 83.041 -95.4310
2.745363 83.069 -95.4243
2.765257 83.094 -95.3931
2.785295 83.117 -95.3363
2.805478 83.140 -95.2529
2.825808 83.163 -95.1417
2.846285 83.188 -95.0014
2.866910 83.215 -94.8309
2.887685 83.244 -94.6285
2.908611 83.276 -94.3927
2.929688 83.311 -94.1217
2.950917 83.348 -93.8141
2.972301 83.387 -93.4691
2.993839 83.427 -93.0868
3.015534 83.467 -92.6688
3.037386 83.508 -92.2173
3.059396 83.551 -91.7358
3.081565 83.594 -91.2279
3.103896 83.640 -90.6979
3.126388 83.687 -90.1506
3.149043 83.738 -89.5908
3.171862 83.792 -89.0232
3.194847 83.850 -88.4525
3.217998 83.913 -87.8827
3.241317 83.981 -87.3169
3.264805 84.056 -86.7565
3.288463 84.137 -86.2015
3.312293 84.224 -85.6502
3.336295 84.318 -85.1007
3.360471 84.419 -84.5522
3.384822 84.525 -84.0058
3.409350 84.638 -83.4644
3.434056 84.755 -82.9324
3.458940 84.877 -82.4147
3.484005 85.002 -81.9170
3.509252 85.130 -81.4446
3.534681 85.259 -81.0029
3.560295 85.390 -80.5965
3.586094 85.522 -80.2295
3.612081 85.654 -79.9045
3.638255 85.786 -79.6230
3.664620 85.919 -79.3846
3.691175 86.052 -79.1877
3.717923 86.186 -79.0296
3.744864 86.320 -78.9079
3.772001 86.456 -78.8202
3.799335 86.592 -78.7646
3.826866 86.728 -78.7395
3.854597 86.864 -78.7438
3.882529 86.997 -78.7763
3.910664 87.129 -78.8363
3.939002 87.258 -78.9235
3.967546 87.383 -79.0377
3.996296 87.504 -79.1792
4.025255 87.622 -79.3487
4.054423 87.735 -79.5466
4.083804 87.844 -79.7728
4.113396 87.949 -80.0262
4.143204 88.051 -80.3048
4.173227 88.148 -80.6056
4.203468 88.242 -80.9252
4.233928 88.332 -81.2602
4.264609 88.418 -81.6072
4.295512 88.500 -81.9634
4.326639 88.577 -82.3268
4.357992 88.650 -82.6965
4.389572 88.718 -83.0729
4.421380 88.781 -83.4572
4.453419 88.839 -83.8506
4.485691 88.893 -84.2535
4.518196 88.941 -84.6648
4.550936 88.985 -85.0820
4.583914 89.024 -85.5019
4.617131 89.059 -85.9206
4.650589 89.090 -86.3341
4.684289 89.116 -86.7391
4.718233 89.138 -87.1331
4.752424 89.156 -87.5148
4.786862 89.169 -87.8844
4.821549 89.179 -88.2431
4.856488 89.186 -88.5917
4.891680 89.191 -88.9305
4.927127 89.195 -89.2587
4.962831 89.198 -89.5751
4.998794 89.200 -89.8779
5.035017 89.202 -90.1650
5.071503 89.203 -90.4347
5.108253 89.202 -90.6854
5.145270 89.201 -90.9161
5.182555 89.198 -91.1266
5.220110 89.194 -91.3176
5.257937 89.189 -91.4907
5.296038 89.184 -91.6478
5.334415 89.180 -91.7914
5.373071 89.177 -91.9238
5.412006 89.175 -92.0467
5.451224 89.176 -92.1616
5.490725 89.179 -92.2690
5.530514 89.186 -92.3690
5.570590 89.195 -92.4620
5.610957 89.207 -92.5497
5.651616 89.222 -92.6349
5.692570 89.239 -92.7214
5.733821 89.259 -92.8136
5.775370 89.282 -92.9157
5.817221 89.308 -93.0308
5.859375 89.337 -93.1613
5.901834 89.369 -93.3082
5.944602 89.404 -93.4720
5.987679 89.441 -93.6533
6.031068 89.481 -93.8535
6.074771 89.522 -94.0745
6.118792 89.565 -94.3183
6.163131 89.608 -94.5872
6.207792 89.652 -94.8828
6.252776 89.696 -95.2060
6.298086 89.741 -95.5568
6.343725 89.785 -95.9344
6.389694 89.830 -96.3370
6.435996 89.873 -96.7630
6.482634 89.916 -97.2107
6.529610 89.957 -97.6788
6.576926 89.996 -98.1665
6.624585 90.033 -98.6734
6.672590 90.068 -99.1988
6.720942 90.101 -99.7411
6.769645 90.132 -100.2977
6.818700 90.161 -100.8654
6.868111 90.188 -101.4409
6.917881 90.213 -102.0213
6.968010 90.235 -102.6049
7.018504 90.256 -103.1905
7.069362 90.274 -103.7771
7.120590 90.291 -104.3631
7.172189 90.306 -104.9463
7.224161 90.320 -105.5240
7.276511 90.333 -106.0937
7.329239 90.346 -106.6536
7.382350 90.358 -107.2027
7.435845 90.370 -107.7404
7.489729 90.383 -108.2670
7.544002 90.396 -108.7822
7.598669 90.411 -109.2860
7.653732 90.427 -109.7783
7.709194 90.444 -110.2588
7.765058 90.464 -110.7278
7.821327 90.487 -111.1861
7.878004 90.511 -111.6354
7.935091 90.539 -112.0776
7.992592 90.569 -112.5144
8.050510 90.602 -112.9476
8.108847 90.638 -113.3782
8.167607 90.677 -113.8072
8.226793 90.719 -114.2361
8.286408 90.764 -114.6663
8.346454 90.811 -115.0997
8.406936 90.860 -115.5377
8.467856 90.911 -115.9812
8.529218 90.964 -116.4305
8.591024 91.018 -116.8856
8.653278 91.073 -117.3461
8.715983 91.130 -117.8120
8.779143 91.186 -118.2829
8.842760 91.242 -118.7583
8.906839 91.299 -119.2373
8.971381 91.355 -119.7185
9.036392 91.411 -120.2003
9.101873 91.465 -120.6807
9.167829 91.519 -121.1585
9.234263 91.572 -121.6321
9.301178 91.624 -122.1002
9.368578 91.675 -122.5613
9.436467 91.724 -123.0136
9.504847 91.773 -123.4555
9.573723 91.821 -123.8861
9.643099 91.868 -124.3044
9.712976 91.915 -124.7101
9.783361 91.961 -125.1025
9.854255 92.007 -125.4814
9.925663 92.052 -125.8466
9.997588 92.097 -126.1985
10.070035 92.142 -126.5374
10.143007 92.187 -126.8641
10.216507 92.233 -127.1794
10.290540 92.278 -127.4843
10.365109 92.323 -127.7795
10.440219 92.369 -128.0659
10.515873 92.414 -128.3446
10.592076 92.460 -128.6165
10.668830 92.505 -128.8825
10.746141 92.549 -129.1432
10.824012 92.593 -129.3991
10.902447 92.637 -129.6507
10.981451 92.679 -129.8983
11.061027 92.721 -130.1423
11.141180 92.762 -130.3826
11.221913 92.801 -130.6193
11.303232 92.840 -130.8524
11.385140 92.877 -131.0818
11.467641 92.913 -131.3076
11.550741 92.948 -131.5299
11.634442 92.981 -131.7487
11.718750 93.013 -131.9643
11.803669 93.044 -132.1769
11.889203 93.074 -132.3869
11.975357 93.102 -132.5949
12.062136 93.130 -132.8014
12.149543 93.156 -133.0070
12.237583 93.181 -133.2124
12.326262 93.205 -133.4181
12.415583 93.227 -133.6247
12.505552 93.248 -133.8328
12.596172 93.268 -134.0427
12.687449 93.287 -134.2547
12.779387 93.304 -134.4690
12.871992 93.319 -134.6856
12.965268 93.333 -134.9046
13.059220 93.346 -135.1258
13.153852 93.357 -135.3491
13.249170 93.367 -135.5744
13.345179 93.376 -135.8016
13.441884 93.383 -136.0308
13.539289 93.390 -136.2622
13.637401 93.396 -136.4960
13.736223 93.401 -136.7327
13.835761 93.406 -136.9730
13.936021 93.411 -137.2176
14.037007 93.415 -137.4675
14.138725 93.419 -137.7235
14.241180 93.424 -137.9866
14.344377 93.428 -138.2577
14.448323 93.432 -138.5374
14.553021 93.436 -138.8261
14.658478 93.440 -139.1242
14.764700 93.444 -139.4315
14.871691 93.448 -139.7477
14.979457 93.451 -140.0720
15.088005 93.454 -140.4037
15.197339 93.457 -140.7417
15.307465 93.460 -141.0848
15.418389 93.463 -141.4317
15.530117 93.465 -141.7814
15.642655 93.469 -142.1329
15.756008 93.472 -142.4853
15.870182 93.477 -142.8381
15.985184 93.482 -143.1909
16.101019 93.488 -143.5437
16.217694 93.496 -143.8966
16.335214 93.505 -144.2498
16.453586 93.516 -144.6036
16.572815 93.527 -144.9581
16.692909 93.541 -145.3134
16.813872 93.555 -145.6694
16.935713 93.570 -146.0256
17.058436 93.586 -146.3813
17.182048 93.602 -146.7355
17.306556 93.620 -147.0870
17.431967 93.637 -147.4346
17.558286 93.655 -147.7767
17.685521 93.673 -148.1121
17.813677 93.691 -148.4396
17.942762 93.710 -148.7583
18.072783 93.729 -149.0674
18.203746 93.749 -149.3666
18.335658 93.768 -149.6558
18.468526 93.788 -149.9353
18.602356 93.809 -150.2055
18.737156 93.830 -150.4670
18.872934 93.851 -150.7203
19.009695 93.871 -150.9662
19.147447 93.892 -151.2052
19.286197 93.912 -151.4378
19.425953 93.932 -151.6645
19.566721 93.952 -151.8857
19.708510 93.970 -152.1017
19.851326 93.987 -152.3128
19.995177 94.004 -152.5194
20.140070 94.019 -152.7218
20.286013 94.033 -152.9205
20.433014 94.046 -153.1159
20.581080 94.057 -153.3084
20.730219 94.067 -153.4985
20.880439 94.075 -153.6865
21.031747 94.082 -153.8729
21.184152 94.088 -154.0580
21.337661 94.092 -154.2423
21.492282 94.095 -154.4262
21.648024 94.097 -154.6105
21.804895 94.098 -154.7957
21.962902 94.098 -154.9828
22.122054 94.097 -155.1728
22.282360 94.096 -155.3667
22.443827 94.094 -155.5655
22.606464 94.091 -155.7701
22.770280 94.088 -155.9811
22.935283 94.085 -156.1989
23.101481 94.081 -156.4237
23.268884 94.077 -156.6552
23.437500 94.072 -156.8931
23.607338 94.068 -157.1367
23.778406 94.064 -157.3856
23.950714 94.060 -157.6391
24.124271 94.056 -157.8967
24.299086 94.053 -158.1580
24.475167 94.050 -158.4227
24.652524 94.048 -158.6902
24.831166 94.048 -158.9603
25.011103 94.047 -159.2323
25.192344 94.048 -159.5053
25.374898 94.050 -159.7785
25.558775 94.052 -160.0509
25.743984 94.056 -160.3214
25.930536 94.060 -160.5889
26.118439 94.065 -160.8526
26.307704 94.070 -161.1117
26.498341 94.076 -161.3656
26.690359 94.083 -161.6140
26.883768 94.090 -161.8564
27.078579 94.098 -162.0925
27.274801 94.106 -162.3221
27.472446 94.114 -162.5449
27.671522 94.121 -162.7606
27.872042 94.129 -162.9693
28.074014 94.136 -163.1708
28.277450 94.142 -163.3655
28.482360 94.149 -163.5539
28.688755 94.154 -163.7367
28.896645 94.159 -163.9145
29.106042 94.163 -164.0883
29.316957 94.167 -164.2590
29.529400 94.169 -164.4275
29.743382 94.171 -164.5946
29.958915 94.172 -164.7614
30.176009 94.172 -164.9286
30.394677 94.171 -165.0974
30.614929 94.170 -165.2685
30.836778 94.168 -165.4429
31.060234 94.165 -165.6213
31.285309 94.162 -165.8046
31.512015 94.158 -165.9931
31.740364 94.154 -166.1873
31.970368 94.149 -166.3871
32.202039 94.144 -166.5925
32.435388 94.139 -166.8029
32.670428 94.134 -167.0178
32.907171 94.128 -167.2362
33.145630 94.123 -167.4571
33.385817 94.118 -167.6795
33.627745 94.113 -167.9024
33.871425 94.108 -168.1250
34.116871 94.104 -168.3468
34.364096 94.101 -168.5671
34.613113 94.098 -168.7858
34.863934 94.095 -169.0023
35.116572 94.093 -169.2161
35.371041 94.091 -169.4265
35.627354 94.089 -169.6329
35.885525 94.088 -169.8347
36.145566 94.086 -170.0315
36.407492 94.084 -170.2233
36.671316 94.083 -170.4103
36.937051 94.081 -170.5932
37.204712 94.079 -170.7724
37.474313 94.076 -170.9486
37.745867 94.073 -171.1224
38.019389 94.070 -171.2945
38.294893 94.066 -171.4654
38.572394 94.061 -171.6358
38.851905 94.056 -171.8062
39.133442 94.050 -171.9769
39.417019 94.043 -172.1481
39.702651 94.036 -172.3199
39.990353 94.029 -172.4921
40.280140 94.021 -172.6647
40.572026 94.012 -172.8375
40.866028 94.004 -173.0107
41.162160 93.996 -173.1844
41.460438 93.988 -173.3588
41.760877 93.980 -173.5342
42.063494 93.972 -173.7104
42.368303 93.965 -173.8875
42.675322 93.958 -174.0650
42.984565 93.951 -174.2425
43.296048 93.944 -174.4195
43.609789 93.937 -174.5952
43.925804 93.930 -174.7693
44.244108 93.923 -174.9413
44.564719 93.916 -175.1112
44.887654 93.909 -175.2790
45.212928 93.901 -175.4447
45.540560 93.893 -175.6083
45.870565 93.885 -175.7697
46.202962 93.877 -175.9288
46.537768 93.868 -176.0858
46.875000 93.859 -176.2414
47.214676 93.850 -176.3963
47.556813 93.840 -176.5513
47.901429 93.831 -176.7067
48.248542 93.821 -176.8621
48.598171 93.810 -177.0163
48.950334 93.800 -177.1675
49.305048 93.789 -177.3146
49.662333 93.779 -177.4574
50.022206 93.769 -177.5971
50.384688 93.760 -177.7360
50.749796 93.752 -177.8764
51.117550 93.744 -178.0197
51.487969 93.735 -178.1659
51.861072 93.727 -178.3131
52.236879 93.718 -178.4591
52.615409 93.708 -178.6015
52.996681 93.697 -178.7389
53.380717 93.687 -178.8712
53.767536 93.677 -178.9997
54.157158 93.668 -179.1260
54.549603 93.658 -179.2520
54.944892 93.649 -179.3789
55.343045 93.641 -179.5074
55.744084 93.632 -179.6380
56.148028 93.624 -179.7712
56.554900 93.616 -179.9077
56.964720 93.608 179.9521
57.377510 93.600 179.8087
57.793291 93.592 179.6631
58.212085 93.583 179.5171
58.633914 93.575 179.3715
59.058799 93.566 179.2262
59.486764 93.557 179.0801
59.917829 93.547 178.9326
60.352019 93.537 178.7837
60.789354 93.527 178.6348
61.229859 93.515 178.4872
61.673556 93.503 178.3420
62.120468 93.490 178.1995
62.570618 93.477 178.0591
63.024031 93.463 177.9202
63.480729 93.450 177.7820
63.940736 93.436 177.6440
64.404077 93.422 177.5056
64.870776 93.409 177.3671
65.340856 93.395 177.2294
65.814343 93.381 177.0939
66.291261 93.367 176.9612
66.771635 93.353 176.8316
67.255489 93.339 176.7050
67.742850 93.325 176.5811
68.233743 93.311 176.4595
68.728193 93.297 176.3401
69.226226 93.282 176.2229
69.727867 93.267 176.1078
70.233144 93.252 175.9948
70.742083 93.236 175.8833
71.254709 93.221 175.7727
71.771050 93.205 175.6622
72.291132 93.189 175.5514
72.814984 93.173 175.4405
73.342631 93.157 175.3304
73.874102 93.142 175.2223
74.409424 93.126 175.1166
74.948626 93.112 175.0122
75.491734 93.098 174.9072
76.038779 93.085 174.7998
76.589787 93.073 174.6900
77.144788 93.060 174.5789
77.703811 93.048 174.4669
78.266885 93.035 174.3538
78.834039 93.023 174.2386
79.405303 93.011 174.1204
79.980706 92.998 173.9979
80.560280 92.986 173.8698
81.144053 92.973 173.7351
81.732056 92.959 173.5934
82.324320 92.944 173.4452
82.920876 92.927 173.2925
83.521755 92.909 173.1382
84.126988 92.888 172.9863
84.736607 92.866 172.8403
85.350643 92.842 172.7031
85.969129 92.817 172.5764
86.592097 92.792 172.4602
87.219579 92.766 172.3541
87.851608 92.741 172.2567
88.488217 92.716 172.1666
89.129439 92.691 172.0827
89.775308 92.666 172.0038
90.425856 92.642 171.9287
91.081119 92.619 171.8560
91.741131 92.596 171.7847
92.405925 92.574 171.7139
93.075536 92.551 171.6433
93.750000 92.529 171.5731
94.429351 92.507 171.5037
95.113625 92.484 171.4355
95.802858 92.461 171.3690
96.497085 92.437 171.3044
97.196342 92.413 171.2418
97.900667 92.389 171.1808
98.610096 92.364 171.1214
99.324665 92.339 171.0641
100.044413 92.314 171.0101
100.769376 92.289 170.9612
101.499592 92.264 170.9196
102.235100 92.241 170.8862
102.975938 92.218 170.8593
103.722144 92.196 170.8355
104.473757 92.174 170.8129
105.230817 92.152 170.7919
105.993363 92.128 170.7740
106.761435 92.105 170.7591
107.535072 92.081 170.7448
108.314315 92.057 170.7282
109.099206 92.034 170.7072
109.889783 92.012 170.6817
110.686090 91.991 170.6529
111.488167 91.970 170.6238
112.296056 91.949 170.5991
113.109800 91.926 170.5849
113.929440 91.900 170.5884
114.755020 91.871 170.6170
115.586582 91.837 170.6779
116.424170 91.801 170.7770
117.267827 91.763 170.9139
118.117598 91.729 171.0771
118.973527 91.703 171.2419
119.835658 91.687 171.3683
120.704037 91.679 171.4163
121.578708 91.677 171.3759
122.459718 91.674 171.2733
123.347111 91.670 171.1459
124.240935 91.664 171.0227
125.141236 91.658 170.9194
126.048061 91.650 170.8399
126.961458 91.642 170.7805
127.881473 91.632 170.7339
128.808154 91.620 170.6927
129.741551 91.605 170.6505
130.681712 91.589 170.6032
131.628686 91.571 170.5503
132.582521 91.551 170.4935
133.543269 91.531 170.4357
134.510979 91.510 170.3802
135.485701 91.488 170.3297
136.467486 91.466 170.2856
137.456386 91.442 170.2480
138.452451 91.417 170.2155
139.455735 91.392 170.1866
140.466288 91.366 170.1608
141.484165 91.341 170.1379
142.509418 91.314 170.1184
143.542100 91.288 170.1027
144.582265 91.262 170.0911
145.629968 91.235 170.0841
146.685262 91.207 170.0818
147.748204 91.179 170.0843
148.818849 91.151 170.0920
149.897251 91.122 170.1071
150.983469 91.093 170.1325
152.077557 91.063 170.1718
153.179574 91.034 170.2267
154.289576 91.006 170.2967
155.407622 90.979 170.3779
156.533770 90.954 170.4641
157.668078 90.932 170.5483
158.810606 90.911 170.6254
159.961413 90.891 170.6926
161.120559 90.872 170.7501
162.288105 90.853 170.7996
163.464112 90.834 170.8443
164.648640 90.813 170.8871
165.841752 90.791 170.9314
167.043510 90.768 170.9806
168.253976 90.744 171.0387
169.473213 90.721 171.1094
170.701286 90.698 171.1942
171.938258 90.676 171.2916
173.184194 90.656 171.3962
174.439158 90.638 171.5005
175.703216 90.621 171.5963
176.976434 90.606 171.6761
178.258878 90.591 171.7387
179.550615 90.575 171.7906
180.851713 90.559 171.8431
182.162239 90.543 171.9034
183.482262 90.528 171.9702
184.811850 90.512 172.0370
186.151073 90.497 172.0978
187.500000 90.482 172.1493
188.858702 90.465 172.1907
190.227250 90.448 172.2242
191.605715 90.430 172.2535
192.994169 90.411 172.2820
194.392685 90.391 172.3127
195.801334 90.369 172.3472
197.220191 90.347 172.3867
198.649330 90.324 172.4326
200.088825 90.301 172.4863
201.538751 90.279 172.5485
202.999184 90.257 172.6187
204.470200 90.236 172.6943
205.951875 90.216 172.7712
207.444287 90.197 172.8452
208.947514 90.177 172.9142
210.461634 90.156 172.9789
211.986726 90.133 173.0425
213.522869 90.109 173.1098
215.070144 90.084 173.1862
216.628631 90.058 173.2758
218.198411 90.032 173.3799
219.779567 90.008 173.4960
221.372180 89.985 173.6189
222.976334 89.965 173.7427
224.592112 89.945 173.8633
226.219600 89.926 173.9784
227.858880 89.907 174.0878
229.510039 89.888 174.1922
231.173164 89.869 174.2934
232.848340 89.850 174.3930
234.535655 89.830 174.4921
236.235197 89.810 174.5909
237.947054 89.790 174.6892
239.671317 89.770 174.7869
241.408074 89.748 174.8852
243.157416 89.726 174.9861
244.919435 89.703 175.0923
246.694223 89.679 175.2064
248.481871 89.655 175.3311
250.282473 89.631 175.4693
252.096123 89.607 175.6228
253.922915 89.585 175.7905
255.762945 89.566 175.9670
257.616309 89.550 176.1426
259.483103 89.536 176.3071
261.363424 89.522 176.4551
263.257372 89.509 176.5879
265.165043 89.493 176.7124
267.086538 89.477 176.8373
269.021957 89.458 176.9696
270.971401 89.439 177.1131
272.934972 89.420 177.2679
274.912771 89.402 177.4316
276.904902 89.385 177.6013
278.911469 89.369 177.7748
280.932577 89.356 177.9503
282.968330 89.344 178.1247
285.018835 89.335 178.2928
287.084199 89.327 178.4473
289.164530 89.320 178.5822
291.259935 89.312 178.6960
293.370525 89.302 178.7938
295.496408 89.290 178.8851
297.637697 89.274 178.9796
299.794503 89.256 179.0839
301.966937 89.237 179.2007
304.155114 89.218 179.3295
306.359147 89.199 179.4669
308.579152 89.181 179.6087
310.815244 89.163 179.7513
313.067539 89.144 179.8928
315.336156 89.126 -179.9653
317.621211 89.106 -179.8188
319.922826 89.086 -179.6633
322.241118 89.066 -179.4962
324.576210 89.047 -179.3186
326.928223 89.028 -179.1336
329.297280 89.011 -178.9447
331.683504 88.996 -178.7551
334.087019 88.981 -178.5674
336.507952 88.967 -178.3839
338.946427 88.953 -178.2054
341.402572 88.939 -178.0308
343.876516 88.924 -177.8575
346.368387 88.908 -177.6825
348.878315 88.893 -177.5040
351.406431 88.877 -177.3213
353.952867 88.862 -177.1346
356.517756 88.847 -176.9448
359.101230 88.832 -176.7525
361.703426 88.817 -176.5586
364.324478 88.802 -176.3636
366.964523 88.787 -176.1675
369.623699 88.773 -175.9700
372.302145 88.758 -175.7703
375.000000 88.744 -175.5679
377.717405 88.730 -175.3628
380.454501 88.717 -175.1548
383.211431 88.703 -174.9443
385.988339 88.690 -174.7314
388.785369 88.678 -174.5165
391.602668 88.665 -174.2996
394.440383 88.653 -174.0808
397.298660 88.642 -173.8604
400.177650 88.631 -173.6392
403.077502 88.620 -173.4189
405.998368 88.610 -173.2007
408.940400 88.599 -172.9850
411.903750 88.589 -172.7700
414.888575 88.577 -172.5522
417.895028 88.565 -172.3277
420.923268 88.553 -172.0941
423.973452 88.542 -171.8509
427.045738 88.532 -171.6001
430.140287 88.523 -171.3459
433.257261 88.516 -171.0931
436.396822 88.510 -170.8447
439.559133 88.505 -170.6007
442.744360 88.502 -170.3605
445.952668 88.500 -170.1257
449.184225 88.499 -169.9008
452.439199 88.498 -169.6917
455.717760 88.497 -169.5018
459.020079 88.493 -169.3276
462.346327 88.486 -169.1589
465.696680 88.476 -168.9841
469.071310 88.464 -168.7957
472.470394 88.451 -168.5921
475.894109 88.438 -168.3756
479.342634 88.426 -168.1515
482.816148 88.415 -167.9257
486.314833 88.403 -167.7001
489.838871 88.390 -167.4707
493.388445 88.376 -167.2298
496.963741 88.363 -166.9732
500.564945 88.351 -166.7042
504.192245 88.341 -166.4303
507.845830 88.332 -166.1586
511.525890 88.324 -165.8925
515.232618 88.316 -165.6311
518.966206 88.307 -165.3709
522.726849 88.297 -165.1069
526.514743 88.287 -164.8345
530.330086 88.277 -164.5517
534.173076 88.268 -164.2612
538.043915 88.260 -163.9676
541.942803 88.253 -163.6737
545.869944 88.247 -163.3786
549.825542 88.241 -163.0813
553.809805 88.236 -162.7835
557.822939 88.232 -162.4878
561.865154 88.228 -162.1961
565.936660 88.224 -161.9078
570.037671 88.220 -161.6197
574.168399 88.215 -161.3284
578.329060 88.209 -161.0322
582.519870 88.203 -160.7317
586.741049 88.197 -160.4270
590.992817 88.192 -160.1157
595.275394 88.186 -159.7952
599.589005 88.181 -159.4667
603.933874 88.177 -159.1347
608.310228 88.174 -158.8034
612.718295 88.171 -158.4740
617.158304 88.167 -158.1439
621.630488 88.163 -157.8067
626.135079 88.159 -157.4560
630.672311 88.156 -157.0893
635.242423 88.154 -156.7107
639.845651 88.155 -156.3263
644.482237 88.158 -155.9387
649.152421 88.162 -155.5470
653.856447 88.169 -155.1529
658.594560 88.179 -154.7632
663.367008 88.191 -154.3885
668.174039 88.204 -154.0368
673.015903 88.217 -153.7079
677.892854 88.228 -153.3937
682.805145 88.236 -153.0846
687.753032 88.242 -152.7734
692.736774 88.246 -152.4541
697.756631 88.249 -152.1221
702.812863 88.252 -151.7752
707.905735 88.255 -151.4153
713.035511 88.259 -151.0464
718.202461 88.264 -150.6720
723.406852 88.270 -150.2930
728.648956 88.276 -149.9088
733.929047 88.282 -149.5180
739.247399 88.288 -149.1195
744.604290 88.296 -148.7126
750.000000 88.304 -148.2970
755.434809 88.313 -147.8724
760.909001 88.323 -147.4393
766.422861 88.335 -146.9983
771.976677 88.348 -146.5502
777.570739 88.363 -146.0965
783.205337 88.379 -145.6382
788.880766 88.397 -145.1747
794.597321 88.417 -144.7038
800.355301 88.439 -144.2234
806.155005 88.464 -143.7356
811.996736 88.494 -143.2468
817.880799 88.527 -142.7663
823.807501 88.564 -142.3036
829.777150 88.603 -141.8670
835.790057 88.642 -141.4585
841.846536 88.680 -141.0714
847.946903 88.716 -140.6950
854.091476 88.751 -140.3207
860.280575 88.784 -139.9443
866.514523 88.817 -139.5627
872.793644 88.850 -139.1730
879.118267 88.884 -138.7758
885.488720 88.919 -138.3751
891.905336 88.956 -137.9744
898.368450 88.993 -137.5736
904.878398 89.032 -137.1703
911.435520 89.071 -136.7635
918.040157 89.112 -136.3550
924.692655 89.155 -135.9481
931.393359 89.200 -135.5466
938.142619 89.246 -135.1542
944.940787 89.293 -134.7722
951.788218 89.341 -134.3987
958.685268 89.389 -134.0305
965.632296 89.437 -133.6648
972.629666 89.485 -133.2992
979.677741 89.534 -132.9336
986.776890 89.583 -132.5691
993.927482 89.633 -132.2054
1001.129891 89.684 -131.8387
1008.384491 89.736 -131.4655
1015.691660 89.791 -131.0861
1023.051781 89.849 -130.7048
1030.465236 89.911 -130.3290
1037.932411 89.977 -129.9702
1045.453698 90.046 -129.6405
1053.029486 90.116 -129.3453
1060.660172 90.185 -129.0807
1068.346153 90.252 -128.8381
1076.087829 90.318 -128.6085
1083.885605 90.381 -128.3858
1091.739887 90.443 -128.1680
1099.651084 90.505 -127.9550
1107.619609 90.565 -127.7464
1115.645878 90.625 -127.5408
1123.730308 90.684 -127.3369
1131.873321 90.743 -127.1333
1140.075341 90.801 -126.9293
1148.336797 90.859 -126.7247
1156.658119 90.918 -126.5190
1165.039741 90.976 -126.3110
1173.482099 91.036 -126.0991
1181.985634 91.097 -125.8836
1190.550789 91.161 -125.6704
1199.178011 91.228 -125.4708
1207.867749 91.297 -125.2966
1216.620457 91.366 -125.1539
1225.436590 91.433 -125.0391
1234.316609 91.497 -124.9435
1243.260976 91.558 -124.8579
1252.270157 91.617 -124.7746
1261.344623 91.673 -124.6895
1270.484846 91.728 -124.6012
1279.691303 91.781 -124.5086
1288.964474 91.834 -124.4098
1298.304842 91.886 -124.3053
1307.712894 91.938 -124.1975
1317.189120 91.991 -124.0901
1326.734016 92.043 -123.9852
1336.348077 92.094 -123.8823
1346.031806 92.145 -123.7787
1355.785708 92.194 -123.6709
1365.610290 92.243 -123.5552
1375.506065 92.291 -123.4271
1385.473549 92.339 -123.2818
1395.513261 92.388 -123.1182
1405.625726 92.441 -122.9416
1415.811469 92.498 -122.7640
1426.071023 92.558 -122.5999
1436.404921 92.621 -122.4587
1446.813703 92.683 -122.3410
1457.297912 92.745 -122.2413
1467.858093 92.805 -122.1536
1478.494798 92.864 -122.0732
1489.208581 92.922 -121.9963
1500.000000 92.978 -121.9187
1510.869618 93.034 -121.8368
1521.818002 93.088 -121.7470
1532.845723 93.143 -121.6467
1543.953355 93.198 -121.5333
1555.141477 93.254 -121.4058
1566.410674 93.314 -121.2675
1577.761531 93.378 -121.1286
1589.194642 93.445 -121.0026
1600.710601 93.515 -120.8992
1612.310010 93.586 -120.8201
1623.993473 93.656 -120.7621
1635.761599 93.727 -120.7205
1647.615002 93.797 -120.6925
1659.554299 93.866 -120.6766
1671.580114 93.936 -120.6718
1683.693072 94.004 -120.6787
1695.893807 94.073 -120.6987
1708.182952 94.139 -120.7325
1720.561150 94.204 -120.7774
1733.029045 94.267 -120.8277
1745.587288 94.327 -120.8756
1758.236533 94.386 -120.9124
1770.977440 94.444 -120.9315
1783.810673 94.504 -120.9328
1796.736900 94.567 -120.9252
1809.756796 94.633 -120.9229
1822.871040 94.702 -120.9370
1836.080315 94.771 -120.9719
1849.385310 94.841 -121.0267
1862.786718 94.910 -121.0986
1876.285239 94.978 -121.1832
1889.881575 95.045 -121.2754
1903.576436 95.111 -121.3695
1917.370535 95.176 -121.4604
1931.264593 95.242 -121.5452
1945.259332 95.310 -121.6252
1959.355483 95.382 -121.7097
1973.553781 95.457 -121.8122
1987.854965 95.533 -121.9436
2002.259781 95.611 -122.1082
2016.768981 95.688 -122.3043
2031.383320 95.763 -122.5278
2046.103561 95.836 -122.7742
2060.930471 95.908 -123.0396
2075.864823 95.977 -123.3228
2090.907395 96.045 -123.6233
2106.058972 96.110 -123.9392
2121.320344 96.171 -124.2653
2136.692305 96.230 -124.5939
2152.175658 96.287 -124.9170
2167.771210 96.343 -125.2322
2183.479774 96.401 -125.5456
2199.302169 96.460 -125.8684
2215.239219 96.519 -126.2100
2231.291755 96.579 -126.5749
2247.460615 96.636 -126.9635
2263.746641 96.691 -127.3725
2280.150683 96.744 -127.7957
2296.673595 96.793 -128.2253
2313.316238 96.841 -128.6547
2330.079481 96.889 -129.0824
2346.964198 96.937 -129.5152
2363.971268 96.986 -129.9647
2381.101578 97.035 -130.4404
2398.356022 97.083 -130.9468
2415.735498 97.129 -131.4832
2433.240913 97.171 -132.0464
2450.873180 97.209 -132.6323
2468.633217 97.243 -133.2378
2486.521951 97.272 -133.8590
2504.540314 97.296 -134.4894
2522.689246 97.314 -135.1190
2540.969692 97.328 -135.7378
2559.382606 97.338 -136.3417
2577.928947 97.348 -136.9348
2596.609683 97.355 -137.5245
2615.425787 97.361 -138.1166
2634.378241 97.364 -138.7133
2653.468031 97.364 -139.3119
2672.696154 97.359 -139.9052
2692.063613 97.351 -140.4838
2711.571415 97.340 -141.0404
2731.220579 97.328 -141.5751
2751.012130 97.317 -142.0950
2770.947098 97.305 -142.6080
2791.026522 97.293 -143.1197
2811.251451 97.280 -143.6318
2831.622938 97.266 -144.1439
2852.142045 97.249 -144.6551
2872.809842 97.231 -145.1639
2893.627406 97.209 -145.6657
2914.595823 97.185 -146.1525
2935.716186 97.160 -146.6178
2956.989596 97.134 -147.0617
2978.417161 97.110 -147.4904
3000.000000 97.085 -147.9114
3021.739237 97.061 -148.3296
3043.636005 97.036 -148.7450
3065.691446 97.010 -149.1526
3087.906710 96.983 -149.5449
3110.282955 96.957 -149.9189
3132.821347 96.933 -150.2796
3155.523062 96.912 -150.6372
3178.389283 96.893 -151.0027
3201.421202 96.876 -151.3844
3224.620020 96.858 -151.7872
3247.986946 96.840 -152.2125
3271.523198 96.819 -152.6565
3295.230004 96.794 -153.1086
3319.108599 96.765 -153.5552
3343.160228 96.734 -153.9865
3367.386145 96.701 -154.3995
3391.787613 96.668 -154.7961
3416.365904 96.634 -155.1794
3441.122300 96.600 -155.5498
3466.058091 96.567 -155.9042
3491.174576 96.536 -156.2405
3516.473066 96.507 -156.5639
3541.954880 96.484 -156.8871
3567.621345 96.465 -157.2269
3593.473800 96.449 -157.5999
3619.513592 96.436 -158.0209
3645.742080 96.422 -158.4994
3672.160630 96.405 -159.0358
3698.770620 96.380 -159.6195
3725.573436 96.347 -160.2349
3752.570477 96.304 -160.8649
3779.763150 96.251 -161.4923
3807.152872 96.187 -162.0970
3834.741071 96.112 -162.6537
3862.529185 96.029 -163.1351
3890.518664 95.942 -163.5202
3918.710966 95.855 -163.8034
3947.107561 95.774 -163.9959
3975.709929 95.702 -164.1221
4004.519563 95.643 -164.2151
4033.537962 95.594 -164.3087
4062.766641 95.556 -164.4295
4092.207123 95.524 -164.5922
4121.860942 95.497 -164.8045
4151.729646 95.473 -165.0711
4181.814790 95.449 -165.3945
4212.117944 95.423 -165.7716
4242.640687 95.392 -166.1908
4273.384610 95.356 -166.6359
4304.351317 95.315 -167.0934
4335.542421 95.271 -167.5562
4366.959549 95.224 -168.0239
4398.604338 95.174 -168.5010
4430.478438 95.121 -168.9931
4462.583511 95.064 -169.5006
4494.921231 95.002 -170.0185
4527.493283 94.934 -170.5413
4560.301365 94.862 -171.0663
4593.347189 94.783 -171.5910
4626.632476 94.698 -172.1081
4660.158962 94.606 -172.6051
4693.928395 94.508 -173.0704
4727.942535 94.405 -173.4973
4762.203156 94.300 -173.8862
4796.712043 94.193 -174.2437
4831.470996 94.084 -174.5781
4866.481826 93.974 -174.8933
4901.746360 93.862 -175.1894
4937.266434 93.747 -175.4672
4973.043902 93.630 -175.7290
5009.080628 93.508 -175.9738
5045.378492 93.383 -176.1935
5081.939384 93.253 -176.3765
5118.765212 93.120 -176.5132
5155.857894 92.985 -176.5997
5193.219366 92.849 -176.6401
5230.851574 92.715 -176.6413
5268.756481 92.580 -176.6083
5306.936062 92.447 -176.5442
5345.392309 92.314 -176.4533
5384.127225 92.181 -176.3396
5423.142830 92.047 -176.2012
5462.441159 91.912 -176.0296
5502.024259 91.775 -175.8143
5541.894195 91.638 -175.5477
5582.053045 91.503 -175.2293
5622.502902 91.371 -174.8640
5663.245876 91.242 -174.4569
5704.284090 91.116 -174.0132
5745.619684 90.995 -173.5397
5787.254813 90.877 -173.0419
5829.191647 90.762 -172.5195
5871.432373 90.649 -171.9656
5913.979192 90.538 -171.3702
5956.834323 90.430 -170.7266
6000.000000 90.328 -170.0346
6043.478473 90.233 -169.2983
6087.272010 90.146 -168.5249
6131.382892 90.067 -167.7248
6175.813420 89.998 -166.9102
6220.565910 89.937 -166.0889
6265.642695 89.883 -165.2619
6311.046124 89.836 -164.4254
6356.778566 89.797 -163.5760
6402.842404 89.765 -162.7135
6449.240040 89.743 -161.8406
6495.973891 89.731 -160.9629
6543.046396 89.729 -160.0899
6590.460007 89.737 -159.2314
6638.217197 89.755 -158.3928
6686.320456 89.782 -157.5742
6734.772290 89.818 -156.7731
6783.575226 89.864 -155.9892
6832.731809 89.921 -155.2252
6882.244600 89.990 -154.4878
6932.116181 90.072 -153.7887
6982.349153 90.167 -153.1415
7032.946133 90.274 -152.5576
7083.909760 90.394 -152.0439
7135.242690 90.526 -151.6064
7186.947600 90.670 -151.2533
7239.027185 90.826 -150.9966
7291.484160 90.996 -150.8539
7344.321260 91.179 -150.8489
7397.541239 91.372 -151.0065
7451.146872 91.573 -151.3471
7505.140954 91.779 -151.8858
7559.526299 91.986 -152.6344
7614.305743 92.192 -153.6034
7669.482141 92.392 -154.8028
7725.058371 92.582 -156.2434
7781.037328 92.757 -157.9327
7837.421932 92.909 -159.8675
7894.215122 93.030 -162.0302
7951.419859 93.115 -164.3897
8009.039125 93.159 -166.9051
8067.075924 93.159 -169.5292
8125.533282 93.112 -172.2144
8184.414245 93.018 -174.9150
8243.721885 92.877 -177.5839
8303.459292 92.690 179.8279
8363.629581 92.458 177.3690
8424.235888 92.185 175.0842
8485.281374 91.878 173.0082
8546.769221 91.542 171.1609
8608.702634 91.185 169.5485
8671.084842 90.811 168.1703
8733.919097 90.424 167.0240
8797.208675 90.029 166.1087
8860.956876 89.627 165.4247
8925.167022 89.225 164.9675
8989.842461 88.826 164.7250
9054.986566 88.433 164.6796
9120.602731 88.049 164.8138
9186.694378 87.675 165.1141
9253.264952 87.312 165.5728
9320.317925 86.962 166.1827
9387.856790 86.628 166.9316
9455.885071 86.310 167.8021
9524.406312 86.010 168.7761
9593.424086 85.728 169.8398
9662.941992 85.464 170.9866
9732.963653 85.218 172.2119
9803.492719 84.992 173.5068
9874.532869 84.785 174.8576
9946.087805 84.599 176.2491
10018.161257 84.433 177.6721
10090.756983 84.285 179.1249
10163.878768 84.157 -179.3928
10237.530423 84.050 -177.8862
10311.715789 83.963 -176.3658
10386.438732 83.898 -174.8421
10461.703149 83.853 -173.3198
10537.512962 83.830 -171.7993
10613.872125 83.829 -170.2846
10690.784618 83.853 -168.7873
10768.254450 83.903 -167.3234
10846.285661 83.978 -165.9062
10924.882318 84.079 -164.5451
11004.048518 84.209 -163.2520
11083.788390 84.369 -162.0467
11164.106090 84.560 -160.9570
11245.005805 84.782 -160.0121
11326.491752 85.036 -159.2401
11408.568180 85.322 -158.6732
11491.239368 85.640 -158.3526
11574.509626 85.988 -158.3287
11658.383294 86.362 -158.6530
11742.864745 86.757 -159.3741
11827.958384 87.164 -160.5386
11913.668646 87.575 -162.1924
12000.000000 87.977 -164.3753
12086.956947 88.354 -167.1102
12174.544019 88.690 -170.3955
12262.765784 88.967 -174.2029
12351.626840 89.167 -178.4774
12441.131819 89.274 176.8654
12531.285389 89.275 171.9413
12622.092249 89.159 166.8925
12713.557132 88.923 161.8748
12805.684808 88.569 157.0425
12898.480079 88.105 152.5379
12991.947783 87.541 148.4855
13086.092792 86.894 144.9855
13180.920015 86.180 142.1079
13276.434395 85.419 139.8910
13372.640911 84.631 138.3458
13469.544580 83.834 137.4605
13567.150452 83.047 137.2009
13665.463617 82.286 137.5103
13764.489200 81.565 138.3160
13864.232362 80.893 139.5389
13964.698305 80.279 141.0978
14065.892266 79.728 142.9107
14167.819519 79.241 144.9004
14270.485380 78.817 147.0029
14373.895200 78.455 149.1675
14478.054370 78.154 151.3514
14582.968320 77.910 153.5192
14688.642520 77.722 155.6452
14795.082478 77.589 157.7098
14902.293745 77.511 159.6916
15010.281908 77.490 161.5662
15119.052599 77.528 163.3053
15228.611486 77.629 164.8705
15338.964283 77.798 166.2081
15450.116741 78.039 167.2477
15562.074656 78.354 167.9007
15674.843864 78.743 168.0585
15788.430244 79.201 167.5960
15902.839718 79.714 166.3830
16018.078250 80.260 164.2988
16134.151848 80.809 161.2484
16251.066563 81.325 157.1798
16368.828491 81.763 152.1044
16487.443769 82.082 146.1110
16606.918584 82.242 139.3719
16727.259161 82.211 132.1395
16848.471777 81.972 124.7258
16970.562748 81.523 117.4580
17093.538442 80.877 110.6319
17217.405268 80.058 104.4801
17342.169684 79.099 99.1575
17467.838194 78.033 94.7425
17594.417350 76.896 91.2479
17721.913751 75.718 88.6354
17850.334044 74.528 86.8274
17979.684923 73.350 85.7195
18109.973131 72.202 85.1951
18241.205462 71.097 85.1349
18373.388756 70.044 85.4240
18506.529905 69.043 85.9579
18640.635849 68.094 86.6430
18775.713581 67.192 87.3958
18911.770141 66.330 88.1470
19048.812624 65.501 88.8439
19186.848172 64.696 89.4514
19325.883983 63.913 89.9523
19465.927305 63.155 90.3463
19606.985439 62.438 90.6453
19749.065738 61.803 90.8652
19892.175609 61.313 91.0156
20036.322514 61.042 91.0947
