* Measurement data measured by REW V5.31.3
* Source: EXCL: Microphone (USB Sound Device        ), MICROPHONE (Master Volume), R, volume: 0.390
* Format: 256k Log Swept Sine, 1 sweep at -15.0 dBFS with no timing reference
* Dated: May 11, 2025 2:51:20 PM
* REW Settings:
*  C-weighting compensation: Off
*  Target level: 75.0 dB
* Note: Moondrop llustrious R
* Measurement: R Moondrop llustrious
* Smoothing: 1/12 octave
* Frequency Step: 96 ppo
* Start Frequency: 0.36621094 Hz
*
* Freq(Hz) SPL(dB) Phase(degrees)
0.366211 94.822 156.2215
0.368865 94.816 156.1968
0.371538 94.808 156.1599
0.374230 94.797 156.1134
0.376942 94.785 156.0599
0.379673 94.772 156.0011
0.382424 94.758 155.9381
0.385196 94.744 155.8716
0.387987 94.730 155.8020
0.390798 94.715 155.7296
0.393630 94.701 155.6545
0.396483 94.686 155.5767
0.399356 94.671 155.4961
0.402250 94.657 155.4129
0.405165 94.642 155.3269
0.408101 94.626 155.2382
0.411058 94.611 155.1467
0.414037 94.596 155.0524
0.417037 94.580 154.9553
0.420059 94.565 154.8553
0.423103 94.549 154.7524
0.426169 94.533 154.6467
0.429257 94.517 154.5380
0.432368 94.501 154.4263
0.435501 94.485 154.3117
0.438656 94.469 154.1940
0.441835 94.453 154.0733
0.445037 94.436 153.9496
0.448262 94.420 153.8228
0.451510 94.403 153.6929
0.454782 94.386 153.5598
0.458077 94.369 153.4236
0.461397 94.352 153.2843
0.464740 94.335 153.1417
0.468108 94.317 152.9960
0.471500 94.300 152.8470
0.474917 94.282 152.6948
0.478358 94.265 152.5393
0.481825 94.247 152.3806
0.485316 94.229 152.2186
0.488833 94.211 152.0532
0.492375 94.192 151.8846
0.495943 94.174 151.7127
0.499537 94.155 151.5374
0.503157 94.137 151.3588
0.506803 94.118 151.1769
0.510475 94.099 150.9916
0.514175 94.080 150.8030
0.517900 94.061 150.6111
0.521653 94.041 150.4159
0.525434 94.022 150.2173
0.529241 94.002 150.0154
0.533076 93.983 149.8102
0.536939 93.963 149.6017
0.540830 93.943 149.3899
0.544749 93.923 149.1749
0.548696 93.902 148.9566
0.552673 93.882 148.7352
0.556677 93.861 148.5105
0.560711 93.840 148.2827
0.564774 93.819 148.0519
0.568867 93.798 147.8179
0.572989 93.777 147.5809
0.577141 93.756 147.3409
0.581324 93.734 147.0981
0.585536 93.712 146.8523
0.589779 93.691 146.6037
0.594053 93.669 146.3525
0.598358 93.646 146.0985
0.602694 93.624 145.8420
0.607061 93.602 145.5829
0.611460 93.579 145.3215
0.615891 93.556 145.0577
0.620354 93.533 144.7917
0.624849 93.510 144.5236
0.629377 93.487 144.2536
0.633938 93.463 143.9816
0.638532 93.439 143.7079
0.643159 93.416 143.4326
0.647819 93.392 143.1559
0.652514 93.367 142.8779
0.657242 93.343 142.5988
0.662005 93.319 142.3186
0.666802 93.294 142.0377
0.671634 93.269 141.7563
0.676501 93.244 141.4744
0.681403 93.219 141.1923
0.686341 93.193 140.9103
0.691314 93.167 140.6286
0.696324 93.142 140.3473
0.701370 93.115 140.0667
0.706452 93.089 139.7869
0.711571 93.062 139.5080
0.716728 93.034 139.2300
0.721921 93.005 138.9527
0.727153 92.974 138.6755
0.732422 92.942 138.3976
0.737729 92.907 138.1179
0.743075 92.871 137.8354
0.748460 92.832 137.5490
0.753883 92.793 137.2580
0.759346 92.752 136.9618
0.764849 92.711 136.6601
0.770391 92.669 136.3526
0.775974 92.626 136.0391
0.781597 92.583 135.7196
0.787261 92.539 135.3939
0.792966 92.495 135.0619
0.798712 92.450 134.7236
0.804500 92.405 134.3790
0.810329 92.359 134.0279
0.816201 92.312 133.6703
0.822116 92.265 133.3062
0.828073 92.217 132.9355
0.834074 92.168 132.5583
0.840118 92.119 132.1745
0.846206 92.069 131.7841
0.852338 92.018 131.3870
0.858514 91.966 130.9833
0.864735 91.913 130.5730
0.871001 91.859 130.1562
0.877313 91.804 129.7328
0.883670 91.749 129.3029
0.890074 91.692 128.8665
0.896524 91.634 128.4238
0.903020 91.575 127.9749
0.909564 91.515 127.5198
0.916155 91.454 127.0587
0.922794 91.392 126.5918
0.929481 91.328 126.1191
0.936216 91.263 125.6410
0.943000 91.196 125.1576
0.949834 91.128 124.6692
0.956717 91.059 124.1761
0.963649 90.988 123.6785
0.970632 90.915 123.1768
0.977666 90.841 122.6714
0.984750 90.765 122.1628
0.991886 90.687 121.6512
0.999074 90.607 121.1374
1.006314 90.526 120.6217
1.013606 90.442 120.1047
1.020951 90.357 119.5871
1.028349 90.269 119.0696
1.035801 90.179 118.5529
1.043307 90.087 118.0378
1.050867 89.992 117.5251
1.058482 89.896 117.0155
1.066152 89.797 116.5100
1.073878 89.695 116.0092
1.081660 89.592 115.5137
1.089498 89.488 115.0238
1.097393 89.382 114.5396
1.105345 89.276 114.0606
1.113355 89.171 113.5860
1.121423 89.066 113.1153
1.129549 88.963 112.6475
1.137734 88.862 112.1822
1.145979 88.762 111.7187
1.154283 88.664 111.2566
1.162647 88.566 110.7955
1.171072 88.470 110.3349
1.179558 88.373 109.8744
1.188106 88.277 109.4137
1.196715 88.180 108.9524
1.205387 88.081 108.4900
1.214122 87.982 108.0260
1.222920 87.880 107.5601
1.231782 87.775 107.0918
1.240708 87.667 106.6206
1.249699 87.555 106.1459
1.258754 87.439 105.6674
1.267876 87.318 105.1843
1.277063 87.191 104.6963
1.286318 87.057 104.2027
1.295639 86.916 103.7028
1.305027 86.768 103.1961
1.314484 86.610 102.6820
1.324009 86.444 102.1598
1.333604 86.267 101.6289
1.343268 86.079 101.0885
1.353002 85.879 100.5381
1.362806 85.666 99.9769
1.372681 85.439 99.4044
1.382628 85.198 98.8200
1.392647 84.941 98.2232
1.402739 84.667 97.6135
1.412904 84.375 96.9907
1.423142 84.064 96.3548
1.433455 83.731 95.7062
1.443843 83.376 95.0456
1.454305 82.994 94.3744
1.464844 82.582 93.6941
1.475459 82.137 93.0069
1.486150 81.653 92.3145
1.496920 81.128 91.6181
1.507767 80.561 90.9183
1.518693 79.950 90.2150
1.529698 79.296 89.5074
1.540783 78.602 88.7945
1.551948 77.867 88.0748
1.563194 77.097 87.3463
1.574521 76.292 86.6069
1.585931 75.456 85.8537
1.597423 74.594 85.0836
1.608999 73.708 84.2926
1.620658 72.802 83.4759
1.632402 71.882 82.6275
1.644232 70.952 81.7401
1.656146 70.016 80.8044
1.668147 69.081 79.8084
1.680235 68.152 78.7368
1.692411 67.236 77.5688
1.704675 66.340 76.2766
1.717028 65.471 74.8211
1.729470 64.640 73.1467
1.742003 63.854 71.1712
1.754626 63.125 68.7675
1.767341 62.464 65.7301
1.780147 61.885 61.7057
1.793047 61.399 56.0401
1.806040 61.022 47.4200
1.819128 60.765 33.0771
1.832310 60.639 8.2947
1.845587 60.650 -25.7059
1.858961 60.800 -53.2961
1.872432 61.083 -69.7299
1.886001 61.494 -79.6496
1.899667 62.021 -86.2538
1.913433 62.652 -91.0579
1.927299 63.373 -94.7949
1.941265 64.172 -97.8478
1.955332 65.036 -100.4327
1.969501 65.951 -102.6798
1.983773 66.905 -104.6716
1.998148 67.886 -106.4632
2.012627 68.882 -108.0924
2.027212 69.883 -109.5862
2.041902 70.878 -110.9644
2.056698 71.857 -112.2418
2.071602 72.809 -113.4298
2.086614 73.727 -114.5377
2.101734 74.600 -115.5729
2.116964 75.422 -116.5424
2.132304 76.185 -117.4532
2.147756 76.884 -118.3130
2.163320 77.516 -119.1317
2.178996 78.081 -119.9214
2.194786 78.579 -120.6973
2.210690 79.017 -121.4760
2.226710 79.400 -122.2727
2.242845 79.735 -123.0982
2.259098 80.026 -123.9581
2.275468 80.276 -124.8536
2.291957 80.490 -125.7825
2.308566 80.670 -126.7408
2.325295 80.818 -127.7232
2.342145 80.937 -128.7237
2.359117 81.029 -129.7361
2.376212 81.098 -130.7540
2.393431 81.145 -131.7709
2.410775 81.173 -132.7803
2.428244 81.187 -133.7759
2.445840 81.188 -134.7514
2.463564 81.181 -135.7010
2.481416 81.168 -136.6199
2.499397 81.152 -137.5042
2.517509 81.135 -138.3527
2.535752 81.120 -139.1672
2.554127 81.106 -139.9536
2.572635 81.092 -140.7217
2.591277 81.076 -141.4839
2.610055 81.056 -142.2515
2.628968 81.029 -143.0330
2.648019 80.994 -143.8334
2.667208 80.948 -144.6548
2.686535 80.892 -145.4966
2.706003 80.823 -146.3561
2.725612 80.742 -147.2293
2.745363 80.648 -148.1107
2.765257 80.539 -148.9934
2.785295 80.416 -149.8695
2.805478 80.278 -150.7296
2.825808 80.123 -151.5635
2.846285 79.951 -152.3602
2.866910 79.759 -153.1087
2.887685 79.548 -153.7991
2.908611 79.313 -154.4237
2.929688 79.052 -154.9784
2.950917 78.762 -155.4628
2.972301 78.439 -155.8789
2.993839 78.084 -156.2282
3.015534 77.695 -156.5104
3.037386 77.277 -156.7223
3.059396 76.833 -156.8575
3.081565 76.368 -156.9064
3.103896 75.888 -156.8555
3.126388 75.400 -156.6877
3.149043 74.913 -156.3806
3.171862 74.434 -155.9067
3.194847 73.973 -155.2314
3.217998 73.539 -154.3120
3.241317 73.140 -153.0953
3.264805 72.785 -151.5157
3.288463 72.479 -149.4925
3.312293 72.222 -146.9284
3.336295 72.016 -143.7127
3.360471 71.856 -139.7322
3.384822 71.741 -134.8917
3.409350 71.668 -129.1486
3.434056 71.634 -122.5584
3.458940 71.637 -115.3166
3.484005 71.676 -107.7613
3.509252 71.750 -100.3117
3.534681 71.858 -93.3603
3.560295 72.000 -87.1819
3.586094 72.178 -81.9036
3.612081 72.392 -77.5308
3.638255 72.647 -73.9946
3.664620 72.945 -71.1922
3.691175 73.290 -69.0130
3.717923 73.681 -67.3534
3.744864 74.115 -66.1217
3.772001 74.584 -65.2395
3.799335 75.079 -64.6405
3.826866 75.589 -64.2697
3.854597 76.102 -64.0822
3.882529 76.609 -64.0419
3.910664 77.097 -64.1208
3.939002 77.560 -64.2984
3.967546 77.989 -64.5614
3.996296 78.381 -64.9029
4.025255 78.734 -65.3215
4.054423 79.047 -65.8187
4.083804 79.325 -66.3952
4.113396 79.570 -67.0468
4.143204 79.786 -67.7645
4.173227 79.975 -68.5350
4.203468 80.141 -69.3432
4.233928 80.286 -70.1733
4.264609 80.412 -71.0105
4.295512 80.521 -71.8425
4.326639 80.614 -72.6611
4.357992 80.693 -73.4630
4.389572 80.758 -74.2509
4.421380 80.809 -75.0319
4.453419 80.843 -75.8140
4.485691 80.861 -76.6022
4.518196 80.863 -77.3958
4.550936 80.848 -78.1887
4.583914 80.818 -78.9706
4.617131 80.772 -79.7280
4.650589 80.713 -80.4460
4.684289 80.639 -81.1099
4.718233 80.552 -81.7074
4.752424 80.450 -82.2299
4.786862 80.334 -82.6738
4.821549 80.203 -83.0385
4.856488 80.058 -83.3243
4.891680 79.898 -83.5299
4.927127 79.727 -83.6513
4.962831 79.548 -83.6817
4.998794 79.363 -83.6115
5.035017 79.175 -83.4289
5.071503 78.988 -83.1202
5.108253 78.802 -82.6707
5.145270 78.619 -82.0663
5.182555 78.438 -81.2960
5.220110 78.261 -80.3549
5.257937 78.089 -79.2462
5.296038 77.925 -77.9815
5.334415 77.775 -76.5803
5.373071 77.643 -75.0677
5.412006 77.535 -73.4722
5.451224 77.456 -71.8219
5.490725 77.410 -70.1413
5.530514 77.399 -68.4514
5.570590 77.423 -66.7729
5.610957 77.478 -65.1304
5.651616 77.560 -63.5533
5.692570 77.665 -62.0734
5.733821 77.787 -60.7209
5.775370 77.921 -59.5216
5.817221 78.065 -58.4937
5.859375 78.215 -57.6464
5.901834 78.371 -56.9804
5.944602 78.532 -56.4893
5.987679 78.695 -56.1622
6.031068 78.859 -55.9866
6.074771 79.020 -55.9503
6.118792 79.172 -56.0424
6.163131 79.315 -56.2552
6.207792 79.443 -56.5836
6.252776 79.557 -57.0243
6.298086 79.655 -57.5727
6.343725 79.738 -58.2198
6.389694 79.806 -58.9515
6.435996 79.858 -59.7506
6.482634 79.895 -60.5999
6.529610 79.917 -61.4850
6.576926 79.922 -62.3968
6.624585 79.910 -63.3317
6.672590 79.882 -64.2887
6.720942 79.838 -65.2644
6.769645 79.778 -66.2507
6.818700 79.705 -67.2353
6.868111 79.618 -68.2031
6.917881 79.518 -69.1404
6.968010 79.407 -70.0365
7.018504 79.284 -70.8859
7.069362 79.151 -71.6856
7.120590 79.009 -72.4330
7.172189 78.861 -73.1238
7.224161 78.710 -73.7516
7.276511 78.558 -74.3082
7.329239 78.408 -74.7859
7.382350 78.261 -75.1797
7.435845 78.120 -75.4903
7.489729 77.986 -75.7242
7.544002 77.863 -75.8931
7.598669 77.754 -76.0108
7.653732 77.662 -76.0907
7.709194 77.591 -76.1442
7.765058 77.540 -76.1820
7.821327 77.511 -76.2176
7.878004 77.503 -76.2696
7.935091 77.515 -76.3598
7.992592 77.547 -76.5096
8.050510 77.597 -76.7365
8.108847 77.665 -77.0510
8.167607 77.748 -77.4581
8.226793 77.846 -77.9598
8.286408 77.953 -78.5574
8.346454 78.069 -79.2518
8.406936 78.188 -80.0427
8.467856 78.311 -80.9270
8.529218 78.434 -81.8977
8.591024 78.557 -82.9433
8.653278 78.679 -84.0500
8.715983 78.797 -85.2043
8.779143 78.911 -86.3948
8.842760 79.019 -87.6117
8.906839 79.122 -88.8452
8.971381 79.219 -90.0830
9.036392 79.310 -91.3105
9.101873 79.397 -92.5138
9.167829 79.478 -93.6813
9.234263 79.555 -94.8050
9.301178 79.628 -95.8782
9.368578 79.698 -96.8940
9.436467 79.767 -97.8451
9.504847 79.836 -98.7252
9.573723 79.905 -99.5306
9.643099 79.976 -100.2604
9.712976 80.051 -100.9163
9.783361 80.129 -101.5016
9.854255 80.212 -102.0200
9.925663 80.302 -102.4758
9.997588 80.397 -102.8745
10.070035 80.499 -103.2236
10.143007 80.607 -103.5319
10.216507 80.721 -103.8083
10.290540 80.841 -104.0605
10.365109 80.965 -104.2948
10.440219 81.094 -104.5167
10.515873 81.225 -104.7312
10.592076 81.357 -104.9428
10.668830 81.490 -105.1542
10.746141 81.621 -105.3663
10.824012 81.752 -105.5784
10.902447 81.879 -105.7891
10.981451 82.004 -105.9964
11.061027 82.124 -106.1980
11.141180 82.240 -106.3913
11.221913 82.351 -106.5730
11.303232 82.459 -106.7400
11.385140 82.561 -106.8898
11.467641 82.660 -107.0206
11.550741 82.755 -107.1315
11.634442 82.847 -107.2224
11.718750 82.936 -107.2936
11.803669 83.022 -107.3461
11.889203 83.106 -107.3822
11.975357 83.188 -107.4046
12.062136 83.268 -107.4165
12.149543 83.346 -107.4210
12.237583 83.422 -107.4211
12.326262 83.495 -107.4197
12.415583 83.567 -107.4192
12.505552 83.635 -107.4218
12.596172 83.700 -107.4283
12.687449 83.761 -107.4392
12.779387 83.818 -107.4542
12.871992 83.871 -107.4727
12.965268 83.920 -107.4935
13.059220 83.964 -107.5154
13.153852 84.005 -107.5368
13.249170 84.041 -107.5567
13.345179 84.074 -107.5747
13.441884 84.105 -107.5909
13.539289 84.132 -107.6062
13.637401 84.158 -107.6224
13.736223 84.183 -107.6418
13.835761 84.207 -107.6681
13.936021 84.230 -107.7049
14.037007 84.252 -107.7563
14.138725 84.274 -107.8263
14.241180 84.295 -107.9185
14.344377 84.315 -108.0363
14.448323 84.334 -108.1815
14.553021 84.352 -108.3554
14.658478 84.367 -108.5578
14.764700 84.380 -108.7877
14.871691 84.390 -109.0431
14.979457 84.397 -109.3208
15.088005 84.402 -109.6176
15.197339 84.405 -109.9300
15.307465 84.406 -110.2548
15.418389 84.406 -110.5890
15.530117 84.406 -110.9307
15.642655 84.406 -111.2790
15.756008 84.408 -111.6340
15.870182 84.413 -111.9968
15.985184 84.421 -112.3693
16.101019 84.433 -112.7543
16.217694 84.449 -113.1547
16.335214 84.469 -113.5731
16.453586 84.493 -114.0115
16.572815 84.521 -114.4711
16.692909 84.552 -114.9520
16.813872 84.585 -115.4525
16.935713 84.621 -115.9702
17.058436 84.659 -116.5012
17.182048 84.698 -117.0407
17.306556 84.738 -117.5835
17.431967 84.779 -118.1242
17.558286 84.821 -118.6577
17.685521 84.865 -119.1793
17.813677 84.911 -119.6855
17.942762 84.959 -120.1734
18.072783 85.009 -120.6415
18.203746 85.061 -121.0888
18.335658 85.116 -121.5155
18.468526 85.174 -121.9220
18.602356 85.233 -122.3091
18.737156 85.295 -122.6774
18.872934 85.357 -123.0276
19.009695 85.421 -123.3601
19.147447 85.486 -123.6748
19.286197 85.550 -123.9716
19.425953 85.614 -124.2506
19.566721 85.677 -124.5117
19.708510 85.740 -124.7550
19.851326 85.802 -124.9812
19.995177 85.862 -125.1912
20.140070 85.921 -125.3863
20.286013 85.978 -125.5676
20.433014 86.034 -125.7367
20.581080 86.087 -125.8950
20.730219 86.137 -126.0437
20.880439 86.185 -126.1838
21.031747 86.230 -126.3165
21.184152 86.273 -126.4428
21.337661 86.313 -126.5643
21.492282 86.350 -126.6826
21.648024 86.385 -126.8002
21.804895 86.417 -126.9197
21.962902 86.448 -127.0441
22.122054 86.476 -127.1764
22.282360 86.501 -127.3192
22.443827 86.524 -127.4746
22.606464 86.544 -127.6435
22.770280 86.562 -127.8260
22.935283 86.576 -128.0211
23.101481 86.588 -128.2269
23.268884 86.597 -128.4413
23.437500 86.604 -128.6622
23.607338 86.610 -128.8883
23.778406 86.616 -129.1191
23.950714 86.623 -129.3555
24.124271 86.631 -129.5994
24.299086 86.641 -129.8538
24.475167 86.654 -130.1218
24.652524 86.670 -130.4067
24.831166 86.689 -130.7108
25.011103 86.710 -131.0354
25.192344 86.733 -131.3803
25.374898 86.758 -131.7439
25.558775 86.784 -132.1232
25.743984 86.811 -132.5141
25.930536 86.839 -132.9121
26.118439 86.868 -133.3121
26.307704 86.897 -133.7092
26.498341 86.927 -134.0987
26.690359 86.957 -134.4765
26.883768 86.989 -134.8394
27.078579 87.021 -135.1851
27.274801 87.055 -135.5124
27.472446 87.090 -135.8211
27.671522 87.127 -136.1123
27.872042 87.165 -136.3877
28.074014 87.204 -136.6496
28.277450 87.243 -136.8999
28.482360 87.282 -137.1405
28.688755 87.320 -137.3720
28.896645 87.357 -137.5946
29.106042 87.392 -137.8075
29.316957 87.425 -138.0103
29.529400 87.456 -138.2028
29.743382 87.485 -138.3856
29.958915 87.512 -138.5605
30.176009 87.537 -138.7304
30.394677 87.561 -138.8986
30.614929 87.584 -139.0684
30.836778 87.604 -139.2423
31.060234 87.623 -139.4219
31.285309 87.639 -139.6078
31.512015 87.654 -139.7997
31.740364 87.667 -139.9973
31.970368 87.679 -140.2004
32.202039 87.690 -140.4099
32.435388 87.701 -140.6271
32.670428 87.713 -140.8537
32.907171 87.725 -141.0916
33.145630 87.737 -141.3415
33.385817 87.751 -141.6034
33.627745 87.765 -141.8762
33.871425 87.779 -142.1576
34.116871 87.794 -142.4452
34.364096 87.811 -142.7365
34.613113 87.828 -143.0295
34.863934 87.846 -143.3226
35.116572 87.865 -143.6148
35.371041 87.886 -143.9052
35.627354 87.907 -144.1929
35.885525 87.929 -144.4767
36.145566 87.951 -144.7552
36.407492 87.973 -145.0260
36.671316 87.994 -145.2869
36.937051 88.015 -145.5358
37.204712 88.036 -145.7710
37.474313 88.056 -145.9924
37.745867 88.076 -146.2012
38.019389 88.097 -146.4002
38.294893 88.118 -146.5934
38.572394 88.138 -146.7847
38.851905 88.159 -146.9776
39.133442 88.178 -147.1738
39.417019 88.196 -147.3739
39.702651 88.213 -147.5771
39.990353 88.228 -147.7822
40.280140 88.242 -147.9887
40.572026 88.256 -148.1966
40.866028 88.269 -148.4069
41.162160 88.282 -148.6211
41.460438 88.294 -148.8405
41.760877 88.307 -149.0658
42.063494 88.319 -149.2966
42.368303 88.331 -149.5317
42.675322 88.342 -149.7689
42.984565 88.352 -150.0052
43.296048 88.362 -150.2372
43.609789 88.371 -150.4617
43.925804 88.380 -150.6756
44.244108 88.389 -150.8773
44.564719 88.400 -151.0671
44.887654 88.412 -151.2475
45.212928 88.426 -151.4227
45.540560 88.441 -151.5977
45.870565 88.458 -151.7771
46.202962 88.475 -151.9637
46.537768 88.492 -152.1583
46.875000 88.508 -152.3599
47.214676 88.523 -152.5668
47.556813 88.537 -152.7777
47.901429 88.551 -152.9917
48.248542 88.563 -153.2081
48.598171 88.575 -153.4259
48.950334 88.586 -153.6433
49.305048 88.596 -153.8577
49.662333 88.605 -154.0672
50.022206 88.615 -154.2711
50.384688 88.625 -154.4704
50.749796 88.636 -154.6667
51.117550 88.647 -154.8613
51.487969 88.659 -155.0543
51.861072 88.671 -155.2446
52.236879 88.683 -155.4315
52.615409 88.695 -155.6150
52.996681 88.707 -155.7965
53.380717 88.720 -155.9776
53.767536 88.732 -156.1595
54.157158 88.744 -156.3421
54.549603 88.755 -156.5247
54.944892 88.766 -156.7068
55.343045 88.777 -156.8890
55.744084 88.788 -157.0724
56.148028 88.799 -157.2584
56.554900 88.809 -157.4483
56.964720 88.820 -157.6424
57.377510 88.831 -157.8408
57.793291 88.841 -158.0432
58.212085 88.851 -158.2485
58.633914 88.861 -158.4544
59.058799 88.870 -158.6576
59.486764 88.878 -158.8553
59.917829 88.887 -159.0464
60.352019 88.896 -159.2327
60.789354 88.905 -159.4177
61.229859 88.915 -159.6042
61.673556 88.924 -159.7928
62.120468 88.933 -159.9821
62.570618 88.941 -160.1700
63.024031 88.948 -160.3555
63.480729 88.955 -160.5393
63.940736 88.962 -160.7229
64.404077 88.970 -160.9082
64.870776 88.977 -161.0960
65.340856 88.984 -161.2858
65.814343 88.991 -161.4766
66.291261 88.998 -161.6665
66.771635 89.005 -161.8542
67.255489 89.011 -162.0390
67.742850 89.018 -162.2204
68.233743 89.025 -162.3985
68.728193 89.033 -162.5739
69.226226 89.040 -162.7475
69.727867 89.048 -162.9199
70.233144 89.056 -163.0912
70.742083 89.063 -163.2613
71.254709 89.071 -163.4304
71.771050 89.079 -163.5996
72.291132 89.086 -163.7696
72.814984 89.094 -163.9410
73.342631 89.101 -164.1136
73.874102 89.109 -164.2867
74.409424 89.116 -164.4595
74.948626 89.123 -164.6311
75.491734 89.130 -164.8017
76.038779 89.138 -164.9722
76.589787 89.145 -165.1445
77.144788 89.153 -165.3193
77.703811 89.160 -165.4964
78.266885 89.166 -165.6755
78.834039 89.173 -165.8565
79.405303 89.179 -166.0387
79.980706 89.184 -166.2209
80.560280 89.191 -166.4032
81.144053 89.198 -166.5888
81.732056 89.205 -166.7817
82.324320 89.213 -166.9847
82.920876 89.219 -167.1978
83.521755 89.224 -167.4185
84.126988 89.227 -167.6418
84.736607 89.227 -167.8611
85.350643 89.225 -168.0705
85.969129 89.222 -168.2675
86.592097 89.218 -168.4530
87.219579 89.215 -168.6294
87.851608 89.211 -168.7987
88.488217 89.208 -168.9632
89.129439 89.206 -169.1249
89.775308 89.204 -169.2850
90.425856 89.202 -169.4424
91.081119 89.201 -169.5964
91.741131 89.200 -169.7478
92.405925 89.200 -169.8990
93.075536 89.199 -170.0505
93.750000 89.199 -170.2007
94.429351 89.199 -170.3483
95.113625 89.199 -170.4950
95.802858 89.199 -170.6442
96.497085 89.200 -170.7977
97.196342 89.201 -170.9555
97.900667 89.202 -171.1163
98.610096 89.202 -171.2788
99.324665 89.201 -171.4404
100.044413 89.200 -171.5981
100.769376 89.198 -171.7495
101.499592 89.196 -171.8942
102.235100 89.194 -172.0331
102.975938 89.192 -172.1664
103.722144 89.190 -172.2933
104.473757 89.189 -172.4140
105.230817 89.189 -172.5321
105.993363 89.191 -172.6534
106.761435 89.193 -172.7829
107.535072 89.195 -172.9224
108.314315 89.197 -173.0714
109.099206 89.198 -173.2283
109.889783 89.197 -173.3908
110.686090 89.194 -173.5556
111.488167 89.189 -173.7189
112.296056 89.183 -173.8788
113.109800 89.176 -174.0357
113.929440 89.169 -174.1910
114.755020 89.161 -174.3437
115.586582 89.152 -174.4893
116.424170 89.144 -174.6231
117.267827 89.137 -174.7434
118.117598 89.132 -174.8512
118.973527 89.128 -174.9474
119.835658 89.124 -175.0303
120.704037 89.123 -175.0987
121.578708 89.123 -175.1573
122.459718 89.125 -175.2169
123.347111 89.129 -175.2872
124.240935 89.134 -175.3725
125.141236 89.137 -175.4718
126.048061 89.141 -175.5818
126.961458 89.144 -175.7002
127.881473 89.147 -175.8263
128.808154 89.150 -175.9601
129.741551 89.153 -176.0998
130.681712 89.156 -176.2420
131.628686 89.158 -176.3838
132.582521 89.160 -176.5235
133.543269 89.161 -176.6618
134.510979 89.162 -176.8002
135.485701 89.162 -176.9406
136.467486 89.160 -177.0837
137.456386 89.158 -177.2292
138.452451 89.155 -177.3764
139.455735 89.152 -177.5239
140.466288 89.148 -177.6709
141.484165 89.144 -177.8165
142.509418 89.141 -177.9611
143.542100 89.138 -178.1057
144.582265 89.136 -178.2517
145.629968 89.133 -178.3991
146.685262 89.129 -178.5464
147.748204 89.124 -178.6918
148.818849 89.118 -178.8336
149.897251 89.111 -178.9702
150.983469 89.103 -179.0997
152.077557 89.094 -179.2194
153.179574 89.085 -179.3270
154.289576 89.077 -179.4226
155.407622 89.071 -179.5096
156.533770 89.067 -179.5941
157.668078 89.064 -179.6828
158.810606 89.063 -179.7810
159.961413 89.063 -179.8910
161.120559 89.063 179.9869
162.288105 89.063 179.8539
163.464112 89.062 179.7119
164.648640 89.059 179.5634
165.841752 89.055 179.4122
167.043510 89.048 179.2629
168.253976 89.041 179.1204
169.473213 89.032 178.9879
170.701286 89.023 178.8668
171.938258 89.015 178.7555
173.184194 89.008 178.6516
174.439158 89.002 178.5524
175.703216 88.996 178.4558
176.976434 88.992 178.3597
178.258878 88.988 178.2615
179.550615 88.984 178.1580
180.851713 88.979 178.0481
182.162239 88.972 177.9336
183.482262 88.966 177.8169
184.811850 88.958 177.6994
186.151073 88.951 177.5817
187.500000 88.945 177.4643
188.858702 88.938 177.3488
190.227250 88.931 177.2364
191.605715 88.923 177.1268
192.994169 88.915 177.0179
194.392685 88.905 176.9072
195.801334 88.894 176.7936
197.220191 88.882 176.6778
198.649330 88.869 176.5621
200.088825 88.857 176.4494
201.538751 88.845 176.3429
202.999184 88.834 176.2452
204.470200 88.825 176.1559
205.951875 88.818 176.0697
207.444287 88.812 175.9800
208.947514 88.807 175.8833
210.461634 88.800 175.7793
211.986726 88.791 175.6711
213.522869 88.781 175.5630
215.070144 88.768 175.4606
216.628631 88.755 175.3690
218.198411 88.742 175.2905
219.779567 88.730 175.2229
221.372180 88.720 175.1601
222.976334 88.710 175.0952
224.592112 88.702 175.0237
226.219600 88.694 174.9444
227.858880 88.686 174.8594
229.510039 88.678 174.7719
231.173164 88.670 174.6848
232.848340 88.661 174.5994
234.535655 88.653 174.5150
236.235197 88.644 174.4295
237.947054 88.634 174.3404
239.671317 88.624 174.2467
241.408074 88.612 174.1499
243.157416 88.599 174.0534
244.919435 88.585 173.9614
246.694223 88.569 173.8777
248.481871 88.553 173.8054
250.282473 88.536 173.7469
252.096123 88.520 173.7036
253.922915 88.506 173.6739
255.762945 88.494 173.6517
257.616309 88.484 173.6273
259.483103 88.477 173.5908
261.363424 88.471 173.5374
263.257372 88.464 173.4695
265.165043 88.455 173.3937
267.086538 88.444 173.3178
269.021957 88.432 173.2480
270.971401 88.418 173.1879
272.934972 88.405 173.1384
274.912771 88.392 173.0975
276.904902 88.380 173.0628
278.911469 88.369 173.0319
280.932577 88.359 173.0022
282.968330 88.352 172.9707
285.018835 88.346 172.9324
287.084199 88.342 172.8806
289.164530 88.338 172.8091
291.259935 88.334 172.7165
293.370525 88.327 172.6074
295.496408 88.317 172.4914
297.637697 88.304 172.3784
299.794503 88.289 172.2751
301.966937 88.272 172.1845
304.155114 88.255 172.1059
306.359147 88.238 172.0359
308.579152 88.221 171.9706
310.815244 88.204 171.9065
313.067539 88.187 171.8424
315.336156 88.168 171.7800
317.621211 88.149 171.7234
319.922826 88.129 171.6766
322.241118 88.109 171.6411
324.576210 88.089 171.6152
326.928223 88.070 171.5956
329.297280 88.052 171.5790
331.683504 88.035 171.5631
334.087019 88.019 171.5458
336.507952 88.003 171.5253
338.946427 87.987 171.5010
341.402572 87.971 171.4740
343.876516 87.954 171.4465
346.368387 87.937 171.4212
348.878315 87.919 171.3999
351.406431 87.900 171.3832
353.952867 87.882 171.3706
356.517756 87.863 171.3608
359.101230 87.844 171.3526
361.703426 87.826 171.3458
364.324478 87.807 171.3407
366.964523 87.788 171.3381
369.623699 87.770 171.3385
372.302145 87.751 171.3421
375.000000 87.732 171.3491
377.717405 87.713 171.3593
380.454501 87.694 171.3720
383.211431 87.675 171.3870
385.988339 87.657 171.4043
388.785369 87.639 171.4241
391.602668 87.621 171.4473
394.440383 87.603 171.4749
397.298660 87.584 171.5071
400.177650 87.566 171.5427
403.077502 87.548 171.5793
405.998368 87.529 171.6145
408.940400 87.510 171.6476
411.903750 87.491 171.6801
414.888575 87.471 171.7155
417.895028 87.451 171.7573
420.923268 87.430 171.8086
423.973452 87.410 171.8704
427.045738 87.390 171.9416
430.140287 87.373 172.0183
433.257261 87.356 172.0955
436.396822 87.341 172.1696
439.559133 87.326 172.2397
442.744360 87.313 172.3064
445.952668 87.300 172.3682
449.184225 87.288 172.4211
452.439199 87.277 172.4595
455.717760 87.265 172.4802
459.020079 87.250 172.4866
462.346327 87.232 172.4891
465.696680 87.211 172.4990
469.071310 87.187 172.5230
472.470394 87.163 172.5627
475.894109 87.138 172.6153
479.342634 87.113 172.6760
482.816148 87.089 172.7397
486.314833 87.064 172.8048
489.838871 87.039 172.8759
493.388445 87.013 172.9603
496.963741 86.986 173.0615
500.564945 86.962 173.1758
504.192245 86.938 173.2953
507.845830 86.916 173.4136
511.525890 86.894 173.5280
515.232618 86.872 173.6393
518.966206 86.849 173.7507
522.726849 86.825 173.8668
526.514743 86.800 173.9916
530.330086 86.776 174.1275
534.173076 86.752 174.2725
538.043915 86.729 174.4221
541.942803 86.706 174.5739
545.869944 86.685 174.7286
549.825542 86.664 174.8870
553.809805 86.643 175.0475
557.822939 86.623 175.2070
561.865154 86.604 175.3634
565.936660 86.584 175.5168
570.037671 86.563 175.6702
574.168399 86.541 175.8272
578.329060 86.518 175.9901
582.519870 86.496 176.1592
586.741049 86.473 176.3346
590.992817 86.450 176.5187
595.275394 86.427 176.7139
599.589005 86.404 176.9193
603.933874 86.383 177.1302
608.310228 86.362 177.3426
612.718295 86.341 177.5552
617.158304 86.320 177.7701
621.630488 86.298 177.9932
626.135079 86.276 178.2309
630.672311 86.254 178.4858
635.242423 86.235 178.7538
639.845651 86.217 179.0289
644.482237 86.201 179.3087
649.152421 86.187 179.5938
653.856447 86.175 179.8826
658.594560 86.167 -179.8321
663.367008 86.160 -179.5607
668.174039 86.155 -179.3112
673.015903 86.149 -179.0824
677.892854 86.141 -178.8662
682.805145 86.130 -178.6529
687.753032 86.118 -178.4350
692.736774 86.103 -178.2069
697.756631 86.088 -177.9644
702.812863 86.072 -177.7057
707.905735 86.056 -177.4337
713.035511 86.042 -177.1530
718.202461 86.028 -176.8672
723.406852 86.014 -176.5767
728.648956 86.001 -176.2808
733.929047 85.988 -175.9784
739.247399 85.976 -175.6690
744.604290 85.964 -175.3522
750.000000 85.952 -175.0279
755.434809 85.941 -174.6963
760.909001 85.931 -174.3573
766.422861 85.921 -174.0109
771.976677 85.913 -173.6574
777.570739 85.906 -173.2974
783.205337 85.899 -172.9312
788.880766 85.894 -172.5579
794.597321 85.889 -172.1744
800.355301 85.886 -171.7785
806.155005 85.886 -171.3713
811.996736 85.889 -170.9585
817.880799 85.896 -170.5489
823.807501 85.907 -170.1516
829.777150 85.919 -169.7746
835.790057 85.931 -169.4202
841.846536 85.942 -169.0820
847.946903 85.952 -168.7494
854.091476 85.959 -168.4147
860.280575 85.966 -168.0741
866.514523 85.971 -167.7247
872.793644 85.977 -167.3632
879.118267 85.983 -166.9889
885.488720 85.990 -166.6054
891.905336 85.999 -166.2164
898.368450 86.008 -165.8220
904.878398 86.018 -165.4203
911.435520 86.030 -165.0106
918.040157 86.044 -164.5946
924.692655 86.061 -164.1753
931.393359 86.079 -163.7563
938.142619 86.099 -163.3413
944.940787 86.121 -162.9325
951.788218 86.143 -162.5288
958.685268 86.166 -162.1278
965.632296 86.189 -161.7263
972.629666 86.213 -161.3215
979.677741 86.238 -160.9124
986.776890 86.263 -160.4997
993.927482 86.290 -160.0831
1001.129891 86.318 -159.6588
1008.384491 86.348 -159.2235
1015.691660 86.381 -158.7785
1023.051781 86.418 -158.3290
1030.465236 86.460 -157.8830
1037.932411 86.506 -157.4527
1045.453698 86.556 -157.0510
1053.029486 86.607 -156.6840
1060.660172 86.658 -156.3481
1068.346153 86.707 -156.0342
1076.087829 86.755 -155.7322
1083.885605 86.802 -155.4353
1091.739887 86.848 -155.1413
1099.651084 86.894 -154.8504
1107.619609 86.939 -154.5632
1115.645878 86.984 -154.2795
1123.730308 87.029 -153.9985
1131.873321 87.074 -153.7189
1140.075341 87.118 -153.4397
1148.336797 87.163 -153.1601
1156.658119 87.209 -152.8793
1165.039741 87.255 -152.5963
1173.482099 87.302 -152.3095
1181.985634 87.351 -152.0196
1190.550789 87.403 -151.7325
1199.178011 87.459 -151.4594
1207.867749 87.516 -151.2120
1216.620457 87.573 -150.9966
1225.436590 87.629 -150.8103
1234.316609 87.682 -150.6444
1243.260976 87.732 -150.4895
1252.270157 87.780 -150.3376
1261.344623 87.826 -150.1845
1270.484846 87.870 -150.0293
1279.691303 87.912 -149.8707
1288.964474 87.954 -149.7070
1298.304842 87.995 -149.5381
1307.712894 88.036 -149.3662
1317.189120 88.077 -149.1945
1326.734016 88.118 -149.0253
1336.348077 88.158 -148.8581
1346.031806 88.197 -148.6899
1355.785708 88.234 -148.5167
1365.610290 88.271 -148.3341
1375.506065 88.307 -148.1376
1385.473549 88.343 -147.9222
1395.513261 88.380 -147.6869
1405.625726 88.421 -147.4374
1415.811469 88.465 -147.1859
1426.071023 88.513 -146.9471
1436.404921 88.563 -146.7301
1446.813703 88.613 -146.5350
1457.297912 88.662 -146.3563
1467.858093 88.710 -146.1876
1478.494798 88.756 -146.0244
1489.208581 88.801 -145.8630
1500.000000 88.845 -145.7001
1510.869618 88.887 -145.5323
1521.818002 88.929 -145.3565
1532.845723 88.971 -145.1698
1543.953355 89.013 -144.9700
1555.141477 89.057 -144.7561
1566.410674 89.103 -144.5320
1577.761531 89.152 -144.3079
1589.194642 89.205 -144.0971
1600.710601 89.259 -143.9086
1612.310010 89.313 -143.7424
1623.993473 89.365 -143.5924
1635.761599 89.415 -143.4498
1647.615002 89.464 -143.3068
1659.554299 89.511 -143.1568
1671.580114 89.557 -142.9952
1683.693072 89.603 -142.8210
1695.893807 89.651 -142.6371
1708.182952 89.701 -142.4485
1720.561150 89.752 -142.2596
1733.029045 89.804 -142.0731
1745.587288 89.857 -141.8898
1758.236533 89.911 -141.7078
1770.977440 89.967 -141.5237
1783.810673 90.024 -141.3375
1796.736900 90.084 -141.1555
1809.756796 90.146 -140.9879
1822.871040 90.210 -140.8414
1836.080315 90.273 -140.7158
1849.385310 90.336 -140.6061
1862.786718 90.397 -140.5060
1876.285239 90.456 -140.4086
1889.881575 90.514 -140.3074
1903.576436 90.571 -140.1963
1917.370535 90.628 -140.0711
1931.264593 90.688 -139.9304
1945.259332 90.751 -139.7786
1959.355483 90.819 -139.6280
1973.553781 90.892 -139.4957
1987.854965 90.968 -139.3951
2002.259781 91.046 -139.3313
2016.768981 91.123 -139.3023
2031.383320 91.198 -139.3021
2046.103561 91.271 -139.3233
2060.930471 91.341 -139.3598
2075.864823 91.410 -139.4082
2090.907395 91.477 -139.4669
2106.058972 91.541 -139.5330
2121.320344 91.603 -139.6012
2136.692305 91.662 -139.6635
2152.175658 91.720 -139.7123
2167.771210 91.778 -139.7456
2183.479774 91.839 -139.7708
2199.302169 91.902 -139.8004
2215.239219 91.968 -139.8446
2231.291755 92.034 -139.9082
2247.460615 92.100 -139.9913
2263.746641 92.164 -140.0903
2280.150683 92.227 -140.1989
2296.673595 92.289 -140.3096
2313.316238 92.350 -140.4168
2330.079481 92.413 -140.5199
2346.964198 92.478 -140.6268
2363.971268 92.545 -140.7503
2381.101578 92.614 -140.9009
2398.356022 92.683 -141.0835
2415.735498 92.751 -141.2977
2433.240913 92.816 -141.5401
2450.873180 92.879 -141.8067
2468.633217 92.939 -142.0948
2486.521951 92.995 -142.4009
2504.540314 93.046 -142.7186
2522.689246 93.092 -143.0383
2540.969692 93.135 -143.3504
2559.382606 93.176 -143.6516
2577.928947 93.216 -143.9472
2596.609683 93.256 -144.2455
2615.425787 93.295 -144.5532
2634.378241 93.331 -144.8723
2653.468031 93.363 -145.1992
2672.696154 93.392 -145.5258
2692.063613 93.417 -145.8411
2711.571415 93.439 -146.1364
2731.220579 93.460 -146.4105
2751.012130 93.480 -146.6684
2770.947098 93.502 -146.9164
2791.026522 93.523 -147.1576
2811.251451 93.544 -147.3916
2831.622938 93.565 -147.6167
2852.142045 93.586 -147.8326
2872.809842 93.609 -148.0407
2893.627406 93.632 -148.2422
2914.595823 93.657 -148.4375
2935.716186 93.684 -148.6296
2956.989596 93.714 -148.8270
2978.417161 93.746 -149.0400
3000.000000 93.779 -149.2746
3021.739237 93.812 -149.5288
3043.636005 93.842 -149.7927
3065.691446 93.871 -150.0524
3087.906710 93.900 -150.2967
3110.282955 93.934 -150.5255
3132.821347 93.973 -150.7536
3155.523062 94.019 -151.0054
3178.389283 94.072 -151.3063
3201.421202 94.129 -151.6764
3224.620020 94.186 -152.1275
3247.986946 94.240 -152.6624
3271.523198 94.287 -153.2742
3295.230004 94.325 -153.9465
3319.108599 94.353 -154.6587
3343.160228 94.372 -155.3947
3367.386145 94.381 -156.1459
3391.787613 94.381 -156.9085
3416.365904 94.372 -157.6793
3441.122300 94.353 -158.4505
3466.058091 94.323 -159.2084
3491.174576 94.284 -159.9382
3516.473066 94.237 -160.6307
3541.954880 94.183 -161.2836
3567.621345 94.124 -161.8986
3593.473800 94.061 -162.4783
3619.513592 93.994 -163.0246
3645.742080 93.921 -163.5379
3672.160630 93.844 -164.0137
3698.770620 93.763 -164.4431
3725.573436 93.678 -164.8183
3752.570477 93.591 -165.1377
3779.763150 93.504 -165.4052
3807.152872 93.418 -165.6256
3834.741071 93.331 -165.7998
3862.529185 93.245 -165.9231
3890.518664 93.161 -165.9916
3918.710966 93.081 -166.0082
3947.107561 93.008 -165.9840
3975.709929 92.942 -165.9355
4004.519563 92.883 -165.8807
4033.537962 92.831 -165.8359
4062.766641 92.782 -165.8096
4092.207123 92.735 -165.8012
4121.860942 92.690 -165.8075
4151.729646 92.645 -165.8275
4181.814790 92.600 -165.8620
4212.117944 92.553 -165.9090
4242.640687 92.504 -165.9588
4273.384610 92.452 -165.9979
4304.351317 92.398 -166.0160
4335.542421 92.344 -166.0105
4366.959549 92.292 -165.9861
4398.604338 92.242 -165.9531
4430.478438 92.194 -165.9224
4462.583511 92.147 -165.8985
4494.921231 92.099 -165.8792
4527.493283 92.050 -165.8606
4560.301365 91.999 -165.8418
4593.347189 91.947 -165.8214
4626.632476 91.891 -165.7926
4660.158962 91.832 -165.7432
4693.928395 91.771 -165.6615
4727.942535 91.710 -165.5417
4762.203156 91.650 -165.3853
4796.712043 91.592 -165.1999
4831.470996 91.537 -164.9944
4866.481826 91.484 -164.7731
4901.746360 91.433 -164.5359
4937.266434 91.384 -164.2830
4973.043902 91.337 -164.0156
5009.080628 91.290 -163.7314
5045.378492 91.244 -163.4208
5081.939384 91.199 -163.0705
5118.765212 91.157 -162.6700
5155.857894 91.120 -162.2163
5193.219366 91.093 -161.7164
5230.851574 91.075 -161.1829
5268.756481 91.069 -160.6281
5306.936062 91.076 -160.0645
5345.392309 91.096 -159.5081
5384.127225 91.130 -158.9761
5423.142830 91.176 -158.4817
5462.441159 91.235 -158.0336
5502.024259 91.306 -157.6411
5541.894195 91.390 -157.3192
5582.053045 91.488 -157.0912
5622.502902 91.596 -156.9847
5663.245876 91.713 -157.0249
5704.284090 91.834 -157.2318
5745.619684 91.954 -157.6194
5787.254813 92.066 -158.1923
5829.191647 92.164 -158.9408
5871.432373 92.242 -159.8409
5913.979192 92.296 -160.8591
5956.834323 92.324 -161.9584
6000.000000 92.325 -163.1020
6043.478473 92.297 -164.2531
6087.272010 92.243 -165.3763
6131.382892 92.163 -166.4403
6175.813420 92.061 -167.4201
6220.565910 91.938 -168.2932
6265.642695 91.799 -169.0383
6311.046124 91.647 -169.6373
6356.778566 91.485 -170.0782
6402.842404 91.320 -170.3580
6449.240040 91.156 -170.4813
6495.973891 90.997 -170.4594
6543.046396 90.846 -170.3090
6590.460007 90.705 -170.0489
6638.217197 90.576 -169.6946
6686.320456 90.460 -169.2570
6734.772290 90.358 -168.7447
6783.575226 90.272 -168.1678
6832.731809 90.203 -167.5385
6882.244600 90.154 -166.8725
6932.116181 90.125 -166.1893
6982.349153 90.116 -165.5101
7032.946133 90.128 -164.8532
7083.909760 90.160 -164.2322
7135.242690 90.212 -163.6586
7186.947600 90.285 -163.1452
7239.027185 90.380 -162.7081
7291.484160 90.496 -162.3699
7344.321260 90.635 -162.1601
7397.541239 90.794 -162.1106
7451.146872 90.971 -162.2503
7505.140954 91.164 -162.6040
7559.526299 91.368 -163.1959
7614.305743 91.582 -164.0504
7669.482141 91.799 -165.1932
7725.058371 92.015 -166.6507
7781.037328 92.220 -168.4452
7837.421932 92.405 -170.5855
7894.215122 92.559 -173.0615
7951.419859 92.671 -175.8437
8009.039125 92.732 -178.8842
8067.075924 92.734 177.8790
8125.533282 92.673 174.5159
8184.414245 92.545 171.1007
8243.721885 92.348 167.7120
8303.459292 92.084 164.4303
8363.629581 91.756 161.3328
8424.235888 91.369 158.4885
8485.281374 90.934 155.9513
8546.769221 90.458 153.7541
8608.702634 89.954 151.9103
8671.084842 89.429 150.4196
8733.919097 88.892 149.2749
8797.208675 88.350 148.4662
8860.956876 87.808 147.9822
8925.167022 87.274 147.8058
8989.842461 86.752 147.9117
9054.986566 86.248 148.2693
9120.602731 85.764 148.8488
9186.694378 85.303 149.6251
9253.264952 84.865 150.5803
9320.317925 84.452 151.6976
9387.856790 84.067 152.9555
9455.885071 83.710 154.3273
9524.406312 83.382 155.7855
9593.424086 83.083 157.3072
9662.941992 82.811 158.8776
9732.963653 82.566 160.4846
9803.492719 82.348 162.1130
9874.532869 82.158 163.7423
9946.087805 81.993 165.3515
10018.161257 81.852 166.9252
10090.756983 81.732 168.4566
10163.878768 81.634 169.9404
10237.530423 81.555 171.3669
10311.715789 81.494 172.7220
10386.438732 81.451 173.9920
10461.703149 81.422 175.1714
10537.512962 81.406 176.2595
10613.872125 81.402 177.2538
10690.784618 81.409 178.1469
10768.254450 81.424 178.9285
10846.285661 81.445 179.5929
10924.882318 81.470 -179.8596
11004.048518 81.496 -179.4280
11083.788390 81.523 -179.1152
11164.106090 81.546 -178.9264
11245.005805 81.564 -178.8619
11326.491752 81.573 -178.9139
11408.568180 81.568 -179.0692
11491.239368 81.548 -179.3135
11574.509626 81.509 -179.6315
11658.383294 81.448 179.9992
11742.864745 81.363 179.6113
11827.958384 81.252 179.2438
11913.668646 81.117 178.9361
12000.000000 80.957 178.7244
12086.956947 80.777 178.6454
12174.544019 80.580 178.7359
12262.765784 80.371 179.0271
12351.626840 80.158 179.5369
12441.131819 79.948 -179.7314
12531.285389 79.747 -178.7843
12622.092249 79.562 -177.6342
12713.557132 79.400 -176.3020
12805.684808 79.265 -174.8190
12898.480079 79.163 -173.2211
12991.947783 79.095 -171.5420
13086.092792 79.063 -169.8118
13180.920015 79.071 -168.0616
13276.434395 79.120 -166.3240
13372.640911 79.211 -164.6308
13469.544580 79.346 -163.0128
13567.150452 79.527 -161.5081
13665.463617 79.757 -160.1668
13764.489200 80.036 -159.0487
13864.232362 80.361 -158.2181
13964.698305 80.730 -157.7450
14065.892266 81.136 -157.7040
14167.819519 81.568 -158.1651
14270.485380 82.013 -159.1836
14373.895200 82.455 -160.7951
14478.054370 82.875 -163.0122
14582.968320 83.254 -165.8171
14688.642520 83.573 -169.1571
14795.082478 83.817 -172.9480
14902.293745 83.975 -177.0824
15010.281908 84.037 178.5645
15119.052599 84.003 174.1265
15228.611486 83.876 169.7335
15338.964283 83.665 165.4983
15450.116741 83.383 161.5085
15562.074656 83.049 157.8192
15674.843864 82.682 154.4452
15788.430244 82.303 151.3565
15902.839718 81.931 148.4787
16018.078250 81.580 145.6993
16134.151848 81.258 142.8793
16251.066563 80.962 139.8737
16368.828491 80.676 136.5614
16487.443769 80.377 132.8727
16606.918584 80.032 128.8084
16727.259161 79.609 124.4502
16848.471777 79.078 119.9569
16970.562748 78.422 115.5417
17093.538442 77.633 111.4382
17217.405268 76.714 107.8707
17342.169684 75.680 105.0284
17467.838194 74.553 103.0502
17594.417350 73.358 102.0196
17721.913751 72.125 101.9623
17850.334044 70.883 102.8448
17979.684923 69.659 104.5788
18109.973131 68.479 107.0321
18241.205462 67.363 110.0410
18373.388756 66.327 113.4244
18506.529905 65.377 117.0030
18640.635849 64.515 120.6133
18775.713581 63.731 124.1198
18911.770141 63.014 127.4255
19048.812624 62.344 130.4767
19186.848172 61.706 133.2572
19325.883983 61.087 135.7814
19465.927305 60.483 138.0764
19606.985439 59.907 140.1523
19749.065738 59.395 141.9645
19892.175609 59.001 143.3771
20036.322514 58.784 144.1753
