* Measurement data measured by REW V5.30.9
* Source: EXCL: Microphone (USB Sound Device        ), MICROPHONE (Master Volume), L, volume: 0.560
* Format: 256k Log Swept Sine, 1 sweep at -9.0 dBFS with no timing reference
* Dated: Apr 9, 2024 11:24:32 AM
* REW Settings:
*  C-weighting compensation: Off
*  Target level: 75.0 dB
* Note: MOONDROP x Crinacle DUSK 2 3.5 R
* Measurement: R MOONDROP x Crinacle D
* Smoothing: 1/12 octave
* Frequency Step: 96 ppo
* Start Frequency: 0.36621094 Hz
*
* Freq(Hz) SPL(dB) Phase(degrees)
0.366211 79.229 166.0615
0.368865 79.223 166.0462
0.371538 79.212 166.0232
0.374230 79.200 165.9942
0.376942 79.186 165.9609
0.379673 79.170 165.9243
0.382424 79.155 165.8850
0.385196 79.138 165.8436
0.387987 79.122 165.8003
0.390798 79.105 165.7552
0.393630 79.088 165.7084
0.396483 79.071 165.6599
0.399356 79.053 165.6098
0.402250 79.036 165.5579
0.405165 79.018 165.5044
0.408101 79.001 165.4491
0.411058 78.983 165.3922
0.414037 78.965 165.3335
0.417037 78.947 165.2730
0.420059 78.929 165.2107
0.423103 78.911 165.1467
0.426169 78.892 165.0808
0.429257 78.874 165.0132
0.432367 78.855 164.9436
0.435501 78.836 164.8723
0.438656 78.817 164.7990
0.441835 78.798 164.7239
0.445037 78.779 164.6469
0.448262 78.759 164.5679
0.451510 78.740 164.4870
0.454782 78.720 164.4042
0.458077 78.700 164.3195
0.461397 78.680 164.2327
0.464740 78.660 164.1440
0.468108 78.640 164.0533
0.471500 78.619 163.9605
0.474917 78.599 163.8658
0.478358 78.578 163.7690
0.481825 78.557 163.6702
0.485316 78.536 163.5693
0.488833 78.515 163.4664
0.492375 78.494 163.3614
0.495943 78.472 163.2543
0.499537 78.451 163.1452
0.503157 78.429 163.0339
0.506803 78.407 162.9206
0.510475 78.385 162.8052
0.514174 78.363 162.6877
0.517900 78.340 162.5680
0.521653 78.318 162.4463
0.525433 78.295 162.3225
0.529241 78.272 162.1965
0.533076 78.249 162.0685
0.536939 78.226 161.9384
0.540830 78.202 161.8061
0.544749 78.179 161.6718
0.548696 78.155 161.5354
0.552673 78.131 161.3970
0.556677 78.107 161.2565
0.560711 78.083 161.1140
0.564774 78.058 160.9694
0.568867 78.034 160.8228
0.572989 78.009 160.6742
0.577141 77.984 160.5237
0.581324 77.959 160.3712
0.585536 77.934 160.2169
0.589779 77.908 160.0606
0.594053 77.882 159.9025
0.598358 77.856 159.7425
0.602694 77.830 159.5808
0.607061 77.804 159.4173
0.611460 77.778 159.2522
0.615891 77.751 159.0854
0.620354 77.724 158.9169
0.624849 77.697 158.7470
0.629377 77.670 158.5756
0.633938 77.643 158.4027
0.638532 77.615 158.2285
0.643159 77.587 158.0530
0.647819 77.559 157.8763
0.652514 77.531 157.6985
0.657242 77.502 157.5197
0.662005 77.474 157.3399
0.666802 77.445 157.1592
0.671634 77.416 156.9779
0.676501 77.387 156.7959
0.681403 77.357 156.6134
0.686341 77.327 156.4305
0.691314 77.297 156.2473
0.696324 77.267 156.0640
0.701369 77.236 155.8806
0.706452 77.205 155.6973
0.711571 77.173 155.5140
0.716727 77.140 155.3307
0.721921 77.105 155.1473
0.727153 77.068 154.9633
0.732422 77.027 154.7780
0.737729 76.984 154.5909
0.743075 76.937 154.4009
0.748460 76.887 154.2074
0.753883 76.836 154.0099
0.759346 76.784 153.8078
0.764849 76.730 153.6011
0.770391 76.676 153.3893
0.775974 76.620 153.1724
0.781597 76.565 152.9502
0.787261 76.508 152.7227
0.792965 76.451 152.4898
0.798712 76.394 152.2513
0.804499 76.335 152.0071
0.810329 76.276 151.7573
0.816201 76.216 151.5016
0.822116 76.155 151.2401
0.828073 76.093 150.9726
0.834073 76.031 150.6990
0.840118 75.967 150.4193
0.846205 75.902 150.1334
0.852337 75.835 149.8411
0.858514 75.768 149.5425
0.864735 75.699 149.2374
0.871001 75.629 148.9257
0.877313 75.557 148.6074
0.883670 75.484 148.2823
0.890074 75.409 147.9505
0.896523 75.332 147.6119
0.903020 75.253 147.2663
0.909564 75.173 146.9138
0.916155 75.090 146.5542
0.922793 75.005 146.1875
0.929480 74.918 145.8138
0.936216 74.829 145.4328
0.943000 74.737 145.0447
0.949833 74.643 144.6493
0.956716 74.546 144.2467
0.963649 74.446 143.8369
0.970632 74.343 143.4198
0.977666 74.237 142.9956
0.984750 74.128 142.5641
0.991886 74.016 142.1257
0.999074 73.900 141.6801
1.006313 73.781 141.2276
1.013605 73.658 140.7683
1.020950 73.530 140.3023
1.028349 73.399 139.8298
1.035801 73.264 139.3509
1.043306 73.124 138.8658
1.050867 72.979 138.3747
1.058482 72.830 137.8779
1.066152 72.675 137.3753
1.073878 72.514 136.8669
1.081659 72.347 136.3525
1.089498 72.172 135.8314
1.097393 71.988 135.3024
1.105345 71.794 134.7638
1.113355 71.588 134.2136
1.121422 71.368 133.6496
1.129549 71.134 133.0695
1.137734 70.886 132.4714
1.145978 70.623 131.8529
1.154283 70.345 131.2119
1.162647 70.054 130.5462
1.171072 69.750 129.8530
1.179558 69.433 129.1295
1.188106 69.104 128.3727
1.196715 68.764 127.5789
1.205387 68.415 126.7440
1.214122 68.057 125.8635
1.222920 67.690 124.9321
1.231781 67.318 123.9438
1.240708 66.939 122.8916
1.249698 66.556 121.7675
1.258754 66.170 120.5621
1.267875 65.782 119.2647
1.277063 65.394 117.8625
1.286317 65.008 116.3405
1.295638 64.624 114.6814
1.305027 64.244 112.8643
1.314484 63.871 110.8648
1.324009 63.506 108.6542
1.333603 63.150 106.1983
1.343267 62.807 103.4575
1.353001 62.479 100.3859
1.362805 62.167 96.9315
1.372681 61.874 93.0375
1.382628 61.602 88.6451
1.392647 61.355 83.7004
1.402739 61.135 78.1641
1.412904 60.946 72.0266
1.423142 60.789 65.3260
1.433455 60.668 58.1623
1.443842 60.587 50.6995
1.454305 60.548 43.1491
1.464843 60.552 35.7352
1.475458 60.602 28.6553
1.486150 60.697 22.0538
1.496919 60.839 16.0122
1.507766 61.025 10.5570
1.518692 61.255 5.6732
1.529697 61.526 1.3209
1.540782 61.836 -2.5526
1.551947 62.183 -6.0032
1.563193 62.564 -9.0850
1.574521 62.977 -11.8476
1.585931 63.418 -14.3347
1.597423 63.886 -16.5845
1.608998 64.376 -18.6297
1.620658 64.886 -20.4981
1.632402 65.413 -22.2135
1.644231 65.953 -23.7961
1.656146 66.503 -25.2628
1.668147 67.060 -26.6285
1.680235 67.620 -27.9057
1.692410 68.180 -29.1050
1.704674 68.736 -30.2357
1.717027 69.284 -31.3059
1.729469 69.821 -32.3226
1.742002 70.344 -33.2920
1.754625 70.849 -34.2193
1.767340 71.332 -35.1096
1.780147 71.792 -35.9670
1.793046 72.227 -36.7957
1.806040 72.635 -37.5994
1.819127 73.016 -38.3815
1.832309 73.373 -39.1454
1.845587 73.709 -39.8939
1.858961 74.025 -40.6292
1.872431 74.326 -41.3529
1.886000 74.612 -42.0660
1.899666 74.886 -42.7690
1.913432 75.149 -43.4620
1.927298 75.401 -44.1452
1.941264 75.643 -44.8185
1.955331 75.875 -45.4819
1.969500 76.099 -46.1354
1.983772 76.315 -46.7789
1.998147 76.524 -47.4125
2.012626 76.726 -48.0361
2.027211 76.922 -48.6498
2.041901 77.113 -49.2536
2.056697 77.300 -49.8477
2.071601 77.482 -50.4320
2.086613 77.663 -51.0069
2.101733 77.841 -51.5724
2.116963 78.018 -52.1289
2.132303 78.195 -52.6767
2.147755 78.372 -53.2166
2.163318 78.549 -53.7493
2.178995 78.726 -54.2760
2.194785 78.903 -54.7984
2.210689 79.078 -55.3180
2.226709 79.251 -55.8365
2.242844 79.421 -56.3550
2.259097 79.587 -56.8740
2.275467 79.749 -57.3935
2.291956 79.906 -57.9135
2.308565 80.059 -58.4333
2.325294 80.208 -58.9524
2.342144 80.354 -59.4702
2.359116 80.495 -59.9860
2.376211 80.633 -60.4991
2.393430 80.769 -61.0089
2.410774 80.901 -61.5149
2.428243 81.032 -62.0163
2.445839 81.160 -62.5127
2.463562 81.286 -63.0037
2.481415 81.412 -63.4889
2.499396 81.536 -63.9682
2.517508 81.659 -64.4418
2.535750 81.782 -64.9101
2.554126 81.903 -65.3740
2.572634 82.023 -65.8348
2.591276 82.141 -66.2940
2.610054 82.257 -66.7526
2.628967 82.371 -67.2113
2.648018 82.482 -67.6705
2.667206 82.591 -68.1300
2.686534 82.697 -68.5895
2.706002 82.801 -69.0483
2.725610 82.902 -69.5060
2.745361 83.002 -69.9617
2.765255 83.099 -70.4147
2.785294 83.195 -70.8644
2.805477 83.289 -71.3101
2.825807 83.382 -71.7511
2.846284 83.474 -72.1868
2.866909 83.565 -72.6169
2.887684 83.654 -73.0413
2.908609 83.743 -73.4604
2.929686 83.830 -73.8747
2.950916 83.916 -74.2851
2.972299 84.001 -74.6928
2.993838 84.084 -75.0984
3.015532 84.165 -75.5022
3.037384 84.244 -75.9044
3.059394 84.321 -76.3048
3.081564 84.397 -76.7029
3.103894 84.471 -77.0983
3.126386 84.544 -77.4904
3.149041 84.616 -77.8785
3.171861 84.687 -78.2620
3.194845 84.757 -78.6403
3.217996 84.826 -79.0129
3.241315 84.894 -79.3792
3.264803 84.962 -79.7392
3.288461 85.029 -80.0927
3.312291 85.095 -80.4402
3.336293 85.160 -80.7822
3.360469 85.225 -81.1190
3.384820 85.288 -81.4513
3.409348 85.350 -81.7793
3.434054 85.411 -82.1033
3.458938 85.471 -82.4235
3.484003 85.531 -82.7400
3.509250 85.589 -83.0528
3.534679 85.648 -83.3619
3.560293 85.705 -83.6673
3.586092 85.763 -83.9689
3.612079 85.820 -84.2665
3.638253 85.878 -84.5602
3.664618 85.935 -84.8497
3.691173 85.992 -85.1349
3.717921 86.049 -85.4161
3.744862 86.105 -85.6933
3.771999 86.161 -85.9669
3.799332 86.217 -86.2372
3.826864 86.272 -86.5049
3.854595 86.327 -86.7703
3.882527 86.383 -87.0340
3.910661 86.438 -87.2965
3.938999 86.493 -87.5581
3.967543 86.548 -87.8191
3.996294 86.604 -88.0796
4.025252 86.659 -88.3396
4.054421 86.715 -88.5989
4.083801 86.771 -88.8575
4.113394 86.827 -89.1152
4.143201 86.883 -89.3724
4.173225 86.940 -89.6296
4.203466 86.996 -89.8873
4.233926 87.052 -90.1462
4.264606 87.109 -90.4071
4.295509 87.165 -90.6705
4.326636 87.222 -90.9370
4.357989 87.278 -91.2072
4.389569 87.335 -91.4811
4.421378 87.391 -91.7588
4.453417 87.448 -92.0403
4.485688 87.504 -92.3253
4.518193 87.561 -92.6140
4.550934 87.617 -92.9062
4.583912 87.673 -93.2023
4.617129 87.729 -93.5024
4.650587 87.785 -93.8067
4.684287 87.840 -94.1156
4.718231 87.895 -94.4293
4.752421 87.950 -94.7481
4.786859 88.004 -95.0722
4.821547 88.057 -95.4016
4.856485 88.110 -95.7362
4.891677 88.163 -96.0757
4.927125 88.215 -96.4199
4.962829 88.266 -96.7682
4.998791 88.317 -97.1205
5.035015 88.367 -97.4763
5.071500 88.416 -97.8356
5.108251 88.465 -98.1984
5.145267 88.513 -98.5647
5.182552 88.559 -98.9347
5.220107 88.605 -99.3084
5.257934 88.651 -99.6855
5.296035 88.695 -100.0656
5.334412 88.738 -100.4480
5.373067 88.781 -100.8321
5.412003 88.823 -101.2172
5.451221 88.864 -101.6030
5.490722 88.904 -101.9892
5.530510 88.944 -102.3759
5.570587 88.982 -102.7631
5.610953 89.020 -103.1509
5.651613 89.057 -103.5389
5.692567 89.094 -103.9269
5.733818 89.130 -104.3143
5.775367 89.165 -104.7007
5.817218 89.200 -105.0857
5.859372 89.235 -105.4690
5.901831 89.269 -105.8505
5.944598 89.303 -106.2304
5.987675 89.336 -106.6089
6.031065 89.370 -106.9859
6.074768 89.403 -107.3617
6.118788 89.436 -107.7362
6.163127 89.469 -108.1094
6.207788 89.502 -108.4814
6.252772 89.535 -108.8521
6.298082 89.569 -109.2217
6.343721 89.603 -109.5903
6.389690 89.636 -109.9582
6.435992 89.671 -110.3260
6.482630 89.705 -110.6939
6.529606 89.740 -111.0625
6.576922 89.775 -111.4320
6.624581 89.810 -111.8026
6.672585 89.846 -112.1744
6.720938 89.882 -112.5476
6.769640 89.919 -112.9225
6.818696 89.956 -113.2994
6.868107 89.993 -113.6788
6.917876 90.030 -114.0609
6.968006 90.068 -114.4461
7.018499 90.106 -114.8343
7.069358 90.144 -115.2257
7.120586 90.182 -115.6200
7.172184 90.220 -116.0174
7.224157 90.258 -116.4176
7.276506 90.296 -116.8205
7.329235 90.333 -117.2263
7.382345 90.371 -117.6348
7.435841 90.408 -118.0458
7.489724 90.446 -118.4589
7.543997 90.482 -118.8737
7.598664 90.519 -119.2897
7.653728 90.555 -119.7065
7.709189 90.591 -120.1237
7.765053 90.626 -120.5411
7.821322 90.661 -120.9584
7.877998 90.696 -121.3751
7.935086 90.730 -121.7906
7.992587 90.764 -122.2046
8.050504 90.798 -122.6165
8.108841 90.831 -123.0261
8.167601 90.864 -123.4332
8.226787 90.897 -123.8375
8.286402 90.930 -124.2390
8.346449 90.963 -124.6374
8.406931 90.995 -125.0324
8.467851 91.028 -125.4242
8.529212 91.061 -125.8126
8.591018 91.094 -126.1977
8.653272 91.127 -126.5798
8.715977 91.160 -126.9590
8.779137 91.193 -127.3355
8.842754 91.227 -127.7095
8.906833 91.260 -128.0811
8.971375 91.294 -128.4505
9.036386 91.328 -128.8182
9.101867 91.362 -129.1842
9.167823 91.397 -129.5489
9.234257 91.431 -129.9124
9.301172 91.465 -130.2749
9.368572 91.500 -130.6364
9.436460 91.534 -130.9970
9.504841 91.568 -131.3567
9.573717 91.602 -131.7156
9.643092 91.635 -132.0736
9.712970 91.669 -132.4305
9.783354 91.702 -132.7862
9.854248 91.734 -133.1405
9.925656 91.767 -133.4931
9.997581 91.798 -133.8438
10.070028 91.830 -134.1926
10.143000 91.860 -134.5391
10.216500 91.891 -134.8832
10.290533 91.921 -135.2246
10.365103 91.950 -135.5632
10.440212 91.979 -135.8990
10.515866 92.008 -136.2320
10.592069 92.036 -136.5622
10.668823 92.063 -136.8896
10.746134 92.091 -137.2143
10.824005 92.118 -137.5366
10.902440 92.145 -137.8566
10.981443 92.171 -138.1747
11.061020 92.197 -138.4911
11.141172 92.223 -138.8060
11.221906 92.248 -139.1198
11.303225 92.273 -139.4326
11.385133 92.298 -139.7448
11.467634 92.322 -140.0565
11.550734 92.345 -140.3680
11.634435 92.368 -140.6793
11.718742 92.391 -140.9904
11.803661 92.413 -141.3015
11.889195 92.434 -141.6124
11.975349 92.454 -141.9232
12.062128 92.474 -142.2338
12.149535 92.493 -142.5440
12.237576 92.512 -142.8538
12.326254 92.530 -143.1631
12.415575 92.547 -143.4718
12.505544 92.563 -143.7799
12.596164 92.579 -144.0874
12.687441 92.594 -144.3944
12.779379 92.609 -144.7010
12.871984 92.624 -145.0074
12.965260 92.637 -145.3138
13.059211 92.651 -145.6203
13.153843 92.664 -145.9272
13.249161 92.677 -146.2349
13.345170 92.689 -146.5435
13.441875 92.701 -146.8532
13.539280 92.713 -147.1643
13.637391 92.724 -147.4768
13.736214 92.735 -147.7909
13.835752 92.746 -148.1065
13.936011 92.756 -148.4236
14.036998 92.766 -148.7422
14.138716 92.775 -149.0621
14.241171 92.784 -149.3832
14.344368 92.793 -149.7052
14.448313 92.802 -150.0282
14.553011 92.810 -150.3519
14.658468 92.818 -150.6762
14.764689 92.826 -151.0011
14.871680 92.834 -151.3267
14.979446 92.842 -151.6528
15.087994 92.850 -151.9797
15.197328 92.857 -152.3074
15.307454 92.865 -152.6360
15.418378 92.873 -152.9657
15.530106 92.881 -153.2963
15.642643 92.890 -153.6280
15.755996 92.898 -153.9607
15.870171 92.906 -154.2942
15.985172 92.914 -154.6284
16.101007 92.922 -154.9628
16.217682 92.930 -155.2972
16.335201 92.937 -155.6312
16.453573 92.945 -155.9643
16.572803 92.953 -156.2962
16.692898 92.960 -156.6263
16.813862 92.968 -156.9543
16.935701 92.975 -157.2801
17.058424 92.983 -157.6032
17.182035 92.990 -157.9237
17.306543 92.998 -158.2415
17.431953 93.006 -158.5564
17.558273 93.013 -158.8687
17.685509 93.021 -159.1784
17.813665 93.029 -159.4855
17.942751 93.037 -159.7902
18.072771 93.045 -160.0925
18.203733 93.053 -160.3925
18.335646 93.061 -160.6901
18.468513 93.068 -160.9854
18.602345 93.075 -161.2784
18.737144 93.082 -161.5690
18.872921 93.089 -161.8571
19.009682 93.096 -162.1429
19.147434 93.102 -162.4263
19.286184 93.108 -162.7075
19.425940 93.113 -162.9866
19.566708 93.118 -163.2639
19.708496 93.123 -163.5395
19.851313 93.127 -163.8137
19.995163 93.131 -164.0868
20.140057 93.134 -164.3590
20.285999 93.137 -164.6305
20.433001 93.139 -164.9015
20.581066 93.141 -165.1722
20.730206 93.142 -165.4425
20.880424 93.142 -165.7124
21.031733 93.141 -165.9818
21.184137 93.140 -166.2505
21.337646 93.138 -166.5184
21.492268 93.135 -166.7853
21.648010 93.131 -167.0510
21.804880 93.128 -167.3153
21.962887 93.123 -167.5782
22.122040 93.119 -167.8400
22.282345 93.114 -168.1008
22.443811 93.109 -168.3612
22.606449 93.104 -168.6218
22.770266 93.100 -168.8833
22.935268 93.095 -169.1464
23.101467 93.091 -169.4119
23.268869 93.086 -169.6803
23.437485 93.082 -169.9520
23.607323 93.078 -170.2270
23.778391 93.073 -170.5051
23.950699 93.068 -170.7858
24.124256 93.063 -171.0683
24.299070 93.058 -171.3517
24.475151 93.052 -171.6351
24.652508 93.046 -171.9176
24.831150 93.040 -172.1983
25.011087 93.034 -172.4770
25.192327 93.028 -172.7532
25.374882 93.022 -173.0269
25.558758 93.017 -173.2982
25.743967 93.011 -173.5672
25.930519 93.006 -173.8342
26.118422 93.001 -174.0992
26.307686 92.996 -174.3621
26.498322 92.990 -174.6228
26.690340 92.985 -174.8812
26.883749 92.980 -175.1370
27.078560 92.975 -175.3903
27.274782 92.970 -175.6410
27.472427 92.964 -175.8892
27.671503 92.958 -176.1351
27.872023 92.953 -176.3791
28.073996 92.946 -176.6212
28.277431 92.940 -176.8616
28.482342 92.933 -177.1005
28.688736 92.925 -177.3376
28.896626 92.917 -177.5731
29.106022 92.909 -177.8068
29.316936 92.900 -178.0388
29.529379 92.890 -178.2695
29.743361 92.881 -178.4993
29.958893 92.870 -178.7287
30.175987 92.860 -178.9582
30.394655 92.849 -179.1884
30.614908 92.838 -179.4196
30.836756 92.826 -179.6518
31.060211 92.814 -179.8851
31.285286 92.802 179.8808
31.511992 92.789 179.6462
31.740341 92.775 179.4113
31.970345 92.762 179.1761
32.202015 92.749 178.9409
32.435364 92.735 178.7051
32.670403 92.721 178.4686
32.907146 92.708 178.2312
33.145607 92.694 177.9926
33.385796 92.681 177.7531
33.627724 92.667 177.5129
33.871403 92.653 177.2726
34.116848 92.639 177.0331
34.364071 92.624 176.7949
34.613087 92.610 176.5588
34.863907 92.595 176.3252
35.116547 92.580 176.0943
35.371017 92.565 175.8661
35.627331 92.550 175.6402
35.885502 92.535 175.4166
36.145542 92.519 175.1950
36.407467 92.504 174.9755
36.671291 92.488 174.7581
36.937027 92.471 174.5432
37.204689 92.454 174.3307
37.474289 92.437 174.1208
37.745842 92.420 173.9136
38.019363 92.402 173.7086
38.294868 92.384 173.5057
38.572369 92.365 173.3041
38.851879 92.347 173.1036
39.133415 92.328 172.9035
39.416992 92.309 172.7033
39.702625 92.290 172.5026
39.990326 92.271 172.3011
40.280113 92.251 172.0986
40.571999 92.231 171.8953
40.866001 92.211 171.6915
41.162132 92.190 171.4877
41.460411 92.169 171.2847
41.760849 92.148 171.0830
42.063465 92.126 170.8833
42.368275 92.104 170.6862
42.675293 92.081 170.4922
42.984535 92.059 170.3016
43.296021 92.036 170.1145
43.609760 92.014 169.9305
43.925774 91.991 169.7491
44.244080 91.969 169.5698
44.564690 91.947 169.3914
44.887623 91.925 169.2136
45.212898 91.903 169.0358
45.540531 91.881 168.8579
45.870537 91.858 168.6802
46.202934 91.835 168.5033
46.537739 91.812 168.3274
46.874969 91.788 168.1529
47.214645 91.763 167.9803
47.556782 91.739 167.8097
47.901398 91.713 167.6415
48.248512 91.688 167.4760
48.598141 91.662 167.3134
48.950302 91.636 167.1537
49.305016 91.610 166.9966
49.662300 91.584 166.8417
50.022175 91.558 166.6885
50.384655 91.532 166.5370
50.749763 91.505 166.3878
51.117516 91.478 166.2416
51.487934 91.451 166.0993
51.861038 91.425 165.9608
52.236843 91.398 165.8254
52.615372 91.372 165.6917
52.996643 91.346 165.5581
53.380680 91.320 165.4238
53.767498 91.294 165.2888
54.157120 91.267 165.1541
54.549564 91.240 165.0211
54.944855 91.213 164.8904
55.343006 91.186 164.7619
55.744045 91.160 164.6344
56.147991 91.133 164.5061
56.554863 91.107 164.3755
56.964684 91.081 164.2418
57.377472 91.055 164.1050
57.793251 91.028 163.9661
58.212044 91.001 163.8264
58.633873 90.973 163.6874
59.058758 90.944 163.5499
59.486721 90.915 163.4144
59.917786 90.886 163.2808
60.351974 90.857 163.1490
60.789310 90.826 163.0196
61.229816 90.796 162.8932
61.673512 90.765 162.7704
62.120422 90.733 162.6516
62.570572 90.702 162.5364
63.023983 90.670 162.4245
63.480682 90.638 162.3159
63.940689 90.605 162.2106
64.404030 90.572 162.1089
64.870728 90.539 162.0104
65.340805 90.506 161.9146
65.814293 90.473 161.8210
66.291214 90.440 161.7288
66.771591 90.407 161.6378
67.255447 90.374 161.5475
67.742805 90.340 161.4575
68.233696 90.307 161.3674
68.728142 90.274 161.2772
69.226173 90.241 161.1873
69.727814 90.207 161.0976
70.233093 90.174 161.0073
70.742035 90.140 160.9166
71.254662 90.106 160.8275
71.771004 90.071 160.7448
72.291084 90.036 160.6731
72.814934 90.001 160.6140
73.342583 89.968 160.5639
73.874054 89.936 160.5174
74.409378 89.904 160.4701
74.948578 89.873 160.4213
75.491684 89.841 160.3736
76.038727 89.809 160.3298
76.589737 89.777 160.2914
77.144737 89.745 160.2574
77.703758 89.714 160.2247
78.266830 89.683 160.1900
78.833984 89.653 160.1508
79.405251 89.623 160.1058
79.980652 89.593 160.0546
80.560226 89.564 159.9962
81.143997 89.534 159.9280
81.732002 89.503 159.8486
82.324265 89.470 159.7594
82.920822 89.434 159.6667
83.521698 89.395 159.5795
84.126930 89.353 159.5043
84.736549 89.310 159.4433
85.350586 89.266 159.3951
85.969070 89.221 159.3580
86.592041 89.175 159.3307
87.219521 89.130 159.3120
87.851547 89.084 159.3008
88.488159 89.039 159.2962
89.129379 88.995 159.2980
89.775246 88.951 159.3062
90.425797 88.907 159.3209
91.081062 88.864 159.3419
91.741074 88.823 159.3680
92.405869 88.781 159.3984
93.075478 88.741 159.4319
93.749939 88.700 159.4679
94.429291 88.660 159.5058
95.113564 88.619 159.5450
95.802795 88.578 159.5848
96.497025 88.537 159.6250
97.196281 88.494 159.6659
97.900604 88.451 159.7082
98.610031 88.407 159.7530
99.324600 88.362 159.8018
100.044350 88.317 159.8566
100.769310 88.271 159.9205
101.499527 88.225 159.9977
102.235031 88.178 160.0930
102.975868 88.133 160.2096
103.722076 88.091 160.3455
104.473686 88.051 160.4952
105.230743 88.014 160.6536
105.993286 87.979 160.8186
106.761360 87.948 160.9892
107.534996 87.919 161.1628
108.314240 87.894 161.3341
109.099129 87.871 161.4958
109.889709 87.851 161.6414
110.686012 87.832 161.7654
111.488091 87.813 161.8642
112.295982 87.793 161.9362
113.109726 87.771 161.9829
113.929367 87.745 162.0094
114.754944 87.716 162.0239
115.586502 87.682 162.0364
116.424088 87.645 162.0564
117.267746 87.605 162.0915
118.117516 87.564 162.1464
118.973442 87.522 162.2242
119.835571 87.481 162.3261
120.703949 87.442 162.4501
121.578621 87.404 162.5899
122.459633 87.369 162.7382
123.347023 87.335 162.8896
124.240845 87.301 163.0414
125.141144 87.266 163.1926
126.047966 87.231 163.3438
126.961365 87.194 163.4965
127.881378 87.157 163.6525
128.808060 87.119 163.8133
129.741455 87.081 163.9791
130.681610 87.044 164.1489
131.628586 87.009 164.3215
132.582428 86.974 164.4966
133.543182 86.939 164.6752
134.510895 86.904 164.8599
135.485611 86.869 165.0533
136.467392 86.833 165.2570
137.456284 86.796 165.4697
138.452347 86.759 165.6898
139.455627 86.721 165.9169
140.466187 86.683 166.1548
141.484070 86.644 166.4116
142.509323 86.608 166.6982
143.542007 86.574 167.0242
144.582169 86.546 167.3914
145.629868 86.525 167.7896
146.685165 86.511 168.2006
147.748108 86.504 168.6064
148.818756 86.504 168.9916
149.897156 86.508 169.3423
150.983368 86.516 169.6492
152.077454 86.528 169.9084
153.179474 86.542 170.1193
154.289474 86.558 170.2835
155.407516 86.574 170.4060
156.533661 86.588 170.4960
157.667969 86.600 170.5648
158.810501 86.607 170.6248
159.961304 86.608 170.6873
161.120453 86.603 170.7593
162.287994 86.594 170.8420
163.464005 86.581 170.9316
164.648529 86.565 171.0217
165.841644 86.547 171.1077
167.043396 86.527 171.1906
168.253860 86.505 171.2778
169.473099 86.482 171.3782
170.701172 86.460 171.4971
171.938141 86.438 171.6350
173.184082 86.418 171.7882
174.439041 86.399 171.9512
175.703094 86.381 172.1186
176.976318 86.364 172.2870
178.258759 86.348 172.4550
179.550491 86.334 172.6234
180.851593 86.320 172.7936
182.162125 86.306 172.9664
183.482147 86.292 173.1411
184.811737 86.279 173.3159
186.150955 86.264 173.4897
187.499878 86.248 173.6622
188.858582 86.232 173.8346
190.227127 86.215 174.0087
191.605591 86.198 174.1861
192.994049 86.181 174.3676
194.392563 86.163 174.5538
195.801208 86.147 174.7455
197.220062 86.130 174.9442
198.649200 86.114 175.1516
200.088699 86.099 175.3694
201.538620 86.085 175.5979
202.999054 86.073 175.8350
204.470062 86.062 176.0757
205.951736 86.054 176.3141
207.444153 86.046 176.5452
208.947372 86.039 176.7669
210.461487 86.033 176.9801
211.986572 86.026 177.1882
213.522720 86.018 177.3955
215.069992 86.010 177.6063
216.628479 86.003 177.8237
218.198257 85.996 178.0479
219.779419 85.991 178.2756
221.372025 85.989 178.5011
222.976181 85.988 178.7192
224.591965 85.987 178.9274
226.219452 85.988 179.1258
227.858734 85.988 179.3164
229.509888 85.988 179.5018
231.173004 85.988 179.6840
232.848175 85.987 179.8640
234.535492 85.986 -179.9583
236.235031 85.984 -179.7835
237.946884 85.982 -179.6121
239.671143 85.979 -179.4437
241.407898 85.975 -179.2766
243.157242 85.971 -179.1075
244.919266 85.965 -178.9330
246.694046 85.959 -178.7499
248.481689 85.952 -178.5553
250.282288 85.945 -178.3471
252.095932 85.939 -178.1242
253.922729 85.935 -177.8882
255.762756 85.934 -177.6450
257.616119 85.936 -177.4051
259.482910 85.941 -177.1794
261.363220 85.946 -176.9736
263.257172 85.951 -176.7860
265.164856 85.955 -176.6095
267.086365 85.956 -176.4347
269.021790 85.957 -176.2538
270.971222 85.956 -176.0626
272.934784 85.956 -175.8606
274.912567 85.957 -175.6502
276.904694 85.959 -175.4346
278.911255 85.963 -175.2170
280.932373 85.969 -175.0005
282.968140 85.977 -174.7893
285.018646 85.988 -174.5884
287.084015 86.000 -174.4041
289.164337 86.012 -174.2415
291.259735 86.024 -174.1011
293.370331 86.034 -173.9776
295.496216 86.041 -173.8614
297.637512 86.045 -173.7431
299.794312 86.046 -173.6168
301.966736 86.047 -173.4804
304.154907 86.048 -173.3345
306.358948 86.048 -173.1813
308.578949 86.050 -173.0240
310.815033 86.052 -172.8655
313.067322 86.054 -172.7078
315.335938 86.056 -172.5506
317.621002 86.057 -172.3914
319.922607 86.058 -172.2269
322.240906 86.060 -172.0557
324.575989 86.061 -171.8792
326.928009 86.064 -171.7004
329.297058 86.068 -171.5225
331.683289 86.073 -171.3480
334.086792 86.079 -171.1788
336.507721 86.085 -171.0166
338.946198 86.090 -170.8621
341.402344 86.095 -170.7135
343.876282 86.099 -170.5674
346.368164 86.103 -170.4202
348.878082 86.105 -170.2693
351.406189 86.108 -170.1144
353.952637 86.111 -169.9566
356.517517 86.114 -169.7970
359.100983 86.117 -169.6368
361.703186 86.120 -169.4768
364.324249 86.123 -169.3170
366.964294 86.126 -169.1574
369.623474 86.129 -168.9976
372.301910 86.132 -168.8373
374.999756 86.135 -168.6761
377.717163 86.138 -168.5141
380.454254 86.141 -168.3515
383.211182 86.145 -168.1887
385.988098 86.149 -168.0259
388.785126 86.152 -167.8630
391.602417 86.157 -167.6996
394.440125 86.161 -167.5350
397.298401 86.166 -167.3696
400.177399 86.171 -167.2046
403.077240 86.176 -167.0422
405.998108 86.181 -166.8837
408.940125 86.185 -166.7289
411.903473 86.190 -166.5758
414.888306 86.193 -166.4208
417.894745 86.196 -166.2607
420.922974 86.199 -166.0929
423.973145 86.202 -165.9161
427.045441 86.206 -165.7319
430.139984 86.211 -165.5440
433.256958 86.219 -165.3579
436.396515 86.227 -165.1770
439.558838 86.237 -165.0025
442.744049 86.247 -164.8344
445.952362 86.259 -164.6742
449.183929 86.271 -164.5260
452.438904 86.284 -164.3950
455.717468 86.295 -164.2840
459.019775 86.305 -164.1895
462.346008 86.310 -164.1009
465.696350 86.313 -164.0061
469.070984 86.313 -163.8976
472.470062 86.312 -163.7739
475.893768 86.311 -163.6382
479.342285 86.310 -163.4965
482.815796 86.310 -163.3549
486.314484 86.308 -163.2149
489.838531 86.306 -163.0715
493.388092 86.303 -162.9170
496.963379 86.300 -162.7477
500.564575 86.298 -162.5674
504.191864 86.297 -162.3839
507.845459 86.298 -162.2039
511.525513 86.299 -162.0302
515.232239 86.301 -161.8620
518.965820 86.301 -161.6953
522.726440 86.301 -161.5251
526.514343 86.299 -161.3467
530.329712 86.299 -161.1580
534.172729 86.298 -160.9617
538.043579 86.299 -160.7627
541.942444 86.300 -160.5632
545.869568 86.302 -160.3622
549.825134 86.304 -160.1585
553.809387 86.306 -159.9542
557.822510 86.309 -159.7526
561.864746 86.312 -159.5565
565.936279 86.315 -159.3661
570.037292 86.316 -159.1779
574.168030 86.318 -158.9879
578.328674 86.318 -158.7939
582.519470 86.319 -158.5957
586.740662 86.319 -158.3933
590.992432 86.319 -158.1843
595.275024 86.320 -157.9658
599.588623 86.320 -157.7388
603.933472 86.322 -157.5078
608.309814 86.324 -157.2771
612.717896 86.326 -157.0479
617.157898 86.328 -156.8179
621.630066 86.328 -156.5812
626.134644 86.329 -156.3311
630.671875 86.330 -156.0651
635.242004 86.333 -155.7871
639.845215 86.338 -155.5039
644.481812 86.345 -155.2185
649.151978 86.354 -154.9310
653.856018 86.366 -154.6431
658.594116 86.380 -154.3615
663.366577 86.397 -154.0959
668.173584 86.414 -153.8538
673.015442 86.431 -153.6339
677.892395 86.446 -153.4276
682.804688 86.458 -153.2256
687.752563 86.468 -153.0211
692.736328 86.476 -152.8092
697.756165 86.483 -152.5858
702.812378 86.489 -152.3490
707.905273 86.496 -152.1010
713.035034 86.504 -151.8461
718.201965 86.512 -151.5881
723.406372 86.521 -151.3281
728.648499 86.530 -151.0654
733.928589 86.539 -150.7988
739.246948 86.548 -150.5276
744.603821 86.557 -150.2515
749.999512 86.567 -149.9699
755.434326 86.577 -149.6826
760.908508 86.588 -149.3894
766.422363 86.600 -149.0906
771.976196 86.613 -148.7871
777.570251 86.627 -148.4798
783.204834 86.642 -148.1692
788.880249 86.658 -147.8537
794.596802 86.674 -147.5301
800.354797 86.693 -147.1959
806.154480 86.713 -146.8528
811.996216 86.738 -146.5077
817.880249 86.765 -146.1697
823.806946 86.796 -145.8484
829.776611 86.829 -145.5514
835.789490 86.861 -145.2802
841.845947 86.892 -145.0276
847.946289 86.921 -144.7824
854.090881 86.947 -144.5361
860.279968 86.973 -144.2848
866.513916 86.997 -144.0255
872.793030 87.022 -143.7558
879.117676 87.047 -143.4765
885.488098 87.073 -143.1925
891.904724 87.101 -142.9079
898.367859 87.129 -142.6231
904.877808 87.158 -142.3355
911.434937 87.187 -142.0437
918.039551 87.219 -141.7495
924.692017 87.252 -141.4559
931.392700 87.286 -141.1663
938.141968 87.322 -140.8845
944.940125 87.359 -140.6123
951.787537 87.396 -140.3487
958.684570 87.433 -140.0912
965.631592 87.470 -139.8370
972.628967 87.506 -139.5836
979.677063 87.544 -139.3302
986.776184 87.581 -139.0769
993.926758 87.618 -138.8221
1001.129150 87.655 -138.5609
1008.383728 87.694 -138.2892
1015.690918 87.734 -138.0081
1023.051025 87.778 -137.7232
1030.464478 87.825 -137.4420
1037.931641 87.875 -137.1756
1045.452881 87.928 -136.9355
1053.028687 87.982 -136.7260
1060.659424 88.034 -136.5426
1068.345459 88.085 -136.3751
1076.087158 88.134 -136.2127
1083.884888 88.181 -136.0478
1091.739136 88.227 -135.8780
1099.650269 88.274 -135.7038
1107.618774 88.320 -135.5259
1115.645020 88.368 -135.3451
1123.729492 88.416 -135.1624
1131.872559 88.465 -134.9790
1140.074585 88.516 -134.7968
1148.336060 88.569 -134.6178
1156.657349 88.624 -134.4440
1165.038940 88.681 -134.2774
1173.481323 88.741 -134.1202
1181.984863 88.803 -133.9765
1190.550049 88.869 -133.8555
1199.177246 88.937 -133.7700
1207.866943 89.006 -133.7316
1216.619629 89.074 -133.7439
1225.435791 89.138 -133.8002
1234.315796 89.196 -133.8873
1243.260132 89.248 -133.9913
1252.269287 89.295 -134.0999
1261.343750 89.337 -134.2048
1270.484009 89.374 -134.3022
1279.690430 89.408 -134.3891
1288.963623 89.439 -134.4634
1298.303955 89.468 -134.5250
1307.712036 89.495 -134.5761
1317.188232 89.522 -134.6204
1326.733154 89.547 -134.6600
1336.347168 89.570 -134.6945
1346.030884 89.591 -134.7213
1355.784790 89.610 -134.7366
1365.609375 89.628 -134.7369
1375.505127 89.644 -134.7180
1385.472656 89.660 -134.6752
1395.512329 89.677 -134.6075
1405.624756 89.697 -134.5208
1415.810547 89.720 -134.4275
1426.070068 89.747 -134.3427
1436.403931 89.776 -134.2763
1446.812744 89.804 -134.2286
1457.296997 89.832 -134.1937
1467.857178 89.858 -134.1647
1478.493896 89.882 -134.1365
1489.207642 89.905 -134.1054
1499.999023 89.926 -134.0680
1510.868652 89.946 -134.0215
1521.817017 89.964 -133.9632
1532.844727 89.982 -133.8911
1543.952393 90.001 -133.8033
1555.140503 90.021 -133.6992
1566.409668 90.043 -133.5825
1577.760498 90.069 -133.4640
1589.193604 90.097 -133.3578
1600.709595 90.127 -133.2730
1612.308960 90.157 -133.2102
1623.992432 90.185 -133.1636
1635.760498 90.211 -133.1252
1647.613892 90.234 -133.0880
1659.553223 90.256 -133.0468
1671.578979 90.275 -132.9978
1683.691895 90.294 -132.9404
1695.892578 90.311 -132.8762
1708.181763 90.328 -132.8072
1720.559937 90.343 -132.7329
1733.027832 90.356 -132.6499
1745.586060 90.368 -132.5527
1758.235352 90.378 -132.4347
1770.976196 90.388 -132.2898
1783.809448 90.400 -132.1181
1796.735718 90.414 -131.9278
1809.755615 90.431 -131.7316
1822.869873 90.450 -131.5391
1836.079102 90.469 -131.3519
1849.384033 90.489 -131.1659
1862.785400 90.506 -130.9745
1876.283936 90.523 -130.7696
1889.880249 90.538 -130.5424
1903.575073 90.553 -130.2840
1917.369141 90.569 -129.9864
1931.263184 90.587 -129.6445
1945.257935 90.610 -129.2594
1959.354126 90.641 -128.8419
1973.552368 90.680 -128.4100
1987.853516 90.728 -127.9811
2002.258301 90.784 -127.5661
2016.767456 90.845 -127.1696
2031.381836 90.911 -126.7923
2046.102051 90.983 -126.4323
2060.928955 91.058 -126.0884
2075.863281 91.138 -125.7614
2090.905762 91.223 -125.4546
2106.057373 91.313 -125.1727
2121.318848 91.407 -124.9199
2136.690918 91.506 -124.7008
2152.174316 91.609 -124.5200
2167.769775 91.715 -124.3853
2183.478271 91.824 -124.3075
2199.300537 91.934 -124.2945
2215.237549 92.041 -124.3441
2231.290039 92.143 -124.4448
2247.458984 92.241 -124.5802
2263.745117 92.333 -124.7340
2280.149170 92.422 -124.8934
2296.672119 92.509 -125.0507
2313.314697 92.595 -125.2050
2330.077881 92.684 -125.3644
2346.962646 92.776 -125.5462
2363.969727 92.870 -125.7705
2381.100098 92.965 -126.0506
2398.354492 93.055 -126.3892
2415.733887 93.141 -126.7800
2433.239258 93.219 -127.2108
2450.871582 93.289 -127.6680
2468.631592 93.349 -128.1390
2486.520264 93.402 -128.6114
2504.538574 93.445 -129.0709
2522.687500 93.481 -129.5015
2540.968018 93.512 -129.8891
2559.380859 93.541 -130.2285
2577.927246 93.570 -130.5250
2596.607910 93.601 -130.7895
2615.424072 93.634 -131.0329
2634.376465 93.671 -131.2642
2653.466309 93.711 -131.4892
2672.694336 93.753 -131.7108
2692.061768 93.800 -131.9314
2711.569580 93.850 -132.1567
2731.218750 93.905 -132.3993
2751.010254 93.965 -132.6763
2770.945312 94.027 -133.0023
2791.024658 94.089 -133.3847
2811.249512 94.149 -133.8231
2831.621094 94.204 -134.3117
2852.140137 94.253 -134.8420
2872.807861 94.294 -135.4027
2893.625488 94.327 -135.9788
2914.593994 94.351 -136.5519
2935.714355 94.367 -137.1056
2956.987793 94.378 -137.6317
2978.415283 94.385 -138.1294
2999.998047 94.390 -138.6018
3021.737305 94.392 -139.0515
3043.634033 94.393 -139.4785
3065.689453 94.393 -139.8796
3087.904785 94.392 -140.2509
3110.281006 94.393 -140.5937
3132.819336 94.398 -140.9178
3155.520996 94.407 -141.2377
3178.387207 94.419 -141.5677
3201.419189 94.434 -141.9187
3224.617920 94.449 -142.2984
3247.984863 94.464 -142.7108
3271.520996 94.476 -143.1546
3295.227783 94.484 -143.6210
3319.106445 94.485 -144.0968
3343.157959 94.481 -144.5708
3367.383789 94.471 -145.0357
3391.785156 94.455 -145.4860
3416.363525 94.434 -145.9138
3441.119873 94.408 -146.3063
3466.055664 94.377 -146.6467
3491.172119 94.345 -146.9213
3516.470703 94.314 -147.1271
3541.952393 94.288 -147.2727
3567.618896 94.270 -147.3748
3593.471436 94.261 -147.4533
3619.511230 94.261 -147.5285
3645.739746 94.268 -147.6180
3672.158203 94.281 -147.7318
3698.768066 94.298 -147.8713
3725.570801 94.318 -148.0354
3752.567871 94.340 -148.2256
3779.760498 94.365 -148.4458
3807.150146 94.390 -148.6978
3834.738281 94.413 -148.9765
3862.526367 94.435 -149.2699
3890.515869 94.454 -149.5652
3918.708252 94.473 -149.8554
3947.104736 94.493 -150.1404
3975.707031 94.516 -150.4251
4004.516602 94.542 -150.7179
4033.534912 94.570 -151.0282
4062.763672 94.600 -151.3612
4092.204102 94.631 -151.7164
4121.857910 94.663 -152.0927
4151.726562 94.696 -152.4924
4181.811523 94.730 -152.9195
4212.114746 94.762 -153.3751
4242.637695 94.793 -153.8528
4273.381836 94.823 -154.3427
4304.348633 94.853 -154.8389
4335.539551 94.884 -155.3433
4366.956543 94.919 -155.8657
4398.601074 94.957 -156.4214
4430.475098 94.998 -157.0269
4462.580078 95.040 -157.6925
4494.917969 95.081 -158.4224
4527.490234 95.120 -159.2184
4560.298340 95.154 -160.0829
4593.344238 95.182 -161.0159
4626.629395 95.201 -162.0102
4660.155762 95.210 -163.0515
4693.925293 95.208 -164.1249
4727.939453 95.195 -165.2194
4762.200195 95.173 -166.3290
4796.708984 95.140 -167.4529
4831.467773 95.097 -168.5902
4866.478516 95.043 -169.7348
4901.743164 94.976 -170.8765
4937.263184 94.897 -172.0047
4973.040527 94.805 -173.1108
5009.077148 94.701 -174.1830
5045.375000 94.585 -175.2053
5081.936035 94.457 -176.1602
5118.761719 94.321 -177.0356
5155.854492 94.179 -177.8279
5193.215820 94.036 -178.5438
5230.848145 93.892 -179.1953
5268.752930 93.748 -179.7939
5306.932617 93.606 179.6497
5345.388672 93.465 179.1236
5384.123535 93.324 178.6172
5423.139160 93.183 178.1266
5462.437500 93.039 177.6555
5502.020508 92.892 177.2109
5541.890625 92.743 176.7980
5582.049316 92.593 176.4157
5622.499023 92.442 176.0582
5663.242188 92.291 175.7193
5704.280273 92.138 175.3930
5745.615723 91.984 175.0718
5787.250977 91.828 174.7495
5829.187988 91.665 174.4265
5871.428711 91.496 174.1100
5913.975586 91.318 173.8123
5956.830566 91.131 173.5452
5999.996094 90.934 173.3184
6043.474609 90.727 173.1425
6087.268066 90.509 173.0314
6131.378906 90.279 173.0014
6175.809570 90.037 173.0726
6220.562012 89.784 173.2730
6265.638672 89.520 173.6388
6311.041992 89.249 174.2101
6356.774414 88.976 175.0214
6402.838379 88.711 176.0927
6449.235840 88.463 177.4244
6495.969727 88.241 178.9939
6543.041992 88.055 -179.2468
6590.455566 87.911 -177.3631
6638.212891 87.811 -175.4254
6686.315918 87.754 -173.4980
6734.767578 87.737 -171.6344
6783.570312 87.757 -169.8762
6832.727051 87.808 -168.2524
6882.239746 87.885 -166.7812
6932.111328 87.983 -165.4740
6982.344238 88.097 -164.3363
7032.941406 88.224 -163.3660
7083.904785 88.359 -162.5543
7135.237793 88.501 -161.8904
7186.942871 88.649 -161.3662
7239.022461 88.801 -160.9775
7291.479492 88.957 -160.7257
7344.316406 89.117 -160.6175
7397.536133 89.278 -160.6588
7451.141602 89.437 -160.8499
7505.135742 89.594 -161.1857
7559.520996 89.748 -161.6631
7614.300293 89.898 -162.2873
7669.476562 90.044 -163.0735
7725.052734 90.182 -164.0417
7781.031738 90.307 -165.2047
7837.416504 90.412 -166.5592
7894.209473 90.492 -168.0855
7951.414062 90.541 -169.7528
8009.033203 90.556 -171.5237
8067.069824 90.535 -173.3588
8125.527344 90.478 -175.2220
8184.408203 90.383 -177.0807
8243.715820 90.252 -178.9001
8303.453125 90.083 179.3603
8363.623047 89.878 177.7472
8424.229492 89.641 176.3112
8485.275391 89.377 175.1008
8546.763672 89.096 174.1511
8608.697266 88.810 173.4747
8671.079102 88.535 173.0490
8733.913086 88.283 172.8002
8797.202148 88.062 172.6012
8860.950195 87.868 172.3092
8925.160156 87.681 171.8426
8989.835938 87.479 171.2359
9054.980469 87.252 170.5931
9120.596680 87.000 169.9909
9186.688477 86.726 169.4536
9253.258789 86.425 169.0058
9320.311523 86.097 168.7159
9387.850586 85.743 168.6710
9455.878906 85.374 168.9305
9524.400391 85.002 169.5081
9593.417969 84.639 170.3830
9662.935547 84.293 171.5206
9732.957031 83.970 172.8828
9803.486328 83.675 174.4297
9874.526367 83.411 176.1208
9946.081055 83.177 177.9182
10018.154297 82.976 179.7919
10090.750000 82.805 -178.2793
10163.872070 82.666 -176.3159
10237.523438 82.559 -174.3440
10311.708984 82.483 -172.3946
10386.431641 82.435 -170.4968
10461.696289 82.414 -168.6705
10537.505859 82.416 -166.9285
10613.865234 82.439 -165.2832
10690.777344 82.481 -163.7504
10768.247070 82.537 -162.3451
10846.278320 82.603 -161.0731
10924.875000 82.675 -159.9276
11004.041016 82.748 -158.8927
11083.781250 82.819 -157.9486
11164.098633 82.889 -157.0735
11244.998047 82.955 -156.2421
11326.484375 83.019 -155.4282
11408.560547 83.084 -154.6128
11491.231445 83.152 -153.7908
11574.501953 83.228 -152.9708
11658.375977 83.311 -152.1669
11742.857422 83.404 -151.3920
11827.951172 83.505 -150.6589
11913.661133 83.615 -149.9835
11999.992188 83.731 -149.3821
12086.949219 83.851 -148.8640
12174.536133 83.971 -148.4262
12262.757812 84.090 -148.0569
12351.619141 84.206 -147.7405
12441.124023 84.318 -147.4582
12531.277344 84.426 -147.1849
12622.083984 84.531 -146.8917
12713.548828 84.640 -146.5543
12805.676758 84.756 -146.1609
12898.471680 84.887 -145.7130
12991.939453 85.040 -145.2236
13086.083984 85.220 -144.7210
13180.911133 85.434 -144.2519
13276.425781 85.684 -143.8786
13372.631836 85.969 -143.6685
13469.535156 86.286 -143.6857
13567.140625 86.628 -143.9884
13665.454102 86.987 -144.6235
13764.479492 87.352 -145.6195
13864.222656 87.713 -146.9817
13964.688477 88.058 -148.6961
14065.882812 88.381 -150.7349
14167.809570 88.672 -153.0573
14270.475586 88.929 -155.6114
14373.885742 89.149 -158.3401
14478.044922 89.333 -161.1902
14582.958984 89.486 -164.1153
14688.632812 89.613 -167.0771
14795.072266 89.722 -170.0517
14902.283203 89.823 -173.0350
15010.271484 89.924 -176.0423
15119.041992 90.034 -179.1068
15228.600586 90.161 177.7205
15338.953125 90.309 174.3719
15450.105469 90.480 170.7683
15562.063477 90.671 166.8251
15674.833008 90.876 162.4572
15788.418945 91.083 157.5852
15902.828125 91.273 152.1461
16018.066406 91.424 146.1037
16134.139648 91.511 139.4583
16251.054688 91.505 132.2556
16368.816406 91.377 124.5959
16487.431641 91.104 116.6349
16606.906250 90.667 108.5741
16727.246094 90.055 100.6444
16848.458984 89.267 93.0851
16970.550781 88.310 86.1202
17093.527344 87.201 79.9428
17217.394531 85.960 74.7065
17342.158203 84.611 70.5182
17467.826172 83.185 67.4284
17594.404297 81.713 65.4203
17721.900391 80.228 64.4029
17850.320312 78.764 64.2114
17979.671875 77.346 64.6323
18109.960938 75.993 65.4489
18241.193359 74.708 66.4882
18373.376953 73.485 67.6508
18506.517578 72.309 68.9199
18640.623047 71.161 70.3469
18775.701172 70.027 72.0269
18911.757812 68.897 74.0752
19048.800781 67.771 76.6052
19186.835938 66.654 79.6973
19325.871094 65.565 83.3616
19465.914062 64.531 87.4917
19606.972656 63.595 91.8213
19749.052734 62.809 95.9026
19892.162109 62.235 99.1502
20036.308594 61.931 100.9713
