* Measurement data measured by REW V5.31.3
* Source: EXCL: Microphone (USB Sound Device        ), MICROPHONE (Master Volume), R, volume: 0.390
* Format: 256k Log Swept Sine, 1 sweep at -1.0 dBFS with no timing reference
* Dated: Jul 4, 2025 12:19:05 AM
* REW Settings:
*  C-weighting compensation: Off
*  Target level: 75.0 dB
* Note: Moondrop Rays FPS1 L
* Measurement: L Moondrop Rays FPS1 L
* Smoothing: 1/12 octave
* Frequency Step: 96 ppo
* Start Frequency: 0.36621094 Hz
*
* Freq(Hz) SPL(dB) Phase(degrees)
0.366211 85.970 -138.8446
0.368865 85.982 -138.8222
0.371538 86.000 -138.7889
0.374230 86.022 -138.7472
0.376942 86.047 -138.6994
0.379673 86.074 -138.6473
0.382424 86.102 -138.5919
0.385196 86.130 -138.5338
0.387987 86.159 -138.4736
0.390798 86.189 -138.4115
0.393630 86.218 -138.3474
0.396483 86.248 -138.2816
0.399356 86.278 -138.2141
0.402250 86.309 -138.1448
0.405165 86.339 -138.0739
0.408101 86.370 -138.0013
0.411058 86.401 -137.9270
0.414037 86.433 -137.8511
0.417037 86.464 -137.7736
0.420059 86.496 -137.6944
0.423103 86.528 -137.6137
0.426169 86.560 -137.5314
0.429257 86.593 -137.4475
0.432368 86.625 -137.3622
0.435501 86.658 -137.2753
0.438656 86.691 -137.1869
0.441835 86.725 -137.0970
0.445037 86.758 -137.0058
0.448262 86.792 -136.9131
0.451510 86.826 -136.8190
0.454782 86.861 -136.7236
0.458077 86.895 -136.6269
0.461397 86.930 -136.5289
0.464740 86.965 -136.4297
0.468108 87.001 -136.3292
0.471500 87.036 -136.2276
0.474917 87.072 -136.1248
0.478358 87.109 -136.0209
0.481825 87.145 -135.9159
0.485316 87.182 -135.8100
0.488833 87.219 -135.7030
0.492375 87.256 -135.5951
0.495943 87.293 -135.4863
0.499537 87.331 -135.3766
0.503157 87.369 -135.2661
0.506803 87.407 -135.1549
0.510475 87.446 -135.0429
0.514175 87.485 -134.9303
0.517900 87.524 -134.8171
0.521653 87.563 -134.7033
0.525434 87.603 -134.5890
0.529241 87.643 -134.4742
0.533076 87.684 -134.3591
0.536939 87.724 -134.2435
0.540830 87.765 -134.1277
0.544749 87.806 -134.0116
0.548696 87.848 -133.8954
0.552673 87.889 -133.7790
0.556677 87.932 -133.6626
0.560711 87.974 -133.5461
0.564774 88.017 -133.4297
0.568867 88.060 -133.3134
0.572989 88.103 -133.1973
0.577141 88.147 -133.0814
0.581324 88.191 -132.9658
0.585536 88.235 -132.8505
0.589779 88.279 -132.7357
0.594053 88.324 -132.6214
0.598358 88.370 -132.5076
0.602694 88.415 -132.3945
0.607061 88.461 -132.2820
0.611460 88.507 -132.1703
0.615891 88.554 -132.0594
0.620354 88.601 -131.9494
0.624849 88.648 -131.8404
0.629377 88.696 -131.7324
0.633938 88.744 -131.6255
0.638532 88.792 -131.5197
0.643159 88.840 -131.4152
0.647819 88.889 -131.3121
0.652514 88.939 -131.2103
0.657242 88.989 -131.1099
0.662005 89.039 -131.0112
0.666802 89.089 -130.9140
0.671634 89.140 -130.8185
0.676501 89.191 -130.7247
0.681403 89.242 -130.6329
0.686341 89.294 -130.5429
0.691314 89.347 -130.4549
0.696324 89.399 -130.3690
0.701370 89.452 -130.2852
0.706452 89.505 -130.2036
0.711571 89.558 -130.1242
0.716728 89.611 -130.0469
0.721921 89.664 -129.9718
0.727153 89.716 -129.8986
0.732422 89.768 -129.8271
0.737729 89.818 -129.7570
0.743075 89.867 -129.6881
0.748460 89.916 -129.6199
0.753883 89.964 -129.5525
0.759346 90.011 -129.4856
0.764849 90.059 -129.4193
0.770391 90.106 -129.3535
0.775974 90.154 -129.2881
0.781597 90.201 -129.2234
0.787261 90.248 -129.1591
0.792966 90.296 -129.0956
0.798712 90.343 -129.0326
0.804500 90.390 -128.9703
0.810329 90.438 -128.9087
0.816201 90.485 -128.8479
0.822116 90.533 -128.7879
0.828073 90.580 -128.7288
0.834074 90.627 -128.6705
0.840118 90.675 -128.6131
0.846206 90.722 -128.5567
0.852338 90.770 -128.5013
0.858514 90.817 -128.4470
0.864735 90.865 -128.3937
0.871001 90.912 -128.3416
0.877313 90.960 -128.2906
0.883670 91.007 -128.2408
0.890074 91.055 -128.1923
0.896524 91.102 -128.1450
0.903020 91.150 -128.0991
0.909564 91.198 -128.0546
0.916155 91.245 -128.0114
0.922794 91.293 -127.9698
0.929481 91.340 -127.9296
0.936216 91.388 -127.8910
0.943000 91.436 -127.8540
0.949834 91.483 -127.8186
0.956717 91.531 -127.7849
0.963649 91.579 -127.7529
0.970632 91.627 -127.7227
0.977666 91.674 -127.6943
0.984750 91.722 -127.6677
0.991886 91.770 -127.6432
0.999074 91.818 -127.6205
1.006314 91.866 -127.5999
1.013606 91.914 -127.5813
1.020951 91.962 -127.5649
1.028349 92.010 -127.5507
1.035801 92.058 -127.5386
1.043307 92.106 -127.5289
1.050867 92.154 -127.5215
1.058482 92.202 -127.5166
1.066152 92.251 -127.5141
1.073878 92.299 -127.5142
1.081660 92.347 -127.5168
1.089498 92.396 -127.5221
1.097393 92.444 -127.5302
1.105345 92.492 -127.5410
1.113355 92.541 -127.5546
1.121423 92.589 -127.5711
1.129549 92.637 -127.5903
1.137734 92.685 -127.6123
1.145979 92.732 -127.6371
1.154283 92.780 -127.6645
1.162647 92.827 -127.6945
1.171072 92.874 -127.7271
1.179558 92.921 -127.7622
1.188106 92.968 -127.7998
1.196715 93.015 -127.8397
1.205387 93.061 -127.8819
1.214122 93.107 -127.9263
1.222920 93.154 -127.9729
1.231782 93.200 -128.0215
1.240708 93.245 -128.0722
1.249699 93.291 -128.1248
1.258754 93.337 -128.1793
1.267876 93.382 -128.2355
1.277063 93.427 -128.2934
1.286318 93.472 -128.3528
1.295639 93.517 -128.4138
1.305027 93.562 -128.4762
1.314484 93.607 -128.5400
1.324009 93.651 -128.6049
1.333604 93.696 -128.6710
1.343268 93.740 -128.7382
1.353002 93.785 -128.8062
1.362806 93.829 -128.8751
1.372681 93.873 -128.9446
1.382628 93.917 -129.0148
1.392647 93.961 -129.0855
1.402739 94.006 -129.1566
1.412904 94.050 -129.2279
1.423142 94.094 -129.2995
1.433455 94.138 -129.3713
1.443843 94.182 -129.4432
1.454305 94.225 -129.5154
1.464844 94.269 -129.5879
1.475459 94.313 -129.6609
1.486150 94.356 -129.7348
1.496920 94.400 -129.8095
1.507767 94.442 -129.8854
1.518693 94.485 -129.9624
1.529698 94.528 -130.0406
1.540783 94.570 -130.1200
1.551948 94.612 -130.2007
1.563194 94.653 -130.2827
1.574521 94.694 -130.3659
1.585931 94.735 -130.4504
1.597423 94.776 -130.5362
1.608999 94.817 -130.6232
1.620658 94.857 -130.7114
1.632402 94.897 -130.8009
1.644232 94.936 -130.8916
1.656146 94.976 -130.9836
1.668147 95.015 -131.0768
1.680235 95.054 -131.1712
1.692411 95.093 -131.2668
1.704675 95.132 -131.3636
1.717028 95.170 -131.4617
1.729470 95.209 -131.5609
1.742003 95.247 -131.6614
1.754626 95.285 -131.7630
1.767341 95.323 -131.8659
1.780147 95.360 -131.9700
1.793047 95.398 -132.0755
1.806040 95.436 -132.1823
1.819128 95.473 -132.2905
1.832310 95.510 -132.4003
1.845587 95.547 -132.5118
1.858961 95.584 -132.6252
1.872432 95.620 -132.7405
1.886001 95.656 -132.8577
1.899667 95.692 -132.9770
1.913433 95.727 -133.0982
1.927299 95.762 -133.2213
1.941265 95.797 -133.3462
1.955332 95.831 -133.4728
1.969501 95.865 -133.6011
1.983773 95.899 -133.7310
1.998148 95.932 -133.8624
2.012627 95.965 -133.9951
2.027212 95.998 -134.1291
2.041902 96.030 -134.2643
2.056698 96.062 -134.4006
2.071602 96.094 -134.5378
2.086614 96.126 -134.6759
2.101734 96.157 -134.8147
2.116964 96.189 -134.9542
2.132304 96.220 -135.0942
2.147756 96.251 -135.2347
2.163320 96.282 -135.3757
2.178996 96.312 -135.5172
2.194786 96.343 -135.6592
2.210690 96.373 -135.8020
2.226710 96.403 -135.9457
2.242845 96.433 -136.0905
2.259098 96.462 -136.2365
2.275468 96.491 -136.3837
2.291957 96.519 -136.5322
2.308566 96.547 -136.6819
2.325295 96.575 -136.8329
2.342145 96.602 -136.9851
2.359117 96.629 -137.1384
2.376212 96.656 -137.2930
2.393431 96.682 -137.4485
2.410775 96.709 -137.6051
2.428244 96.734 -137.7627
2.445840 96.760 -137.9212
2.463564 96.786 -138.0806
2.481416 96.811 -138.2408
2.499397 96.836 -138.4018
2.517509 96.861 -138.5634
2.535752 96.886 -138.7258
2.554127 96.910 -138.8889
2.572635 96.935 -139.0528
2.591277 96.959 -139.2175
2.610055 96.982 -139.3830
2.628968 97.006 -139.5495
2.648019 97.029 -139.7171
2.667208 97.052 -139.8858
2.686535 97.074 -140.0556
2.706003 97.097 -140.2267
2.725612 97.118 -140.3992
2.745363 97.140 -140.5730
2.765257 97.161 -140.7483
2.785295 97.182 -140.9251
2.805478 97.203 -141.1035
2.825808 97.224 -141.2836
2.846285 97.244 -141.4654
2.866910 97.264 -141.6490
2.887685 97.284 -141.8346
2.908611 97.304 -142.0220
2.929688 97.324 -142.2115
2.950917 97.343 -142.4030
2.972301 97.362 -142.5965
2.993839 97.381 -142.7922
3.015534 97.400 -142.9900
3.037386 97.418 -143.1900
3.059396 97.436 -143.3922
3.081565 97.453 -143.5966
3.103896 97.471 -143.8032
3.126388 97.488 -144.0121
3.149043 97.505 -144.2232
3.171862 97.521 -144.4366
3.194847 97.537 -144.6524
3.217998 97.553 -144.8705
3.241317 97.569 -145.0910
3.264805 97.584 -145.3139
3.288463 97.599 -145.5392
3.312293 97.614 -145.7672
3.336295 97.628 -145.9978
3.360471 97.642 -146.2311
3.384822 97.656 -146.4672
3.409350 97.670 -146.7061
3.434056 97.683 -146.9479
3.458940 97.695 -147.1927
3.484005 97.708 -147.4404
3.509252 97.719 -147.6913
3.534681 97.731 -147.9452
3.560295 97.742 -148.2024
3.586094 97.752 -148.4629
3.612081 97.762 -148.7269
3.638255 97.772 -148.9945
3.664620 97.781 -149.2660
3.691175 97.790 -149.5416
3.717923 97.798 -149.8213
3.744864 97.806 -150.1053
3.772001 97.813 -150.3934
3.799335 97.819 -150.6857
3.826866 97.825 -150.9818
3.854597 97.831 -151.2815
3.882529 97.835 -151.5846
3.910664 97.840 -151.8909
3.939002 97.843 -152.2002
3.967546 97.846 -152.5124
3.996296 97.848 -152.8276
4.025255 97.850 -153.1458
4.054423 97.851 -153.4672
4.083804 97.851 -153.7921
4.113396 97.850 -154.1207
4.143204 97.849 -154.4528
4.173227 97.847 -154.7885
4.203468 97.844 -155.1274
4.233928 97.841 -155.4693
4.264609 97.837 -155.8139
4.295512 97.832 -156.1609
4.326639 97.826 -156.5100
4.357992 97.819 -156.8612
4.389572 97.812 -157.2146
4.421380 97.804 -157.5703
4.453419 97.795 -157.9285
4.485691 97.786 -158.2893
4.518196 97.775 -158.6527
4.550936 97.764 -159.0184
4.583914 97.752 -159.3863
4.617131 97.739 -159.7558
4.650589 97.725 -160.1266
4.684289 97.711 -160.4984
4.718233 97.696 -160.8707
4.752424 97.681 -161.2435
4.786862 97.665 -161.6168
4.821549 97.648 -161.9906
4.856488 97.630 -162.3652
4.891680 97.612 -162.7404
4.927127 97.593 -163.1164
4.962831 97.574 -163.4928
4.998794 97.554 -163.8697
5.035017 97.534 -164.2467
5.071503 97.513 -164.6236
5.108253 97.492 -165.0004
5.145270 97.471 -165.3767
5.182555 97.449 -165.7527
5.220110 97.427 -166.1284
5.257937 97.404 -166.5039
5.296038 97.382 -166.8794
5.334415 97.359 -167.2549
5.373071 97.336 -167.6306
5.412006 97.312 -168.0066
5.451224 97.289 -168.3828
5.490725 97.266 -168.7593
5.530514 97.243 -169.1361
5.570590 97.219 -169.5130
5.610957 97.196 -169.8902
5.651616 97.173 -170.2679
5.692570 97.150 -170.6462
5.733821 97.126 -171.0254
5.775370 97.103 -171.4058
5.817221 97.080 -171.7874
5.859375 97.058 -172.1705
5.901834 97.035 -172.5551
5.944602 97.013 -172.9411
5.987679 96.990 -173.3286
6.031068 96.968 -173.7175
6.074771 96.946 -174.1082
6.118792 96.924 -174.5007
6.163131 96.902 -174.8953
6.207792 96.880 -175.2920
6.252776 96.858 -175.6909
6.298086 96.836 -176.0921
6.343725 96.814 -176.4952
6.389694 96.792 -176.9002
6.435996 96.770 -177.3068
6.482634 96.748 -177.7147
6.529610 96.725 -178.1238
6.576926 96.703 -178.5338
6.624585 96.680 -178.9446
6.672590 96.657 -179.3561
6.720942 96.634 -179.7680
6.769645 96.610 179.8201
6.818700 96.587 179.4086
6.868111 96.563 178.9982
6.917881 96.538 178.5891
6.968010 96.514 178.1819
7.018504 96.489 177.7767
7.069362 96.464 177.3739
7.120590 96.438 176.9738
7.172189 96.412 176.5769
7.224161 96.386 176.1837
7.276511 96.360 175.7947
7.329239 96.334 175.4104
7.382350 96.307 175.0310
7.435845 96.281 174.6568
7.489729 96.254 174.2879
7.544002 96.227 173.9245
7.598669 96.201 173.5667
7.653732 96.174 173.2147
7.709194 96.148 172.8685
7.765058 96.122 172.5285
7.821327 96.096 172.1945
7.878004 96.070 171.8663
7.935091 96.044 171.5438
7.992592 96.019 171.2268
8.050510 95.994 170.9150
8.108847 95.970 170.6085
8.167607 95.945 170.3070
8.226793 95.921 170.0104
8.286408 95.897 169.7184
8.346454 95.873 169.4308
8.406936 95.850 169.1471
8.467856 95.826 168.8673
8.529218 95.802 168.5914
8.591024 95.779 168.3192
8.653278 95.755 168.0508
8.715983 95.731 167.7862
8.779143 95.707 167.5253
8.842760 95.682 167.2683
8.906839 95.657 167.0153
8.971381 95.632 166.7665
9.036392 95.606 166.5223
9.101873 95.579 166.2831
9.167829 95.551 166.0491
9.234263 95.523 165.8207
9.301178 95.494 165.5982
9.368578 95.465 165.3820
9.436467 95.434 165.1725
9.504847 95.403 164.9701
9.573723 95.371 164.7750
9.643099 95.338 164.5875
9.712976 95.304 164.4077
9.783361 95.270 164.2357
9.854255 95.235 164.0715
9.925663 95.200 163.9151
9.997588 95.163 163.7664
10.070035 95.127 163.6253
10.143007 95.090 163.4913
10.216507 95.052 163.3641
10.290540 95.014 163.2432
10.365109 94.975 163.1283
10.440219 94.936 163.0190
10.515873 94.897 162.9146
10.592076 94.857 162.8146
10.668830 94.816 162.7188
10.746141 94.775 162.6264
10.824012 94.733 162.5374
10.902447 94.691 162.4514
10.981451 94.648 162.3681
11.061027 94.603 162.2873
11.141180 94.558 162.2089
11.221913 94.512 162.1331
11.303232 94.465 162.0597
11.385140 94.417 161.9890
11.467641 94.368 161.9209
11.550741 94.318 161.8557
11.634442 94.267 161.7935
11.718750 94.215 161.7343
11.803669 94.162 161.6785
11.889203 94.108 161.6258
11.975357 94.053 161.5764
12.062136 93.997 161.5300
12.149543 93.941 161.4865
12.237583 93.884 161.4457
12.326262 93.827 161.4073
12.415583 93.769 161.3709
12.505552 93.711 161.3361
12.596172 93.652 161.3024
12.687449 93.593 161.2695
12.779387 93.534 161.2369
12.871992 93.474 161.2043
12.965268 93.415 161.1714
13.059220 93.354 161.1381
13.153852 93.294 161.1040
13.249170 93.234 161.0693
13.345179 93.173 161.0339
13.441884 93.112 160.9979
13.539289 93.051 160.9615
13.637401 92.990 160.9250
13.736223 92.929 160.8887
13.835761 92.868 160.8527
13.936021 92.807 160.8174
14.037007 92.746 160.7832
14.138725 92.685 160.7503
14.241180 92.625 160.7190
14.344377 92.565 160.6895
14.448323 92.506 160.6622
14.553021 92.447 160.6373
14.658478 92.389 160.6151
14.764700 92.332 160.5959
14.871691 92.275 160.5801
14.979457 92.220 160.5681
15.088005 92.165 160.5602
15.197339 92.111 160.5569
15.307465 92.058 160.5588
15.418389 92.006 160.5661
15.530117 91.955 160.5793
15.642655 91.906 160.5988
15.756008 91.858 160.6250
15.870182 91.810 160.6580
15.985184 91.765 160.6980
16.101019 91.720 160.7452
16.217694 91.676 160.7996
16.335214 91.634 160.8615
16.453586 91.593 160.9311
16.572815 91.553 161.0085
16.692909 91.513 161.0942
16.813872 91.474 161.1888
16.935713 91.436 161.2931
17.058436 91.398 161.4078
17.182048 91.361 161.5342
17.306556 91.323 161.6732
17.431967 91.286 161.8259
17.558286 91.249 161.9933
17.685521 91.213 162.1763
17.813677 91.176 162.3754
17.942762 91.140 162.5908
18.072783 91.105 162.8222
18.203746 91.070 163.0693
18.335658 91.036 163.3311
18.468526 91.003 163.6065
18.602356 90.970 163.8941
18.737156 90.938 164.1925
18.872934 90.907 164.5004
19.009695 90.875 164.8166
19.147447 90.844 165.1400
19.286197 90.813 165.4699
19.425953 90.782 165.8060
19.566721 90.750 166.1481
19.708510 90.718 166.4960
19.851326 90.685 166.8499
19.995177 90.652 167.2097
20.140070 90.618 167.5752
20.286013 90.584 167.9462
20.433014 90.550 168.3221
20.581080 90.516 168.7022
20.730219 90.481 169.0853
20.880439 90.447 169.4705
21.031747 90.412 169.8565
21.184152 90.378 170.2423
21.337661 90.344 170.6270
21.492282 90.310 171.0097
21.648024 90.277 171.3898
21.804895 90.243 171.7668
21.962902 90.211 172.1405
22.122054 90.178 172.5106
22.282360 90.147 172.8770
22.443827 90.116 173.2395
22.606464 90.087 173.5980
22.770280 90.058 173.9525
22.935283 90.031 174.3027
23.101481 90.005 174.6489
23.268884 89.981 174.9911
23.437500 89.959 175.3294
23.607338 89.939 175.6642
23.778406 89.920 175.9958
23.950714 89.904 176.3245
24.124271 89.890 176.6505
24.299086 89.879 176.9741
24.475167 89.870 177.2954
24.652524 89.864 177.6144
24.831166 89.860 177.9314
25.011103 89.859 178.2465
25.192344 89.860 178.5602
25.374898 89.863 178.8731
25.558775 89.868 179.1861
25.743984 89.875 179.5002
25.930536 89.884 179.8167
26.118439 89.895 -179.8634
26.307704 89.907 -179.5390
26.498341 89.920 -179.2093
26.690359 89.935 -178.8739
26.883768 89.952 -178.5327
27.078579 89.969 -178.1859
27.274801 89.988 -177.8340
27.472446 90.007 -177.4775
27.671522 90.028 -177.1173
27.872042 90.049 -176.7538
28.074014 90.071 -176.3878
28.277450 90.093 -176.0196
28.482360 90.115 -175.6497
28.688755 90.137 -175.2788
28.896645 90.159 -174.9075
29.106042 90.181 -174.5368
29.316957 90.204 -174.1680
29.529400 90.227 -173.8025
29.743382 90.249 -173.4420
29.958915 90.272 -173.0881
30.176009 90.295 -172.7423
30.394677 90.318 -172.4059
30.614929 90.341 -172.0795
30.836778 90.364 -171.7635
31.060234 90.386 -171.4578
31.285309 90.409 -171.1623
31.512015 90.432 -170.8766
31.740364 90.455 -170.6003
31.970368 90.478 -170.3333
32.202039 90.503 -170.0756
32.435388 90.528 -169.8274
32.670428 90.555 -169.5888
32.907171 90.582 -169.3597
33.145630 90.611 -169.1399
33.385817 90.640 -168.9290
33.627745 90.671 -168.7262
33.871425 90.703 -168.5306
34.116871 90.737 -168.3412
34.364096 90.771 -168.1572
34.613113 90.806 -167.9777
34.863934 90.842 -167.8020
35.116572 90.880 -167.6296
35.371041 90.918 -167.4599
35.627354 90.956 -167.2924
35.885525 90.996 -167.1270
36.145566 91.035 -166.9632
36.407492 91.075 -166.8007
36.671316 91.115 -166.6394
36.937051 91.155 -166.4794
37.204712 91.194 -166.3207
37.474313 91.234 -166.1637
37.745867 91.273 -166.0087
38.019389 91.312 -165.8560
38.294893 91.351 -165.7061
38.572394 91.389 -165.5594
38.851905 91.427 -165.4165
39.133442 91.465 -165.2783
39.417019 91.503 -165.1459
39.702651 91.541 -165.0209
39.990353 91.579 -164.9044
40.280140 91.617 -164.7974
40.572026 91.654 -164.6999
40.866028 91.691 -164.6109
41.162160 91.727 -164.5287
41.460438 91.763 -164.4512
41.760877 91.798 -164.3767
42.063494 91.834 -164.3043
42.368303 91.870 -164.2344
42.675322 91.907 -164.1682
42.984565 91.945 -164.1074
43.296048 91.983 -164.0534
43.609789 92.022 -164.0066
43.925804 92.060 -163.9666
44.244108 92.099 -163.9321
44.564719 92.137 -163.9015
44.887654 92.174 -163.8739
45.212928 92.212 -163.8487
45.540560 92.249 -163.8262
45.870565 92.287 -163.8069
46.202962 92.324 -163.7914
46.537768 92.361 -163.7800
46.875000 92.397 -163.7726
47.214676 92.434 -163.7694
47.556813 92.470 -163.7701
47.901429 92.505 -163.7749
48.248542 92.541 -163.7838
48.598171 92.576 -163.7965
48.950334 92.611 -163.8129
49.305048 92.646 -163.8322
49.662333 92.680 -163.8542
50.022206 92.714 -163.8788
50.384688 92.748 -163.9062
50.749796 92.782 -163.9366
51.117550 92.815 -163.9699
51.487969 92.848 -164.0055
51.861072 92.880 -164.0429
52.236879 92.912 -164.0818
52.615409 92.944 -164.1226
52.996681 92.975 -164.1662
53.380717 93.006 -164.2136
53.767536 93.037 -164.2654
54.157158 93.067 -164.3216
54.549603 93.096 -164.3813
54.944892 93.125 -164.4438
55.343045 93.153 -164.5087
55.744084 93.182 -164.5763
56.148028 93.210 -164.6479
56.554900 93.239 -164.7246
56.964720 93.267 -164.8065
57.377510 93.295 -164.8931
57.793291 93.323 -164.9826
58.212085 93.350 -165.0730
58.633914 93.377 -165.1628
59.058799 93.404 -165.2514
59.486764 93.430 -165.3391
59.917829 93.456 -165.4263
60.352019 93.483 -165.5140
60.789354 93.508 -165.6027
61.229859 93.534 -165.6930
61.673556 93.558 -165.7853
62.120468 93.582 -165.8795
62.570618 93.606 -165.9757
63.024031 93.629 -166.0739
63.480729 93.651 -166.1742
63.940736 93.673 -166.2772
64.404077 93.695 -166.3831
64.870776 93.716 -166.4921
65.340856 93.737 -166.6040
65.814343 93.759 -166.7184
66.291261 93.780 -166.8349
66.771635 93.801 -166.9530
67.255489 93.822 -167.0723
67.742850 93.843 -167.1924
68.233743 93.863 -167.3130
68.728193 93.883 -167.4338
69.226226 93.903 -167.5549
69.727867 93.923 -167.6764
70.233144 93.942 -167.7988
70.742083 93.960 -167.9223
71.254709 93.978 -168.0468
71.771050 93.995 -168.1718
72.291132 94.011 -168.2974
72.814984 94.028 -168.4240
73.342631 94.044 -168.5523
73.874102 94.060 -168.6827
74.409424 94.075 -168.8151
74.948626 94.091 -168.9493
75.491734 94.106 -169.0850
76.038779 94.121 -169.2224
76.589787 94.136 -169.3616
77.144788 94.151 -169.5020
77.703811 94.165 -169.6429
78.266885 94.178 -169.7837
78.834039 94.191 -169.9242
79.405303 94.204 -170.0647
79.980706 94.216 -170.2054
80.560280 94.229 -170.3474
81.144053 94.241 -170.4920
81.732056 94.252 -170.6400
82.324320 94.263 -170.7910
82.920876 94.273 -170.9436
83.521755 94.283 -171.0963
84.126988 94.292 -171.2482
84.736607 94.301 -171.3991
85.350643 94.309 -171.5494
85.969129 94.318 -171.6996
86.592097 94.326 -171.8498
87.219579 94.334 -171.9996
87.851608 94.342 -172.1491
88.488217 94.350 -172.2986
89.129439 94.357 -172.4481
89.775308 94.363 -172.5971
90.425856 94.369 -172.7451
91.081119 94.375 -172.8913
91.741131 94.380 -173.0357
92.405925 94.384 -173.1790
93.075536 94.389 -173.3235
93.750000 94.394 -173.4712
94.429351 94.398 -173.6231
95.113625 94.402 -173.7791
95.802858 94.406 -173.9385
96.497085 94.409 -174.1004
97.196342 94.411 -174.2631
97.900667 94.413 -174.4250
98.610096 94.414 -174.5849
99.324665 94.416 -174.7424
100.044413 94.417 -174.8971
100.769376 94.418 -175.0493
101.499592 94.418 -175.1993
102.235100 94.418 -175.3481
102.975938 94.419 -175.4966
103.722144 94.418 -175.6458
104.473757 94.417 -175.7958
105.230817 94.416 -175.9466
105.993363 94.414 -176.0974
106.761435 94.412 -176.2478
107.535072 94.409 -176.3972
108.314315 94.406 -176.5454
109.099206 94.403 -176.6923
109.889783 94.399 -176.8382
110.686090 94.395 -176.9832
111.488167 94.390 -177.1273
112.296056 94.385 -177.2708
113.109800 94.379 -177.4143
113.929440 94.372 -177.5583
114.755020 94.365 -177.7034
115.586582 94.358 -177.8497
116.424170 94.351 -177.9966
117.267827 94.343 -178.1432
118.117598 94.334 -178.2872
118.973527 94.325 -178.4251
119.835658 94.316 -178.5532
120.704037 94.307 -178.6704
121.578708 94.298 -178.7793
122.459718 94.290 -178.8839
123.347111 94.283 -178.9867
124.240935 94.275 -179.0893
125.141236 94.267 -179.1921
126.048061 94.259 -179.2950
126.961458 94.250 -179.3975
127.881473 94.242 -179.4984
128.808154 94.233 -179.5962
129.741551 94.224 -179.6894
130.681712 94.215 -179.7775
131.628686 94.206 -179.8613
132.582521 94.198 -179.9417
133.543269 94.190 179.9805
134.510979 94.181 179.9046
135.485701 94.173 179.8296
136.467486 94.165 179.7542
137.456386 94.157 179.6772
138.452451 94.149 179.5983
139.455735 94.141 179.5173
140.466288 94.133 179.4346
141.484165 94.126 179.3504
142.509418 94.119 179.2653
143.542100 94.111 179.1798
144.582265 94.104 179.0941
145.629968 94.097 179.0084
146.685262 94.089 178.9232
147.748204 94.081 178.8386
148.818849 94.072 178.7546
149.897251 94.063 178.6713
150.983469 94.053 178.5886
152.077557 94.042 178.5067
153.179574 94.032 178.4259
154.289576 94.021 178.3477
155.407622 94.010 178.2740
156.533770 93.999 178.2070
157.668078 93.988 178.1480
158.810606 93.978 178.0973
159.961413 93.968 178.0534
161.120559 93.959 178.0142
162.288105 93.950 177.9776
163.464112 93.941 177.9427
164.648640 93.932 177.9104
165.841752 93.923 177.8815
167.043510 93.915 177.8557
168.253976 93.908 177.8326
169.473213 93.902 177.8116
170.701286 93.899 177.7925
171.938258 93.898 177.7750
173.184194 93.898 177.7578
174.439158 93.901 177.7391
175.703216 93.905 177.7158
176.976434 93.911 177.6838
178.258878 93.918 177.6392
179.550615 93.926 177.5795
180.851713 93.935 177.5038
182.162239 93.944 177.4128
183.482262 93.954 177.3080
184.811850 93.963 177.1901
186.151073 93.972 177.0602
187.500000 93.980 176.9191
188.858702 93.986 176.7675
190.227250 93.991 176.6054
191.605715 93.994 176.4330
192.994169 93.996 176.2513
194.392685 93.997 176.0623
195.801334 93.996 175.8680
197.220191 93.994 175.6709
198.649330 93.989 175.4724
200.088825 93.984 175.2738
201.538751 93.977 175.0760
202.999184 93.969 174.8799
204.470200 93.960 174.6858
205.951875 93.950 174.4940
207.444287 93.939 174.3043
208.947514 93.928 174.1165
210.461634 93.916 173.9307
211.986726 93.904 173.7469
213.522869 93.891 173.5655
215.070144 93.879 173.3862
216.628631 93.866 173.2085
218.198411 93.853 173.0314
219.779567 93.841 172.8544
221.372180 93.828 172.6772
222.976334 93.815 172.4996
224.592112 93.802 172.3214
226.219600 93.790 172.1414
227.858880 93.777 171.9584
229.510039 93.763 171.7715
231.173164 93.749 171.5800
232.848340 93.734 171.3834
234.535655 93.719 171.1811
236.235197 93.704 170.9729
237.947054 93.687 170.7589
239.671317 93.671 170.5396
241.408074 93.653 170.3159
243.157416 93.634 170.0895
244.919435 93.615 169.8613
246.694223 93.594 169.6307
248.481871 93.573 169.3967
250.282473 93.550 169.1584
252.096123 93.526 168.9157
253.922915 93.501 168.6689
255.762945 93.474 168.4187
257.616309 93.446 168.1663
259.483103 93.417 167.9128
261.363424 93.386 167.6591
263.257372 93.353 167.4057
265.165043 93.319 167.1528
267.086538 93.283 166.9005
269.021957 93.245 166.6489
270.971401 93.205 166.3983
272.934972 93.164 166.1493
274.912771 93.120 165.9027
276.904902 93.075 165.6595
278.911469 93.028 165.4210
280.932577 92.979 165.1884
282.968330 92.929 164.9626
285.018835 92.876 164.7444
287.084199 92.822 164.5341
289.164530 92.767 164.3326
291.259935 92.709 164.1404
293.370525 92.650 163.9576
295.496408 92.590 163.7848
297.637697 92.528 163.6224
299.794503 92.465 163.4711
301.966937 92.401 163.3316
304.155114 92.336 163.2047
306.359147 92.270 163.0909
308.579152 92.202 162.9910
310.815244 92.134 162.9052
313.067539 92.065 162.8333
315.336156 91.996 162.7749
317.621211 91.926 162.7295
319.922826 91.855 162.6968
322.241118 91.784 162.6769
324.576210 91.713 162.6703
326.928223 91.642 162.6773
329.297280 91.571 162.6976
331.683504 91.499 162.7302
334.087019 91.428 162.7742
336.507952 91.357 162.8289
338.946427 91.286 162.8943
341.402572 91.215 162.9708
343.876516 91.144 163.0587
346.368387 91.073 163.1584
348.878315 91.002 163.2698
351.406431 90.932 163.3932
353.952867 90.861 163.5285
356.517756 90.791 163.6757
359.101230 90.721 163.8344
361.703426 90.652 164.0046
364.324478 90.582 164.1872
366.964523 90.513 164.3833
369.623699 90.445 164.5939
372.302145 90.377 164.8198
375.000000 90.310 165.0611
377.717405 90.245 165.3176
380.454501 90.181 165.5884
383.211431 90.119 165.8723
385.988339 90.059 166.1674
388.785369 90.001 166.4720
391.602668 89.946 166.7836
394.440383 89.894 167.0988
397.298660 89.844 167.4139
400.177650 89.797 167.7253
403.077502 89.752 168.0298
405.998368 89.708 168.3259
408.940400 89.664 168.6129
411.903750 89.621 168.8920
414.888575 89.577 169.1653
417.895028 89.533 169.4357
420.923268 89.488 169.7058
423.973452 89.442 169.9778
427.045738 89.395 170.2540
430.140287 89.349 170.5365
433.257261 89.302 170.8275
436.396822 89.255 171.1283
439.559133 89.209 171.4396
442.744360 89.163 171.7612
445.952668 89.118 172.0922
449.184225 89.074 172.4318
452.439199 89.032 172.7789
455.717760 88.990 173.1326
459.020079 88.949 173.4920
462.346327 88.910 173.8563
465.696680 88.871 174.2249
469.071310 88.834 174.5970
472.470394 88.798 174.9719
475.894109 88.763 175.3492
479.342634 88.729 175.7287
482.816148 88.696 176.1104
486.314833 88.664 176.4943
489.838871 88.634 176.8802
493.388445 88.604 177.2682
496.963741 88.576 177.6580
500.564945 88.549 178.0489
504.192245 88.523 178.4401
507.845830 88.498 178.8308
511.525890 88.475 179.2203
515.232618 88.452 179.6082
518.966206 88.429 179.9942
522.726849 88.408 -179.6216
526.514743 88.388 -179.2393
530.330086 88.368 -178.8587
534.173076 88.349 -178.4795
538.043915 88.331 -178.1014
541.942803 88.313 -177.7242
545.869944 88.296 -177.3479
549.825542 88.280 -176.9729
553.809805 88.264 -176.5997
557.822939 88.249 -176.2291
561.865154 88.234 -175.8612
565.936660 88.220 -175.4959
570.037671 88.206 -175.1327
574.168399 88.192 -174.7713
578.329060 88.179 -174.4117
582.519870 88.166 -174.0536
586.741049 88.153 -173.6966
590.992817 88.140 -173.3407
595.275394 88.128 -172.9858
599.589005 88.116 -172.6318
603.933874 88.104 -172.2786
608.310228 88.093 -171.9261
612.718295 88.081 -171.5742
617.158304 88.069 -171.2229
621.630488 88.058 -170.8719
626.135079 88.046 -170.5209
630.672311 88.035 -170.1695
635.242423 88.023 -169.8174
639.845651 88.012 -169.4645
644.482237 88.001 -169.1108
649.152421 87.990 -168.7561
653.856447 87.979 -168.4007
658.594560 87.968 -168.0443
663.367008 87.957 -167.6872
668.174039 87.946 -167.3291
673.015903 87.935 -166.9697
677.892854 87.924 -166.6087
682.805145 87.913 -166.2457
687.753032 87.903 -165.8800
692.736774 87.892 -165.5112
697.756631 87.881 -165.1389
702.812863 87.871 -164.7626
707.905735 87.861 -164.3824
713.035511 87.851 -163.9984
718.202461 87.841 -163.6108
723.406852 87.832 -163.2198
728.648956 87.823 -162.8251
733.929047 87.814 -162.4265
739.247399 87.806 -162.0236
744.604290 87.798 -161.6164
750.000000 87.791 -161.2049
755.434809 87.785 -160.7894
760.909001 87.779 -160.3701
766.422861 87.774 -159.9477
771.976677 87.769 -159.5225
777.570739 87.765 -159.0946
783.205337 87.762 -158.6644
788.880766 87.760 -158.2324
794.597321 87.758 -157.7988
800.355301 87.756 -157.3635
806.155005 87.756 -156.9261
811.996736 87.755 -156.4862
817.880799 87.756 -156.0441
823.807501 87.757 -155.5999
829.777150 87.758 -155.1538
835.790057 87.761 -154.7055
841.846536 87.763 -154.2550
847.946903 87.767 -153.8023
854.091476 87.771 -153.3471
860.280575 87.775 -152.8894
866.514523 87.781 -152.4289
872.793644 87.787 -151.9657
879.118267 87.795 -151.4998
885.488720 87.803 -151.0314
891.905336 87.812 -150.5606
898.368450 87.822 -150.0878
904.878398 87.833 -149.6135
911.435520 87.846 -149.1383
918.040157 87.859 -148.6625
924.692655 87.873 -148.1862
931.393359 87.888 -147.7091
938.142619 87.904 -147.2310
944.940787 87.921 -146.7519
951.788218 87.939 -146.2719
958.685268 87.958 -145.7911
965.632296 87.978 -145.3097
972.629666 87.998 -144.8283
979.677741 88.020 -144.3472
986.776890 88.043 -143.8669
993.927482 88.066 -143.3876
1001.129891 88.091 -142.9098
1008.384491 88.117 -142.4339
1015.691660 88.144 -141.9602
1023.051781 88.172 -141.4880
1030.465236 88.202 -141.0170
1037.932411 88.232 -140.5471
1045.453698 88.264 -140.0783
1053.029486 88.296 -139.6105
1060.660172 88.329 -139.1437
1068.346153 88.363 -138.6778
1076.087829 88.398 -138.2128
1083.885605 88.434 -137.7485
1091.739887 88.471 -137.2844
1099.651084 88.509 -136.8198
1107.619609 88.548 -136.3542
1115.645878 88.589 -135.8874
1123.730308 88.630 -135.4193
1131.873321 88.673 -134.9504
1140.075341 88.717 -134.4816
1148.336797 88.762 -134.0137
1156.658119 88.808 -133.5482
1165.039741 88.856 -133.0860
1173.482099 88.904 -132.6280
1181.985634 88.953 -132.1745
1190.550789 89.004 -131.7258
1199.178011 89.055 -131.2821
1207.867749 89.108 -130.8438
1216.620457 89.162 -130.4115
1225.436590 89.217 -129.9859
1234.316609 89.273 -129.5676
1243.260976 89.329 -129.1572
1252.270157 89.387 -128.7551
1261.344623 89.445 -128.3615
1270.484846 89.504 -127.9764
1279.691303 89.563 -127.5995
1288.964474 89.623 -127.2309
1298.304842 89.683 -126.8703
1307.712894 89.743 -126.5178
1317.189120 89.803 -126.1733
1326.734016 89.864 -125.8363
1336.348077 89.924 -125.5066
1346.031806 89.984 -125.1836
1355.785708 90.045 -124.8665
1365.610290 90.105 -124.5546
1375.506065 90.165 -124.2474
1385.473549 90.225 -123.9443
1395.513261 90.285 -123.6447
1405.625726 90.345 -123.3480
1415.811469 90.404 -123.0538
1426.071023 90.464 -122.7617
1436.404921 90.524 -122.4714
1446.813703 90.583 -122.1827
1457.297912 90.643 -121.8955
1467.858093 90.703 -121.6096
1478.494798 90.763 -121.3253
1489.208581 90.823 -121.0427
1500.000000 90.884 -120.7621
1510.869618 90.946 -120.4837
1521.818002 91.008 -120.2075
1532.845723 91.070 -119.9335
1543.953355 91.133 -119.6617
1555.141477 91.197 -119.3924
1566.410674 91.261 -119.1257
1577.761531 91.325 -118.8621
1589.194642 91.391 -118.6020
1600.710601 91.457 -118.3458
1612.310010 91.524 -118.0938
1623.993473 91.591 -117.8458
1635.761599 91.659 -117.6020
1647.615002 91.728 -117.3625
1659.554299 91.797 -117.1277
1671.580114 91.867 -116.8980
1683.693072 91.937 -116.6737
1695.893807 92.008 -116.4548
1708.182952 92.080 -116.2417
1720.561150 92.152 -116.0345
1733.029045 92.225 -115.8335
1745.587288 92.298 -115.6388
1758.236533 92.372 -115.4509
1770.977440 92.446 -115.2698
1783.810673 92.521 -115.0959
1796.736900 92.597 -114.9293
1809.756796 92.672 -114.7701
1822.871040 92.749 -114.6185
1836.080315 92.825 -114.4747
1849.385310 92.902 -114.3389
1862.786718 92.980 -114.2113
1876.285239 93.057 -114.0922
1889.881575 93.136 -113.9813
1903.576436 93.214 -113.8787
1917.370535 93.293 -113.7846
1931.264593 93.371 -113.6991
1945.259332 93.451 -113.6226
1959.355483 93.530 -113.5554
1973.553781 93.610 -113.4976
1987.854965 93.689 -113.4493
2002.259781 93.769 -113.4104
2016.768981 93.849 -113.3811
2031.383320 93.928 -113.3613
2046.103561 94.008 -113.3512
2060.930471 94.088 -113.3508
2075.864823 94.167 -113.3603
2090.907395 94.246 -113.3802
2106.058972 94.326 -113.4108
2121.320344 94.405 -113.4521
2136.692305 94.484 -113.5044
2152.175658 94.562 -113.5676
2167.771210 94.640 -113.6418
2183.479774 94.718 -113.7268
2199.302169 94.796 -113.8226
2215.239219 94.873 -113.9291
2231.291755 94.949 -114.0463
2247.460615 95.025 -114.1745
2263.746641 95.100 -114.3139
2280.150683 95.175 -114.4647
2296.673595 95.249 -114.6269
2313.316238 95.322 -114.8005
2330.079481 95.394 -114.9856
2346.964198 95.466 -115.1820
2363.971268 95.536 -115.3897
2381.101578 95.606 -115.6087
2398.356022 95.674 -115.8388
2415.735498 95.742 -116.0798
2433.240913 95.808 -116.3314
2450.873180 95.873 -116.5933
2468.633217 95.937 -116.8655
2486.521951 96.000 -117.1476
2504.540314 96.061 -117.4396
2522.689246 96.121 -117.7410
2540.969692 96.179 -118.0516
2559.382606 96.236 -118.3708
2577.928947 96.291 -118.6985
2596.609683 96.345 -119.0340
2615.425787 96.397 -119.3771
2634.378241 96.448 -119.7273
2653.468031 96.496 -120.0845
2672.696154 96.543 -120.4481
2692.063613 96.589 -120.8179
2711.571415 96.632 -121.1934
2731.220579 96.674 -121.5737
2751.012130 96.714 -121.9581
2770.947098 96.752 -122.3458
2791.026522 96.788 -122.7359
2811.251451 96.823 -123.1277
2831.622938 96.855 -123.5204
2852.142045 96.886 -123.9135
2872.809842 96.916 -124.3064
2893.627406 96.944 -124.6986
2914.595823 96.970 -125.0899
2935.716186 96.995 -125.4801
2956.989596 97.019 -125.8690
2978.417161 97.041 -126.2565
3000.000000 97.062 -126.6423
3021.739237 97.082 -127.0261
3043.636005 97.101 -127.4076
3065.691446 97.118 -127.7863
3087.906710 97.135 -128.1618
3110.282955 97.151 -128.5339
3132.821347 97.165 -128.9027
3155.523062 97.180 -129.2682
3178.389283 97.193 -129.6304
3201.421202 97.206 -129.9894
3224.620020 97.218 -130.3452
3247.986946 97.230 -130.6982
3271.523198 97.241 -131.0484
3295.230004 97.252 -131.3961
3319.108599 97.263 -131.7415
3343.160228 97.274 -132.0846
3367.386145 97.284 -132.4260
3391.787613 97.295 -132.7662
3416.365904 97.305 -133.1056
3441.122300 97.315 -133.4449
3466.058091 97.326 -133.7846
3491.174576 97.336 -134.1252
3516.473066 97.347 -134.4673
3541.954880 97.358 -134.8118
3567.621345 97.368 -135.1593
3593.473800 97.379 -135.5105
3619.513592 97.390 -135.8663
3645.742080 97.401 -136.2270
3672.160630 97.411 -136.5931
3698.770620 97.422 -136.9649
3725.573436 97.432 -137.3428
3752.570477 97.442 -137.7269
3779.763150 97.452 -138.1178
3807.152872 97.461 -138.5160
3834.741071 97.470 -138.9216
3862.529185 97.479 -139.3350
3890.518664 97.487 -139.7563
3918.710966 97.494 -140.1857
3947.107561 97.500 -140.6237
3975.709929 97.506 -141.0704
4004.519563 97.511 -141.5261
4033.537962 97.515 -141.9910
4062.766641 97.517 -142.4650
4092.207123 97.518 -142.9477
4121.860942 97.518 -143.4387
4151.729646 97.515 -143.9371
4181.814790 97.511 -144.4422
4212.117944 97.505 -144.9529
4242.640687 97.497 -145.4681
4273.384610 97.487 -145.9868
4304.351317 97.476 -146.5079
4335.542421 97.462 -147.0305
4366.959549 97.446 -147.5537
4398.604338 97.429 -148.0768
4430.478438 97.409 -148.5992
4462.583511 97.388 -149.1202
4494.921231 97.365 -149.6393
4527.493283 97.340 -150.1561
4560.301365 97.313 -150.6704
4593.347189 97.284 -151.1820
4626.632476 97.253 -151.6907
4660.158962 97.221 -152.1961
4693.928395 97.186 -152.6978
4727.942535 97.149 -153.1952
4762.203156 97.111 -153.6875
4796.712043 97.069 -154.1735
4831.470996 97.026 -154.6521
4866.481826 96.980 -155.1217
4901.746360 96.933 -155.5807
4937.266434 96.883 -156.0271
4973.043902 96.831 -156.4595
5009.080628 96.776 -156.8766
5045.378492 96.721 -157.2773
5081.939384 96.663 -157.6607
5118.765212 96.604 -158.0260
5155.857894 96.543 -158.3721
5193.219366 96.481 -158.6982
5230.851574 96.419 -159.0037
5268.756481 96.355 -159.2882
5306.936062 96.291 -159.5513
5345.392309 96.226 -159.7928
5384.127225 96.161 -160.0128
5423.142830 96.097 -160.2110
5462.441159 96.032 -160.3875
5502.024259 95.968 -160.5422
5541.894195 95.904 -160.6750
5582.053045 95.841 -160.7857
5622.502902 95.780 -160.8744
5663.245876 95.720 -160.9422
5704.284090 95.661 -160.9914
5745.619684 95.603 -161.0238
5787.254813 95.546 -161.0403
5829.191647 95.490 -161.0408
5871.432373 95.434 -161.0243
5913.979192 95.380 -160.9890
5956.834323 95.327 -160.9337
6000.000000 95.277 -160.8579
6043.478473 95.229 -160.7623
6087.272010 95.185 -160.6478
6131.382892 95.144 -160.5155
6175.813420 95.106 -160.3662
6220.565910 95.071 -160.2005
6265.642695 95.040 -160.0182
6311.046124 95.013 -159.8195
6356.778566 94.990 -159.6041
6402.842404 94.971 -159.3719
6449.240040 94.957 -159.1229
6495.973891 94.949 -158.8574
6543.046396 94.947 -158.5763
6590.460007 94.951 -158.2811
6638.217197 94.963 -157.9743
6686.320456 94.983 -157.6592
6734.772290 95.013 -157.3398
6783.575226 95.051 -157.0209
6832.731809 95.100 -156.7075
6882.244600 95.160 -156.4053
6932.116181 95.230 -156.1200
6982.349153 95.313 -155.8574
7032.946133 95.409 -155.6235
7083.909760 95.518 -155.4257
7135.242690 95.642 -155.2724
7186.947600 95.781 -155.1744
7239.027185 95.937 -155.1448
7291.484160 96.112 -155.2002
7344.321260 96.307 -155.3622
7397.541239 96.523 -155.6595
7451.146872 96.760 -156.1300
7505.140954 97.020 -156.8220
7559.526299 97.297 -157.7932
7614.305743 97.587 -159.1045
7669.482141 97.880 -160.8096
7725.058371 98.163 -162.9407
7781.037328 98.425 -165.4996
7837.421932 98.656 -168.4622
7894.215122 98.849 -171.7939
7951.419859 98.997 -175.4624
8009.039125 99.093 -179.4347
8067.075924 99.128 176.3387
8125.533282 99.091 171.9379
8184.414245 98.975 167.4764
8243.721885 98.779 163.0903
8303.459292 98.506 158.9185
8363.629581 98.166 155.0803
8424.235888 97.772 151.6573
8485.281374 97.343 148.6839
8546.769221 96.895 146.1452
8608.702634 96.446 143.9830
8671.084842 96.008 142.1066
8733.919097 95.589 140.4093
8797.208675 95.187 138.7879
8860.956876 94.798 137.1614
8925.167022 94.411 135.4852
8989.842461 94.011 133.7570
9054.986566 93.589 132.0133
9120.602731 93.133 130.3174
9186.694378 92.641 128.7451
9253.264952 92.110 127.3703
9320.317925 91.545 126.2561
9387.856790 90.951 125.4496
9455.885071 90.336 124.9795
9524.406312 89.707 124.8525
9593.424086 89.072 125.0581
9662.941992 88.438 125.5772
9732.963653 87.809 126.3929
9803.492719 87.190 127.4949
9874.532869 86.583 128.8809
9946.087805 85.990 130.5565
10018.161257 85.415 132.5338
10090.756983 84.861 134.8304
10163.878768 84.336 137.4655
10237.530423 83.845 140.4536
10311.715789 83.402 143.7943
10386.438732 83.017 147.4589
10461.703149 82.704 151.3788
10537.512962 82.474 155.4400
10613.872125 82.333 159.4918
10690.784618 82.278 163.3693
10768.254450 82.300 166.9248
10846.285661 82.381 170.0545
10924.882318 82.503 172.7114
11004.048518 82.644 174.9020
11083.788390 82.790 176.6726
11164.106090 82.926 178.0928
11245.005805 83.044 179.2404
11326.491752 83.141 -179.8092
11408.568180 83.215 -178.9886
11491.239368 83.266 -178.2416
11574.509626 83.297 -177.5239
11658.383294 83.309 -176.8015
11742.864745 83.308 -176.0500
11827.958384 83.295 -175.2516
11913.668646 83.273 -174.3941
12000.000000 83.244 -173.4684
12086.956947 83.212 -172.4667
12174.544019 83.178 -171.3815
12262.765784 83.144 -170.2050
12351.626840 83.112 -168.9288
12441.131819 83.085 -167.5434
12531.285389 83.067 -166.0378
12622.092249 83.060 -164.4001
12713.557132 83.070 -162.6182
12805.684808 83.103 -160.6817
12898.480079 83.167 -158.5856
12991.947783 83.271 -156.3354
13086.092792 83.424 -153.9523
13180.920015 83.639 -151.4785
13276.434395 83.925 -148.9812
13372.640911 84.289 -146.5557
13469.544580 84.737 -144.3229
13567.150452 85.266 -142.4224
13665.463617 85.867 -140.9984
13764.489200 86.526 -140.1839
13864.232362 87.221 -140.0863
13964.698305 87.930 -140.7766
14065.892266 88.625 -142.2848
14167.819519 89.283 -144.5985
14270.485380 89.877 -147.6645
14373.895200 90.388 -151.3887
14478.054370 90.797 -155.6405
14582.968320 91.094 -160.2602
14688.642520 91.277 -165.0730
14795.082478 91.347 -169.9063
14902.293745 91.316 -174.6079
15010.281908 91.201 -179.0595
15119.052599 91.019 176.8150
15228.611486 90.791 173.0472
15338.964283 90.536 169.6286
15450.116741 90.269 166.5175
15562.074656 90.002 163.6496
15674.843864 89.741 160.9492
15788.430244 89.487 158.3405
15902.839718 89.236 155.7589
16018.078250 88.981 153.1594
16134.151848 88.710 150.5243
16251.066563 88.414 147.8647
16368.828491 88.081 145.2198
16487.443769 87.704 142.6508
16606.918584 87.278 140.2334
16727.259161 86.803 138.0485
16848.471777 86.281 136.1741
16970.562748 85.720 134.6777
17093.538442 85.128 133.6108
17217.405268 84.518 133.0061
17342.169684 83.900 132.8764
17467.838194 83.286 133.2159
17594.417350 82.689 134.0027
17721.913751 82.116 135.2026
17850.334044 81.577 136.7734
17979.684923 81.076 138.6700
18109.973131 80.618 140.8480
18241.205462 80.206 143.2674
18373.388756 79.841 145.8948
18506.529905 79.525 148.7034
18640.635849 79.261 151.6689
18775.713581 79.053 154.7613
18911.770141 78.904 157.9364
19048.812624 78.817 161.1288
19186.848172 78.793 164.2501
19325.883983 78.826 167.1950
19465.927305 78.905 169.8511
19606.985439 79.011 172.1116
19749.065738 79.123 173.8853
19892.175609 79.214 175.1038
20036.322514 79.265 175.7233
