* Measurement data measured by REW V5.31.3
* Source: EXCL: Microphone (USB Sound Device        ), MICROPHONE (Master Volume), R, volume: 0.390
* Format: 256k Log Swept Sine, 1 sweep at -15.0 dBFS with no timing reference
* Dated: Jul 9, 2025 12:25:25 AM
* REW Settings:
*  C-weighting compensation: Off
*  Target level: 75.0 dB
* Note: L NC Audio BC2
* Measurement: L NC Audio BC2
* Smoothing: 1/12 octave
* Frequency Step: 96 ppo
* Start Frequency: 0.36621094 Hz
*
* Freq(Hz) SPL(dB) Phase(degrees)
0.366211 90.646 -58.1826
0.368865 90.648 -58.2576
0.371538 90.652 -58.3699
0.374230 90.657 -58.5108
0.376942 90.663 -58.6729
0.379673 90.669 -58.8507
0.382424 90.676 -59.0407
0.385196 90.682 -59.2407
0.387987 90.689 -59.4493
0.390798 90.696 -59.6660
0.393630 90.703 -59.8904
0.396483 90.709 -60.1223
0.399356 90.716 -60.3618
0.402250 90.723 -60.6087
0.405165 90.730 -60.8633
0.408101 90.737 -61.1254
0.411058 90.745 -61.3951
0.414037 90.752 -61.6726
0.417037 90.759 -61.9578
0.420059 90.766 -62.2509
0.423103 90.774 -62.5518
0.426169 90.781 -62.8606
0.429257 90.789 -63.1774
0.432368 90.796 -63.5021
0.435501 90.804 -63.8349
0.438656 90.811 -64.1757
0.441835 90.819 -64.5247
0.445037 90.827 -64.8817
0.448262 90.835 -65.2469
0.451510 90.842 -65.6202
0.454782 90.850 -66.0016
0.458077 90.858 -66.3913
0.461397 90.866 -66.7890
0.464740 90.874 -67.1950
0.468108 90.883 -67.6090
0.471500 90.891 -68.0312
0.474917 90.899 -68.4615
0.478358 90.907 -68.8999
0.481825 90.916 -69.3463
0.485316 90.924 -69.8007
0.488833 90.933 -70.2630
0.492375 90.941 -70.7332
0.495943 90.950 -71.2113
0.499537 90.959 -71.6971
0.503157 90.967 -72.1905
0.506803 90.976 -72.6916
0.510475 90.985 -73.2002
0.514175 90.994 -73.7161
0.517900 91.003 -74.2394
0.521653 91.012 -74.7699
0.525434 91.021 -75.3074
0.529241 91.030 -75.8519
0.533076 91.040 -76.4032
0.536939 91.049 -76.9612
0.540830 91.058 -77.5257
0.544749 91.068 -78.0966
0.548696 91.077 -78.6737
0.552673 91.087 -79.2568
0.556677 91.097 -79.8459
0.560711 91.106 -80.4407
0.564774 91.116 -81.0410
0.568867 91.126 -81.6466
0.572989 91.136 -82.2575
0.577141 91.146 -82.8733
0.581324 91.156 -83.4939
0.585536 91.166 -84.1191
0.589779 91.177 -84.7488
0.594053 91.187 -85.3826
0.598358 91.197 -86.0205
0.602694 91.208 -86.6621
0.607061 91.218 -87.3074
0.611460 91.229 -87.9562
0.615891 91.240 -88.6082
0.620354 91.251 -89.2632
0.624849 91.261 -89.9211
0.629377 91.272 -90.5817
0.633938 91.283 -91.2448
0.638532 91.294 -91.9103
0.643159 91.306 -92.5779
0.647819 91.317 -93.2476
0.652514 91.328 -93.9192
0.657242 91.340 -94.5926
0.662005 91.351 -95.2676
0.666802 91.363 -95.9441
0.671634 91.375 -96.6221
0.676501 91.386 -97.3013
0.681403 91.398 -97.9819
0.686341 91.410 -98.6637
0.691314 91.422 -99.3466
0.696324 91.434 -100.0308
0.701370 91.447 -100.7163
0.706452 91.459 -101.4032
0.711571 91.472 -102.0920
0.716728 91.485 -102.7830
0.721921 91.499 -103.4771
0.727153 91.514 -104.1754
0.732422 91.529 -104.8795
0.737729 91.546 -105.5912
0.743075 91.565 -106.3121
0.748460 91.584 -107.0435
0.753883 91.604 -107.7864
0.759346 91.624 -108.5412
0.764849 91.646 -109.3080
0.770391 91.667 -110.0867
0.775974 91.690 -110.8773
0.781597 91.713 -111.6794
0.787261 91.736 -112.4925
0.792966 91.760 -113.3165
0.798712 91.784 -114.1507
0.804500 91.808 -114.9948
0.810329 91.833 -115.8483
0.816201 91.859 -116.7106
0.822116 91.885 -117.5815
0.828073 91.911 -118.4601
0.834074 91.938 -119.3462
0.840118 91.966 -120.2391
0.846206 91.994 -121.1382
0.852338 92.022 -122.0431
0.858514 92.051 -122.9532
0.864735 92.080 -123.8679
0.871001 92.109 -124.7866
0.877313 92.139 -125.7089
0.883670 92.170 -126.6342
0.890074 92.201 -127.5619
0.896524 92.232 -128.4915
0.903020 92.264 -129.4226
0.909564 92.296 -130.3545
0.916155 92.329 -131.2869
0.922794 92.362 -132.2193
0.929481 92.396 -133.1513
0.936216 92.430 -134.0823
0.943000 92.464 -135.0121
0.949834 92.499 -135.9404
0.956717 92.534 -136.8666
0.963649 92.569 -137.7906
0.970632 92.605 -138.7121
0.977666 92.642 -139.6309
0.984750 92.678 -140.5467
0.991886 92.715 -141.4594
0.999074 92.753 -142.3688
1.006314 92.790 -143.2749
1.013606 92.828 -144.1776
1.020951 92.867 -145.0769
1.028349 92.905 -145.9729
1.035801 92.944 -146.8655
1.043307 92.984 -147.7551
1.050867 93.023 -148.6418
1.058482 93.063 -149.5260
1.066152 93.103 -150.4084
1.073878 93.143 -151.2897
1.081660 93.184 -152.1711
1.089498 93.225 -153.0545
1.097393 93.266 -153.9419
1.105345 93.308 -154.8359
1.113355 93.350 -155.7389
1.121423 93.393 -156.6531
1.129549 93.436 -157.5797
1.137734 93.481 -158.5196
1.145979 93.525 -159.4730
1.154283 93.571 -160.4401
1.162647 93.617 -161.4206
1.171072 93.663 -162.4140
1.179558 93.710 -163.4200
1.188106 93.758 -164.4379
1.196715 93.807 -165.4673
1.205387 93.855 -166.5073
1.214122 93.905 -167.5572
1.222920 93.955 -168.6163
1.231782 94.006 -169.6838
1.240708 94.057 -170.7588
1.249699 94.108 -171.8404
1.258754 94.160 -172.9277
1.267876 94.213 -174.0197
1.277063 94.266 -175.1153
1.286318 94.319 -176.2137
1.295639 94.372 -177.3137
1.305027 94.426 -178.4143
1.314484 94.481 -179.5144
1.324009 94.535 179.3871
1.333604 94.590 178.2911
1.343268 94.645 177.1989
1.353002 94.700 176.1114
1.362806 94.755 175.0297
1.372681 94.810 173.9548
1.382628 94.866 172.8876
1.392647 94.921 171.8291
1.402739 94.977 170.7800
1.412904 95.032 169.7410
1.423142 95.087 168.7122
1.433455 95.143 167.6937
1.443843 95.198 166.6846
1.454305 95.253 165.6833
1.464844 95.308 164.6877
1.475459 95.363 163.6945
1.486150 95.418 162.7009
1.496920 95.473 161.7043
1.507767 95.529 160.7033
1.518693 95.585 159.6969
1.529698 95.641 158.6848
1.540783 95.697 157.6671
1.551948 95.753 156.6440
1.563194 95.810 155.6161
1.574521 95.866 154.5839
1.585931 95.923 153.5481
1.597423 95.980 152.5092
1.608999 96.037 151.4680
1.620658 96.094 150.4251
1.632402 96.151 149.3813
1.644232 96.208 148.3371
1.656146 96.265 147.2933
1.668147 96.322 146.2506
1.680235 96.379 145.2096
1.692411 96.436 144.1711
1.704675 96.492 143.1355
1.717028 96.549 142.1036
1.729470 96.605 141.0759
1.742003 96.661 140.0529
1.754626 96.716 139.0350
1.767341 96.771 138.0224
1.780147 96.826 137.0150
1.793047 96.881 136.0123
1.806040 96.935 135.0133
1.819128 96.988 134.0161
1.832310 97.041 133.0182
1.845587 97.094 132.0166
1.858961 97.146 131.0083
1.872432 97.198 129.9914
1.886001 97.250 128.9646
1.899667 97.301 127.9274
1.913433 97.351 126.8803
1.927299 97.402 125.8237
1.941265 97.452 124.7587
1.955332 97.501 123.6865
1.969501 97.550 122.6083
1.983773 97.598 121.5256
1.998148 97.647 120.4398
2.012627 97.694 119.3524
2.027212 97.741 118.2651
2.041902 97.788 117.1794
2.056698 97.833 116.0970
2.071602 97.879 115.0195
2.086614 97.923 113.9485
2.101734 97.968 112.8855
2.116964 98.011 111.8318
2.132304 98.054 110.7886
2.147756 98.096 109.7563
2.163320 98.137 108.7350
2.178996 98.178 107.7233
2.194786 98.218 106.7192
2.210690 98.256 105.7195
2.226710 98.295 104.7209
2.242845 98.332 103.7206
2.259098 98.368 102.7166
2.275468 98.403 101.7079
2.291957 98.438 100.6944
2.308566 98.471 99.6765
2.325295 98.504 98.6549
2.342145 98.535 97.6307
2.359117 98.566 96.6054
2.376212 98.596 95.5802
2.393431 98.625 94.5568
2.410775 98.653 93.5370
2.428244 98.680 92.5225
2.445840 98.707 91.5151
2.463564 98.732 90.5166
2.481416 98.757 89.5288
2.499397 98.780 88.5530
2.517509 98.803 87.5903
2.535752 98.825 86.6407
2.554127 98.846 85.7035
2.572635 98.866 84.7769
2.591277 98.885 83.8583
2.610055 98.902 82.9453
2.628968 98.918 82.0360
2.648019 98.933 81.1292
2.667208 98.947 80.2240
2.686535 98.960 79.3206
2.706003 98.971 78.4193
2.725612 98.982 77.5208
2.745363 98.991 76.6260
2.765257 98.999 75.7362
2.785295 99.007 74.8526
2.805478 99.014 73.9768
2.825808 99.020 73.1105
2.846285 99.025 72.2552
2.866910 99.030 71.4124
2.887685 99.034 70.5834
2.908611 99.037 69.7689
2.929688 99.040 68.9689
2.950917 99.042 68.1829
2.972301 99.043 67.4098
2.993839 99.043 66.6483
3.015534 99.041 65.8975
3.037386 99.039 65.1566
3.059396 99.036 64.4252
3.081565 99.032 63.7031
3.103896 99.028 62.9902
3.126388 99.023 62.2869
3.149043 99.017 61.5934
3.171862 99.012 60.9103
3.194847 99.007 60.2384
3.217998 99.001 59.5784
3.241317 98.997 58.9315
3.264805 98.992 58.2988
3.288463 98.988 57.6812
3.312293 98.984 57.0797
3.336295 98.980 56.4948
3.360471 98.976 55.9265
3.384822 98.973 55.3745
3.409350 98.969 54.8377
3.434056 98.966 54.3150
3.458940 98.963 53.8052
3.484005 98.960 53.3068
3.509252 98.959 52.8185
3.534681 98.957 52.3389
3.560295 98.957 51.8672
3.586094 98.959 51.4024
3.612081 98.961 50.9444
3.638255 98.965 50.4933
3.664620 98.970 50.0501
3.691175 98.977 49.6161
3.717923 98.985 49.1921
3.744864 98.995 48.7788
3.772001 99.006 48.3758
3.799335 99.018 47.9819
3.826866 99.032 47.5956
3.854597 99.047 47.2150
3.882529 99.063 46.8379
3.910664 99.080 46.4622
3.939002 99.098 46.0860
3.967546 99.118 45.7077
3.996296 99.138 45.3263
4.025255 99.160 44.9414
4.054423 99.183 44.5536
4.083804 99.207 44.1635
4.113396 99.232 43.7719
4.143204 99.259 43.3788
4.173227 99.287 42.9842
4.203468 99.315 42.5874
4.233928 99.344 42.1877
4.264609 99.374 41.7839
4.295512 99.403 41.3749
4.326639 99.432 40.9597
4.357992 99.460 40.5372
4.389572 99.489 40.1066
4.421380 99.517 39.6676
4.453419 99.544 39.2202
4.485691 99.571 38.7648
4.518196 99.598 38.3024
4.550936 99.624 37.8339
4.583914 99.649 37.3603
4.617131 99.673 36.8828
4.650589 99.696 36.4021
4.684289 99.717 35.9189
4.718233 99.737 35.4332
4.752424 99.755 34.9448
4.786862 99.770 34.4531
4.821549 99.784 33.9578
4.856488 99.796 33.4590
4.891680 99.806 32.9575
4.927127 99.814 32.4547
4.962831 99.820 31.9527
4.998794 99.824 31.4535
5.035017 99.826 30.9590
5.071503 99.825 30.4710
5.108253 99.823 29.9904
5.145270 99.818 29.5173
5.182555 99.811 29.0518
5.220110 99.802 28.5936
5.257937 99.791 28.1431
5.296038 99.777 27.7010
5.334415 99.762 27.2686
5.373071 99.746 26.8475
5.412006 99.728 26.4393
5.451224 99.709 26.0457
5.490725 99.688 25.6677
5.530514 99.667 25.3062
5.570590 99.645 24.9611
5.610957 99.622 24.6321
5.651616 99.598 24.3186
5.692570 99.574 24.0200
5.733821 99.549 23.7356
5.775370 99.526 23.4652
5.817221 99.503 23.2086
5.859375 99.481 22.9660
5.901834 99.460 22.7378
5.944602 99.440 22.5236
5.987679 99.421 22.3224
6.031068 99.404 22.1322
6.074771 99.388 21.9505
6.118792 99.374 21.7745
6.163131 99.362 21.6021
6.207792 99.351 21.4312
6.252776 99.343 21.2609
6.298086 99.337 21.0906
6.343725 99.333 20.9192
6.389694 99.331 20.7450
6.435996 99.331 20.5656
6.482634 99.332 20.3784
6.529610 99.334 20.1807
6.576926 99.338 19.9703
6.624585 99.342 19.7463
6.672590 99.348 19.5078
6.720942 99.354 19.2546
6.769645 99.360 18.9867
6.818700 99.366 18.7037
6.868111 99.372 18.4050
6.917881 99.377 18.0902
6.968010 99.380 17.7588
7.018504 99.383 17.4106
7.069362 99.383 17.0463
7.120590 99.382 16.6669
7.172189 99.380 16.2742
7.224161 99.374 15.8697
7.276511 99.367 15.4551
7.329239 99.357 15.0314
7.382350 99.344 14.5994
7.435845 99.328 14.1599
7.489729 99.309 13.7147
7.544002 99.288 13.2658
7.598669 99.263 12.8157
7.653732 99.236 12.3665
7.709194 99.207 11.9199
7.765058 99.175 11.4769
7.821327 99.140 11.0386
7.878004 99.103 10.6059
7.935091 99.064 10.1802
7.992592 99.023 9.7629
8.050510 98.981 9.3555
8.108847 98.938 8.9585
8.167607 98.894 8.5724
8.226793 98.849 8.1972
8.286408 98.803 7.8326
8.346454 98.758 7.4784
8.406936 98.713 7.1343
8.467856 98.668 6.8000
8.529218 98.624 6.4753
8.591024 98.581 6.1593
8.653278 98.539 5.8506
8.715983 98.498 5.5481
8.779143 98.459 5.2504
8.842760 98.421 4.9567
8.906839 98.385 4.6661
8.971381 98.350 4.3777
9.036392 98.318 4.0905
9.101873 98.287 3.8033
9.167829 98.257 3.5153
9.234263 98.230 3.2257
9.301178 98.204 2.9342
9.368578 98.180 2.6404
9.436467 98.158 2.3438
9.504847 98.137 2.0441
9.573723 98.119 1.7409
9.643099 98.102 1.4341
9.712976 98.087 1.1232
9.783361 98.074 0.8080
9.854255 98.063 0.4880
9.925663 98.054 0.1628
9.997588 98.047 -0.1681
10.070035 98.042 -0.5056
10.143007 98.039 -0.8506
10.216507 98.039 -1.2040
10.290540 98.040 -1.5669
10.365109 98.044 -1.9401
10.440219 98.049 -2.3246
10.515873 98.056 -2.7213
10.592076 98.065 -3.1313
10.668830 98.075 -3.5553
10.746141 98.085 -3.9935
10.824012 98.096 -4.4459
10.902447 98.107 -4.9122
10.981451 98.118 -5.3917
11.061027 98.129 -5.8837
11.141180 98.138 -6.3866
11.221913 98.145 -6.8983
11.303232 98.151 -7.4163
11.385140 98.155 -7.9382
11.467641 98.156 -8.4611
11.550741 98.155 -8.9819
11.634442 98.152 -9.4972
11.718750 98.146 -10.0033
11.803669 98.137 -10.4971
11.889203 98.126 -10.9756
11.975357 98.113 -11.4360
12.062136 98.098 -11.8757
12.149543 98.083 -12.2928
12.237583 98.066 -12.6859
12.326262 98.049 -13.0546
12.415583 98.032 -13.3990
12.505552 98.016 -13.7197
12.596172 98.001 -14.0183
12.687449 97.988 -14.2968
12.779387 97.976 -14.5581
12.871992 97.966 -14.8053
12.965268 97.958 -15.0415
13.059220 97.952 -15.2701
13.153852 97.947 -15.4945
13.249170 97.944 -15.7177
13.345179 97.941 -15.9420
13.441884 97.939 -16.1694
13.539289 97.937 -16.4012
13.637401 97.934 -16.6381
13.736223 97.931 -16.8798
13.835761 97.925 -17.1257
13.936021 97.918 -17.3745
14.037007 97.908 -17.6244
14.138725 97.896 -17.8737
14.241180 97.881 -18.1202
14.344377 97.864 -18.3619
14.448323 97.844 -18.5973
14.553021 97.822 -18.8250
14.658478 97.799 -19.0440
14.764700 97.773 -19.2542
14.871691 97.747 -19.4558
14.979457 97.719 -19.6499
15.088005 97.690 -19.8379
15.197339 97.662 -20.0215
15.307465 97.632 -20.2028
15.418389 97.603 -20.3841
15.530117 97.572 -20.5674
15.642655 97.542 -20.7544
15.756008 97.510 -20.9467
15.870182 97.478 -21.1450
15.985184 97.445 -21.3497
16.101019 97.410 -21.5604
16.217694 97.374 -21.7765
16.335214 97.336 -21.9966
16.453586 97.297 -22.2192
16.572815 97.257 -22.4427
16.692909 97.216 -22.6658
16.813872 97.174 -22.8872
16.935713 97.132 -23.1062
17.058436 97.091 -23.3226
17.182048 97.050 -23.5374
17.306556 97.012 -23.7516
17.431967 96.975 -23.9673
17.558286 96.940 -24.1870
17.685521 96.908 -24.4137
17.813677 96.878 -24.6501
17.942762 96.852 -24.8993
18.072783 96.827 -25.1633
18.203746 96.805 -25.4440
18.335658 96.785 -25.7421
18.468526 96.766 -26.0579
18.602356 96.748 -26.3904
18.737156 96.731 -26.7383
18.872934 96.715 -27.0995
19.009695 96.699 -27.4718
19.147447 96.683 -27.8529
19.286197 96.668 -28.2409
19.425953 96.653 -28.6344
19.566721 96.638 -29.0325
19.708510 96.624 -29.4348
19.851326 96.610 -29.8414
19.995177 96.596 -30.2527
20.140070 96.581 -30.6683
20.286013 96.565 -31.0875
20.433014 96.547 -31.5079
20.581080 96.526 -31.9260
20.730219 96.501 -32.3363
20.880439 96.471 -32.7316
21.031747 96.437 -33.1034
21.184152 96.398 -33.4422
21.337661 96.354 -33.7389
21.492282 96.308 -33.9854
21.648024 96.259 -34.1760
21.804895 96.211 -34.3085
21.962902 96.165 -34.3848
22.122054 96.123 -34.4119
22.282360 96.087 -34.4006
22.443827 96.057 -34.3655
22.606464 96.033 -34.3226
22.770280 96.015 -34.2880
22.935283 96.000 -34.2747
23.101481 95.988 -34.2920
23.268884 95.975 -34.3436
23.437500 95.958 -34.4275
23.607338 95.937 -34.5365
23.778406 95.909 -34.6595
23.950714 95.874 -34.7837
24.124271 95.832 -34.8966
24.299086 95.786 -34.9883
24.475167 95.737 -35.0536
24.652524 95.688 -35.0927
24.831166 95.640 -35.1119
25.011103 95.596 -35.1224
25.192344 95.556 -35.1390
25.374898 95.520 -35.1772
25.558775 95.487 -35.2509
25.743984 95.457 -35.3701
25.930536 95.425 -35.5394
26.118439 95.391 -35.7573
26.307704 95.352 -36.0170
26.498341 95.308 -36.3071
26.690359 95.256 -36.6135
26.883768 95.199 -36.9214
27.078579 95.136 -37.2170
27.274801 95.069 -37.4890
27.472446 95.001 -37.7302
27.671522 94.933 -37.9380
27.872042 94.868 -38.1147
28.074014 94.808 -38.2674
28.277450 94.754 -38.4059
28.482360 94.705 -38.5414
28.688755 94.661 -38.6844
28.896645 94.621 -38.8414
29.106042 94.583 -39.0133
29.316957 94.544 -39.1945
29.529400 94.502 -39.3726
29.743382 94.458 -39.5311
29.958915 94.412 -39.6527
30.176009 94.366 -39.7235
30.394677 94.324 -39.7383
30.614929 94.289 -39.7039
30.836778 94.265 -39.6396
31.060234 94.253 -39.5750
31.285309 94.252 -39.5432
31.512015 94.258 -39.5726
31.740364 94.267 -39.6798
31.970368 94.273 -39.8635
32.202039 94.268 -40.1050
32.435388 94.252 -40.3716
32.670428 94.222 -40.6245
32.907171 94.182 -40.8289
33.145630 94.137 -40.9629
33.385817 94.095 -41.0258
33.627745 94.060 -41.0391
33.871425 94.037 -41.0426
34.116871 94.026 -41.0825
34.364096 94.022 -41.1983
34.613113 94.019 -41.4101
34.863934 94.007 -41.7120
35.116572 93.981 -42.0728
35.371041 93.937 -42.4432
35.627354 93.877 -42.7684
35.885525 93.804 -43.0019
36.145566 93.727 -43.1190
36.407492 93.657 -43.1252
36.671316 93.599 -43.0562
36.937051 93.559 -42.9680
37.204712 93.533 -42.9189
37.474313 93.515 -42.9502
37.745867 93.497 -43.0721
38.019389 93.468 -43.2625
38.294893 93.426 -43.4747
38.572394 93.370 -43.6556
38.851905 93.305 -43.7637
39.133442 93.240 -43.7856
39.417019 93.181 -43.7413
39.702651 93.135 -43.6775
39.990353 93.100 -43.6479
40.280140 93.070 -43.6914
40.572026 93.038 -43.8158
40.866028 92.996 -43.9951
41.162160 92.942 -44.1810
41.460438 92.877 -44.3226
41.760877 92.809 -44.3879
42.063494 92.749 -44.3782
42.368303 92.702 -44.3302
42.675322 92.673 -44.3025
42.984565 92.658 -44.3524
43.296048 92.650 -44.5139
43.609789 92.638 -44.7842
43.925804 92.615 -45.1263
44.244108 92.577 -45.4819
44.564719 92.527 -45.7931
44.887654 92.472 -46.0220
45.212928 92.418 -46.1633
45.540560 92.372 -46.2432
45.870565 92.336 -46.3043
46.202962 92.305 -46.3823
46.537768 92.274 -46.4868
46.875000 92.236 -46.5949
47.214676 92.189 -46.6637
47.556813 92.137 -46.6549
47.901429 92.088 -46.5592
48.248542 92.048 -46.4073
48.598171 92.022 -46.2593
48.950334 92.004 -46.1764
49.305048 91.986 -46.1910
49.662333 91.958 -46.2910
50.022206 91.913 -46.4242
50.384688 91.850 -46.5206
50.749796 91.776 -46.5201
51.117550 91.702 -46.3965
51.487969 91.638 -46.1693
51.861072 91.594 -45.8966
52.236879 91.570 -45.6530
52.615409 91.560 -45.4978
52.996681 91.556 -45.4524
53.380717 91.547 -45.4946
53.767536 91.530 -45.5732
54.157158 91.507 -45.6365
54.549603 91.482 -45.6572
54.944892 91.462 -45.6443
55.343045 91.449 -45.6323
55.744084 91.441 -45.6578
56.148028 91.433 -45.7369
56.554900 91.418 -45.8578
56.964720 91.393 -45.9893
57.377510 91.359 -46.0981
57.793291 91.319 -46.1626
58.212085 91.278 -46.1787
58.633914 91.241 -46.1605
59.058799 91.209 -46.1350
59.486764 91.183 -46.1344
59.917829 91.160 -46.1852
60.352019 91.137 -46.2974
60.789354 91.107 -46.4582
61.229859 91.070 -46.6366
61.673556 91.026 -46.7955
62.120468 90.979 -46.9077
62.570618 90.934 -46.9669
63.024031 90.896 -46.9878
63.480729 90.866 -46.9971
63.940736 90.843 -47.0186
64.404077 90.823 -47.0626
64.870776 90.802 -47.1231
65.340856 90.779 -47.1841
65.814343 90.751 -47.2286
66.291261 90.720 -47.2457
66.771635 90.687 -47.2313
67.255489 90.650 -47.1844
67.742850 90.611 -47.1053
68.233743 90.569 -46.9951
68.728193 90.526 -46.8578
69.226226 90.482 -46.7015
69.727867 90.438 -46.5374
70.233144 90.395 -46.3781
70.742083 90.352 -46.2365
71.254709 90.310 -46.1230
71.771050 90.268 -46.0441
72.291132 90.226 -46.0024
72.814984 90.184 -45.9982
73.342631 90.144 -46.0303
73.874102 90.104 -46.0946
74.409424 90.065 -46.1816
74.948626 90.027 -46.2770
75.491734 89.990 -46.3646
76.038779 89.957 -46.4320
76.589787 89.927 -46.4736
77.144788 89.903 -46.4908
77.703811 89.883 -46.4889
78.266885 89.866 -46.4724
78.834039 89.851 -46.4443
79.405303 89.835 -46.4081
79.980706 89.818 -46.3684
80.560280 89.799 -46.3311
81.144053 89.777 -46.3002
81.732056 89.751 -46.2791
82.324320 89.721 -46.2709
82.920876 89.688 -46.2788
83.521755 89.652 -46.3029
84.126988 89.613 -46.3389
84.736607 89.570 -46.3793
85.350643 89.526 -46.4149
85.969129 89.480 -46.4375
86.592097 89.433 -46.4409
87.219579 89.387 -46.4210
87.851608 89.340 -46.3760
88.488217 89.293 -46.3065
89.129439 89.247 -46.2172
89.775308 89.201 -46.1151
90.425856 89.156 -46.0057
91.081119 89.110 -45.8921
91.741131 89.064 -45.7754
92.405925 89.020 -45.6589
93.075536 88.977 -45.5485
93.750000 88.937 -45.4500
94.429351 88.898 -45.3654
95.113625 88.859 -45.2923
95.802858 88.821 -45.2264
96.497085 88.783 -45.1650
97.196342 88.745 -45.1073
97.900667 88.706 -45.0533
98.610096 88.666 -45.0026
99.324665 88.625 -44.9518
100.044413 88.583 -44.8967
100.769376 88.541 -44.8339
101.499592 88.501 -44.7640
102.235100 88.463 -44.6910
102.975938 88.428 -44.6197
103.722144 88.395 -44.5526
104.473757 88.365 -44.4907
105.230817 88.336 -44.4344
105.993363 88.308 -44.3848
106.761435 88.279 -44.3430
107.535072 88.248 -44.3084
108.314315 88.214 -44.2781
109.099206 88.177 -44.2471
109.889783 88.136 -44.2103
110.686090 88.093 -44.1631
111.488167 88.048 -44.1022
112.296056 88.002 -44.0262
113.109800 87.956 -43.9358
113.929440 87.911 -43.8317
114.755020 87.865 -43.7136
115.586582 87.820 -43.5808
116.424170 87.775 -43.4334
117.267827 87.731 -43.2743
118.117598 87.688 -43.1090
118.973527 87.646 -42.9440
119.835658 87.606 -42.7841
120.704037 87.569 -42.6321
121.578708 87.533 -42.4899
122.459718 87.501 -42.3578
123.347111 87.472 -42.2348
124.240935 87.445 -42.1183
125.141236 87.421 -42.0070
126.048061 87.399 -41.9017
126.961458 87.379 -41.8065
127.881473 87.361 -41.7279
128.808154 87.345 -41.6716
129.741551 87.328 -41.6410
130.681712 87.312 -41.6354
131.628686 87.296 -41.6496
132.582521 87.279 -41.6736
133.543269 87.260 -41.6942
134.510979 87.241 -41.6973
135.485701 87.222 -41.6721
136.467486 87.202 -41.6138
137.456386 87.182 -41.5231
138.452451 87.162 -41.4050
139.455735 87.141 -41.2657
140.466288 87.117 -41.1116
141.484165 87.090 -40.9478
142.509418 87.061 -40.7793
143.542100 87.029 -40.6107
144.582265 86.995 -40.4460
145.629968 86.961 -40.2883
146.685262 86.927 -40.1387
147.748204 86.895 -39.9963
148.818849 86.865 -39.8588
149.897251 86.837 -39.7231
150.983469 86.810 -39.5859
152.077557 86.784 -39.4443
153.179574 86.758 -39.2973
154.289576 86.732 -39.1473
155.407622 86.707 -39.0015
156.533770 86.684 -38.8700
157.668078 86.664 -38.7610
158.810606 86.647 -38.6774
159.961413 86.633 -38.6160
161.120559 86.623 -38.5688
162.288105 86.616 -38.5262
163.464112 86.610 -38.4791
164.648640 86.605 -38.4207
165.841752 86.600 -38.3464
167.043510 86.591 -38.2551
168.253976 86.581 -38.1475
169.473213 86.567 -38.0261
170.701286 86.551 -37.8942
171.938258 86.534 -37.7548
173.184194 86.517 -37.6099
174.439158 86.501 -37.4608
175.703216 86.488 -37.3083
176.976434 86.477 -37.1531
178.258878 86.469 -36.9965
179.550615 86.461 -36.8407
180.851713 86.455 -36.6898
182.162239 86.448 -36.5484
183.482262 86.441 -36.4211
184.811850 86.434 -36.3114
186.151073 86.425 -36.2209
187.500000 86.417 -36.1486
188.858702 86.408 -36.0898
190.227250 86.399 -36.0377
191.605715 86.390 -35.9839
192.994169 86.379 -35.9216
194.392685 86.367 -35.8471
195.801334 86.353 -35.7607
197.220191 86.338 -35.6655
198.649330 86.323 -35.5648
200.088825 86.307 -35.4603
201.538751 86.293 -35.3505
202.999184 86.279 -35.2330
204.470200 86.266 -35.1066
205.951875 86.252 -34.9732
207.444287 86.237 -34.8367
208.947514 86.219 -34.7006
210.461634 86.199 -34.5667
211.986726 86.176 -34.4341
213.522869 86.152 -34.3001
215.070144 86.128 -34.1622
216.628631 86.105 -34.0198
218.198411 86.085 -33.8759
219.779567 86.067 -33.7363
221.372180 86.054 -33.6069
222.976334 86.045 -33.4909
224.592112 86.038 -33.3865
226.219600 86.033 -33.2892
227.858880 86.030 -33.1947
229.510039 86.027 -33.1018
231.173164 86.024 -33.0123
232.848340 86.023 -32.9297
234.535655 86.023 -32.8561
236.235197 86.023 -32.7910
237.947054 86.024 -32.7310
239.671317 86.024 -32.6707
241.408074 86.022 -32.6047
243.157416 86.020 -32.5287
244.919435 86.015 -32.4396
246.694223 86.009 -32.3348
248.481871 86.001 -32.2120
250.282473 85.993 -32.0699
252.096123 85.984 -31.9093
253.922915 85.976 -31.7350
255.762945 85.970 -31.5571
257.616309 85.969 -31.3886
259.483103 85.970 -31.2412
261.363424 85.974 -31.1189
263.257372 85.978 -31.0167
265.165043 85.980 -30.9237
267.086538 85.982 -30.8293
269.021957 85.982 -30.7277
270.971401 85.982 -30.6191
272.934972 85.984 -30.5081
274.912771 85.988 -30.4000
276.904902 85.994 -30.2981
278.911469 86.004 -30.2013
280.932577 86.016 -30.1070
282.968330 86.032 -30.0140
285.018835 86.049 -29.9252
287.084199 86.068 -29.8474
289.164530 86.086 -29.7872
291.259935 86.101 -29.7466
293.370525 86.113 -29.7198
295.496408 86.121 -29.6958
297.637697 86.126 -29.6636
299.794503 86.128 -29.6161
301.966937 86.130 -29.5519
304.155114 86.132 -29.4738
306.359147 86.134 -29.3871
308.579152 86.137 -29.2980
310.815244 86.141 -29.2121
313.067539 86.146 -29.1326
315.336156 86.152 -29.0599
317.621211 86.157 -28.9917
319.922826 86.163 -28.9248
322.241118 86.170 -28.8578
324.576210 86.179 -28.7904
326.928223 86.190 -28.7218
329.297280 86.203 -28.6508
331.683504 86.219 -28.5770
334.087019 86.236 -28.5031
336.507952 86.254 -28.4331
338.946427 86.272 -28.3701
341.402572 86.288 -28.3132
343.876516 86.303 -28.2580
346.368387 86.316 -28.2006
348.878315 86.327 -28.1391
351.406431 86.335 -28.0741
353.952867 86.341 -28.0059
356.517756 86.345 -27.9333
359.101230 86.348 -27.8539
361.703426 86.350 -27.7660
364.324478 86.352 -27.6703
366.964523 86.354 -27.5697
369.623699 86.355 -27.4673
372.302145 86.357 -27.3641
375.000000 86.358 -27.2592
377.717405 86.361 -27.1526
380.454501 86.366 -27.0471
383.211431 86.372 -26.9479
385.988339 86.382 -26.8594
388.785369 86.394 -26.7826
391.602668 86.411 -26.7147
394.440383 86.432 -26.6517
397.298660 86.457 -26.5918
400.177650 86.485 -26.5364
403.077502 86.515 -26.4883
405.998368 86.548 -26.4489
408.940400 86.581 -26.4165
411.903750 86.614 -26.3867
414.888575 86.646 -26.3536
417.895028 86.679 -26.3119
420.923268 86.710 -26.2573
423.973452 86.742 -26.1866
427.045738 86.774 -26.0999
430.140287 86.807 -26.0002
433.257261 86.840 -25.8937
436.396822 86.874 -25.7861
439.559133 86.908 -25.6819
442.744360 86.943 -25.5845
445.952668 86.980 -25.4990
449.184225 87.019 -25.4315
452.439199 87.060 -25.3887
455.717760 87.101 -25.3746
459.020079 87.142 -25.3857
462.346327 87.181 -25.4105
465.696680 87.219 -25.4339
469.071310 87.256 -25.4458
472.470394 87.295 -25.4429
475.894109 87.335 -25.4270
479.342634 87.376 -25.4032
482.816148 87.418 -25.3765
486.314833 87.461 -25.3480
489.838871 87.502 -25.3133
493.388445 87.542 -25.2652
496.963741 87.582 -25.2015
500.564945 87.623 -25.1277
504.192245 87.666 -25.0533
507.845830 87.710 -24.9850
511.525890 87.755 -24.9252
515.232618 87.799 -24.8719
518.966206 87.844 -24.8219
522.726849 87.888 -24.7711
526.514743 87.931 -24.7159
530.330086 87.975 -24.6556
534.173076 88.020 -24.5935
538.043915 88.066 -24.5342
541.942803 88.112 -24.4790
545.869944 88.158 -24.4255
549.825542 88.205 -24.3702
553.809805 88.252 -24.3113
557.822939 88.299 -24.2487
561.865154 88.346 -24.1830
565.936660 88.393 -24.1144
570.037671 88.439 -24.0412
574.168399 88.486 -23.9609
578.329060 88.533 -23.8718
582.519870 88.582 -23.7736
586.741049 88.631 -23.6660
590.992817 88.682 -23.5490
595.275394 88.735 -23.4264
599.589005 88.791 -23.3100
603.933874 88.848 -23.2135
608.310228 88.905 -23.1454
612.718295 88.960 -23.1053
617.158304 89.012 -23.0849
621.630488 89.061 -23.0706
626.135079 89.108 -23.0479
630.672311 89.155 -23.0071
635.242423 89.204 -22.9453
639.845651 89.255 -22.8636
644.482237 89.309 -22.7627
649.152421 89.366 -22.6429
653.856447 89.427 -22.5093
658.594560 89.491 -22.3720
663.367008 89.558 -22.2447
668.174039 89.627 -22.1392
673.015903 89.695 -22.0602
677.892854 89.762 -22.0048
682.805145 89.829 -21.9662
687.753032 89.896 -21.9358
692.736774 89.964 -21.9041
697.756631 90.032 -21.8640
702.812863 90.100 -21.8142
707.905735 90.171 -21.7596
713.035511 90.243 -21.7074
718.202461 90.316 -21.6619
723.406852 90.390 -21.6221
728.648956 90.464 -21.5844
733.929047 90.536 -21.5448
739.247399 90.608 -21.5022
744.604290 90.678 -21.4561
750.000000 90.746 -21.4060
755.434809 90.813 -21.3502
760.909001 90.880 -21.2869
766.422861 90.945 -21.2164
771.976677 91.010 -21.1419
777.570739 91.074 -21.0681
783.205337 91.138 -20.9989
788.880766 91.203 -20.9346
794.597321 91.268 -20.8715
800.355301 91.333 -20.8053
806.155005 91.399 -20.7344
811.996736 91.467 -20.6619
817.880799 91.537 -20.5942
823.807501 91.608 -20.5397
829.777150 91.679 -20.5062
835.790057 91.749 -20.4988
841.846536 91.816 -20.5161
847.946903 91.880 -20.5521
854.091476 91.940 -20.6017
860.280575 91.996 -20.6606
866.514523 92.050 -20.7241
872.793644 92.101 -20.7850
879.118267 92.150 -20.8379
885.488720 92.198 -20.8817
891.905336 92.245 -20.9175
898.368450 92.291 -20.9460
904.878398 92.337 -20.9684
911.435520 92.382 -20.9875
918.040157 92.428 -21.0084
924.692655 92.474 -21.0343
931.393359 92.521 -21.0673
938.142619 92.570 -21.1092
944.940787 92.619 -21.1606
951.788218 92.668 -21.2194
958.685268 92.714 -21.2814
965.632296 92.759 -21.3419
972.629666 92.802 -21.3977
979.677741 92.843 -21.4496
986.776890 92.883 -21.5012
993.927482 92.922 -21.5533
1001.129891 92.960 -21.6011
1008.384491 92.996 -21.6366
1015.691660 93.033 -21.6542
1023.051781 93.070 -21.6512
1030.465236 93.108 -21.6262
1037.932411 93.148 -21.5822
1045.453698 93.187 -21.5273
1053.029486 93.225 -21.4698
1060.660172 93.259 -21.4120
1068.346153 93.287 -21.3502
1076.087829 93.310 -21.2783
1083.885605 93.328 -21.1909
1091.739887 93.342 -21.0859
1099.651084 93.353 -20.9633
1107.619609 93.363 -20.8209
1115.645878 93.374 -20.6547
1123.730308 93.385 -20.4595
1131.873321 93.398 -20.2298
1140.075341 93.413 -19.9606
1148.336797 93.431 -19.6479
1156.658119 93.453 -19.2896
1165.039741 93.482 -18.8838
1173.482099 93.519 -18.4294
1181.985634 93.567 -17.9296
1190.550789 93.628 -17.3954
1199.178011 93.703 -16.8453
1207.867749 93.794 -16.3000
1216.620457 93.898 -15.7748
1225.436590 94.013 -15.2754
1234.316609 94.138 -14.8018
1243.260976 94.269 -14.3546
1252.270157 94.406 -13.9376
1261.344623 94.551 -13.5603
1270.484846 94.703 -13.2377
1279.691303 94.863 -12.9839
1288.964474 95.033 -12.8095
1298.304842 95.210 -12.7233
1307.712894 95.394 -12.7334
1317.189120 95.584 -12.8473
1326.734016 95.776 -13.0696
1336.348077 95.969 -13.4006
1346.031806 96.160 -13.8383
1355.785708 96.346 -14.3798
1365.610290 96.527 -15.0211
1375.506065 96.702 -15.7551
1385.473549 96.869 -16.5699
1395.513261 97.031 -17.4545
1405.625726 97.187 -18.4023
1415.811469 97.337 -19.4137
1426.071023 97.480 -20.4929
1436.404921 97.613 -21.6398
1446.813703 97.734 -22.8439
1457.297912 97.839 -24.0863
1467.858093 97.927 -25.3457
1478.494798 97.998 -26.6025
1489.208581 98.051 -27.8411
1500.000000 98.087 -29.0505
1510.869618 98.110 -30.2246
1521.818002 98.121 -31.3614
1532.845723 98.123 -32.4609
1543.953355 98.120 -33.5232
1555.141477 98.114 -34.5459
1566.410674 98.107 -35.5248
1577.761531 98.098 -36.4576
1589.194642 98.087 -37.3445
1600.710601 98.071 -38.1858
1612.310010 98.049 -38.9801
1623.993473 98.017 -39.7260
1635.761599 97.977 -40.4227
1647.615002 97.929 -41.0703
1659.554299 97.875 -41.6672
1671.580114 97.817 -42.2109
1683.693072 97.759 -42.7003
1695.893807 97.702 -43.1389
1708.182952 97.648 -43.5328
1720.561150 97.597 -43.8876
1733.029045 97.551 -44.2048
1745.587288 97.507 -44.4795
1758.236533 97.467 -44.7005
1770.977440 97.428 -44.8546
1783.810673 97.393 -44.9355
1796.736900 97.362 -44.9503
1809.756796 97.334 -44.9177
1822.871040 97.310 -44.8579
1836.080315 97.288 -44.7828
1849.385310 97.267 -44.6946
1862.786718 97.247 -44.5879
1876.285239 97.227 -44.4538
1889.881575 97.206 -44.2847
1903.576436 97.185 -44.0773
1917.370535 97.164 -43.8335
1931.264593 97.146 -43.5588
1945.259332 97.131 -43.2604
1959.355483 97.123 -42.9495
1973.553781 97.121 -42.6394
1987.854965 97.126 -42.3419
2002.259781 97.135 -42.0639
2016.768981 97.149 -41.8064
2031.383320 97.165 -41.5642
2046.103561 97.182 -41.3258
2060.930471 97.199 -41.0767
2075.864823 97.215 -40.8061
2090.907395 97.230 -40.5094
2106.058972 97.245 -40.1880
2121.320344 97.259 -39.8456
2136.692305 97.276 -39.4827
2152.175658 97.295 -39.0947
2167.771210 97.320 -38.6757
2183.479774 97.352 -38.2260
2199.302169 97.392 -37.7539
2215.239219 97.438 -37.2720
2231.291755 97.490 -36.7904
2247.460615 97.546 -36.3124
2263.746641 97.606 -35.8325
2280.150683 97.671 -35.3395
2296.673595 97.739 -34.8240
2313.316238 97.815 -34.2828
2330.079481 97.898 -33.7233
2346.964198 97.994 -33.1647
2363.971268 98.102 -32.6353
2381.101578 98.222 -32.1637
2398.356022 98.352 -31.7727
2415.735498 98.488 -31.4747
2433.240913 98.628 -31.2725
2450.873180 98.769 -31.1648
2468.633217 98.907 -31.1518
2486.521951 99.043 -31.2354
2504.540314 99.175 -31.4139
2522.689246 99.304 -31.6783
2540.969692 99.430 -32.0149
2559.382606 99.555 -32.4136
2577.928947 99.678 -32.8729
2596.609683 99.799 -33.3973
2615.425787 99.916 -33.9924
2634.378241 100.028 -34.6619
2653.468031 100.134 -35.4045
2672.696154 100.235 -36.2155
2692.063613 100.331 -37.0898
2711.571415 100.423 -38.0277
2731.220579 100.513 -39.0386
2751.012130 100.601 -40.1376
2770.947098 100.687 -41.3405
2791.026522 100.769 -42.6600
2811.251451 100.848 -44.1048
2831.622938 100.920 -45.6783
2852.142045 100.986 -47.3781
2872.809842 101.041 -49.1945
2893.627406 101.083 -51.1118
2914.595823 101.110 -53.1092
2935.716186 101.121 -55.1661
2956.989596 101.114 -57.2666
2978.417161 101.089 -59.3978
3000.000000 101.045 -61.5470
3021.739237 100.982 -63.6987
3043.636005 100.898 -65.8332
3065.691446 100.794 -67.9257
3087.906710 100.671 -69.9482
3110.282955 100.530 -71.8762
3132.821347 100.375 -73.6936
3155.523062 100.206 -75.3928
3178.389283 100.027 -76.9716
3201.421202 99.837 -78.4304
3224.620020 99.638 -79.7719
3247.986946 99.428 -80.9987
3271.523198 99.208 -82.1113
3295.230004 98.975 -83.1069
3319.108599 98.732 -83.9816
3343.160228 98.481 -84.7360
3367.386145 98.224 -85.3764
3391.787613 97.962 -85.9113
3416.365904 97.697 -86.3475
3441.122300 97.428 -86.6878
3466.058091 97.154 -86.9298
3491.174576 96.876 -87.0709
3516.473066 96.596 -87.1150
3541.954880 96.317 -87.0739
3567.621345 96.039 -86.9625
3593.473800 95.763 -86.7949
3619.513592 95.485 -86.5850
3645.742080 95.204 -86.3458
3672.160630 94.916 -86.0869
3698.770620 94.617 -85.8117
3725.573436 94.304 -85.5171
3752.570477 93.973 -85.1908
3779.763150 93.617 -84.8052
3807.152872 93.226 -84.3108
3834.741071 92.791 -83.6284
3862.529185 92.306 -82.6379
3890.518664 91.767 -81.1683
3918.710966 91.183 -78.9857
3947.107561 90.575 -75.7892
3975.709929 89.985 -71.2427
4004.519563 89.480 -65.0989
4033.537962 89.142 -57.4446
4062.766641 89.043 -48.9338
4092.207123 89.202 -40.6669
4121.860942 89.575 -33.6382
4151.729646 90.080 -28.2898
4181.814790 90.633 -24.5420
4212.117944 91.177 -22.0613
4242.640687 91.677 -20.4713
4273.384610 92.123 -19.4507
4304.351317 92.514 -18.7596
4335.542421 92.856 -18.2319
4366.959549 93.155 -17.7572
4398.604338 93.418 -17.2675
4430.478438 93.653 -16.7256
4462.583511 93.863 -16.1125
4494.921231 94.056 -15.4205
4527.493283 94.237 -14.6522
4560.301365 94.410 -13.8201
4593.347189 94.581 -12.9424
4626.632476 94.754 -12.0370
4660.158962 94.934 -11.1222
4693.928395 95.126 -10.2213
4727.942535 95.335 -9.3646
4762.203156 95.563 -8.5866
4796.712043 95.809 -7.9222
4831.470996 96.073 -7.4026
4866.481826 96.349 -7.0526
4901.746360 96.638 -6.8955
4937.266434 96.935 -6.9579
4973.043902 97.240 -7.2687
5009.080628 97.549 -7.8544
5045.378492 97.858 -8.7352
5081.939384 98.163 -9.9275
5118.765212 98.459 -11.4466
5155.857894 98.740 -13.3085
5193.219366 98.997 -15.5275
5230.851574 99.223 -18.1077
5268.756481 99.409 -21.0353
5306.936062 99.545 -24.2769
5345.392309 99.623 -27.7791
5384.127225 99.636 -31.4696
5423.142830 99.580 -35.2562
5462.441159 99.449 -39.0319
5502.024259 99.244 -42.6849
5541.894195 98.967 -46.1095
5582.053045 98.622 -49.2172
5622.502902 98.214 -51.9408
5663.245876 97.750 -54.2342
5704.284090 97.240 -56.0737
5745.619684 96.694 -57.4568
5787.254813 96.125 -58.3965
5829.191647 95.541 -58.9108
5871.432373 94.953 -59.0146
5913.979192 94.369 -58.7193
5956.834323 93.796 -58.0374
6000.000000 93.241 -56.9884
6043.478473 92.710 -55.5956
6087.272010 92.209 -53.8808
6131.382892 91.742 -51.8655
6175.813420 91.311 -49.5745
6220.565910 90.919 -47.0380
6265.642695 90.568 -44.2937
6311.046124 90.261 -41.3918
6356.778566 90.001 -38.4006
6402.842404 89.787 -35.4045
6449.240040 89.615 -32.4890
6495.973891 89.480 -29.7231
6543.046396 89.372 -27.1478
6590.460007 89.281 -24.7724
6638.217197 89.200 -22.5761
6686.320456 89.123 -20.5178
6734.772290 89.050 -18.5482
6783.575226 88.980 -16.6186
6832.731809 88.915 -14.6836
6882.244600 88.859 -12.7104
6932.116181 88.821 -10.6952
6982.349153 88.807 -8.6637
7032.946133 88.824 -6.6563
7083.909760 88.877 -4.7118
7135.242690 88.971 -2.8629
7186.947600 89.106 -1.1406
7239.027185 89.286 0.4196
7291.484160 89.508 1.7710
7344.321260 89.771 2.8556
7397.541239 90.068 3.6132
7451.146872 90.391 3.9901
7505.140954 90.733 3.9371
7559.526299 91.084 3.4006
7614.305743 91.434 2.3190
7669.482141 91.774 0.6271
7725.058371 92.085 -1.7323
7781.037328 92.347 -4.7905
7837.421932 92.534 -8.5361
7894.215122 92.621 -12.9069
7951.419859 92.584 -17.7927
8009.039125 92.410 -23.0469
8067.075924 92.089 -28.5042
8125.533282 91.621 -34.0040
8184.414245 91.012 -39.4114
8243.721885 90.270 -44.6340
8303.459292 89.404 -49.6378
8363.629581 88.421 -54.4633
8424.235888 87.332 -59.2403
8485.281374 86.151 -64.2111
8546.769221 84.901 -69.7795
8608.702634 83.625 -76.6398
8671.084842 82.406 -86.1436
8733.919097 81.390 -101.3998
8797.208675 80.778 -129.7071
8860.956876 80.714 -174.1411
8925.167022 81.151 150.8351
8989.842461 81.881 131.1197
9054.986566 82.683 118.4217
9120.602731 83.411 108.8428
9186.694378 83.997 100.9581
9253.264952 84.418 94.2469
9320.317925 84.679 88.5298
9387.856790 84.803 83.7514
9455.885071 84.818 79.8898
9524.406312 84.755 76.9202
9593.424086 84.644 74.8026
9662.941992 84.512 73.4785
9732.963653 84.385 72.8662
9803.492719 84.287 72.8558
9874.532869 84.236 73.3102
9946.087805 84.245 74.0748
10018.161257 84.319 74.9940
10090.756983 84.457 75.9224
10163.878768 84.655 76.7238
10237.530423 84.904 77.2674
10311.715789 85.198 77.4297
10386.438732 85.523 77.1018
10461.703149 85.863 76.1989
10537.512962 86.198 74.6650
10613.872125 86.505 72.4762
10690.784618 86.757 69.6483
10768.254450 86.925 66.2477
10846.285661 86.984 62.4008
10924.882318 86.913 58.2883
11004.048518 86.700 54.1244
11083.788390 86.343 50.1309
11164.106090 85.850 46.5142
11245.005805 85.237 43.4515
11326.491752 84.523 41.0811
11408.568180 83.731 39.4952
11491.239368 82.886 38.7358
11574.509626 82.010 38.7977
11658.383294 81.127 39.6404
11742.864745 80.258 41.2020
11827.958384 79.422 43.4074
11913.668646 78.633 46.1710
12000.000000 77.901 49.4026
12086.956947 77.231 53.0198
12174.544019 76.623 56.9552
12262.765784 76.077 61.1554
12351.626840 75.592 65.5726
12441.131819 75.168 70.1636
12531.285389 74.807 74.8962
12622.092249 74.509 79.7493
12713.557132 74.281 84.7004
12805.684808 74.127 89.7145
12898.480079 74.056 94.7421
12991.947783 74.072 99.7247
13086.092792 74.181 104.5919
13180.920015 74.383 109.2540
13276.434395 74.676 113.6011
13372.640911 75.056 117.5086
13469.544580 75.513 120.8416
13567.150452 76.035 123.4584
13665.463617 76.602 125.2264
13764.489200 77.186 126.0480
13864.232362 77.753 125.8838
13964.698305 78.267 124.7645
14065.892266 78.691 122.7966
14167.819519 78.992 120.1665
14270.485380 79.144 117.1343
14373.895200 79.134 114.0103
14478.054370 78.967 111.1198
14582.968320 78.659 108.7678
14688.642520 78.243 107.2109
14795.082478 77.763 106.6295
14902.293745 77.275 107.1011
15010.281908 76.836 108.5745
15119.052599 76.504 110.8489
15228.611486 76.328 113.5681
15338.964283 76.329 116.2605
15450.116741 76.499 118.4362
15562.074656 76.797 119.6996
15674.843864 77.159 119.8217
15788.430244 77.518 118.7568
15902.839718 77.809 116.6221
16018.078250 77.981 113.6588
16134.151848 78.004 110.1854
16251.066563 77.868 106.5422
16368.828491 77.587 103.0302
16487.443769 77.191 99.8500
16606.918584 76.724 97.0602
16727.259161 76.222 94.5776
16848.471777 75.710 92.2231
16970.562748 75.186 89.8036
17093.538442 74.627 87.2052
17217.405268 73.994 84.4594
17342.169684 73.249 81.7499
17467.838194 72.366 79.3622
17594.417350 71.339 77.6111
17721.913751 70.179 76.7778
17850.334044 68.908 77.0667
17979.684923 67.558 78.5860
18109.973131 66.162 81.3491
18241.205462 64.753 85.2879
18373.388756 63.359 90.2808
18506.529905 62.000 96.1923
18640.635849 60.692 102.9100
18775.713581 59.445 110.3628
18911.770141 58.267 118.5203
19048.812624 57.165 127.3552
19186.848172 56.153 136.7944
19325.883983 55.247 146.6700
19465.927305 54.469 156.6479
19606.985439 53.843 166.1772
19749.065738 53.386 174.5046
19892.175609 53.097 -179.2320
20036.322514 52.961 -175.8386
