* Measurement data measured by REW V5.30.5
* Source: EXCL: Microphone (Realtek(R) Audio), MICROPHONE (Master Volume), L, volume: 1.000
* Format: 256k Log Swept Sine, 1 sweep at -16.0 dBFS with no timing reference
* Dated: Feb 21, 2024 12:24:15 AM
* REW Settings:
*  C-weighting compensation: Off
*  Target level: 75.0 dB
* Note: ND ND-X12 101 L.txt
* Measurement: L ND X12 101
* Smoothing: 1/12 octave
* Frequency Step: 96 ppo
* Start Frequency: 0.36621094 Hz
*
* Freq(Hz) SPL(dB) Phase(degrees)
0.366211 55.728 39.4074
0.368865 55.774 39.3581
0.371538 55.840 39.2867
0.374230 55.922 39.2014
0.376942 56.014 39.1090
0.379673 56.113 39.0144
0.382424 56.215 38.9208
0.385196 56.320 38.8299
0.387987 56.427 38.7427
0.390798 56.535 38.6596
0.393630 56.643 38.5807
0.396483 56.753 38.5061
0.399356 56.864 38.4357
0.402250 56.975 38.3692
0.405165 57.088 38.3066
0.408101 57.201 38.2476
0.411058 57.315 38.1920
0.414037 57.430 38.1397
0.417037 57.545 38.0905
0.420059 57.662 38.0442
0.423103 57.779 38.0005
0.426169 57.897 37.9593
0.429257 58.016 37.9205
0.432367 58.136 37.8837
0.435501 58.257 37.8489
0.438656 58.379 37.8158
0.441835 58.501 37.7842
0.445037 58.625 37.7540
0.448262 58.749 37.7250
0.451510 58.874 37.6970
0.454782 59.000 37.6697
0.458077 59.127 37.6431
0.461397 59.255 37.6169
0.464740 59.384 37.5910
0.468108 59.514 37.5652
0.471500 59.645 37.5392
0.474917 59.776 37.5130
0.478358 59.909 37.4864
0.481825 60.043 37.4592
0.485316 60.177 37.4312
0.488833 60.313 37.4022
0.492375 60.450 37.3722
0.495943 60.587 37.3409
0.499537 60.726 37.3082
0.503157 60.865 37.2739
0.506803 61.006 37.2379
0.510475 61.147 37.2000
0.514174 61.290 37.1601
0.517900 61.434 37.1181
0.521653 61.578 37.0738
0.525433 61.724 37.0270
0.529241 61.871 36.9777
0.533076 62.019 36.9257
0.536939 62.168 36.8709
0.540830 62.318 36.8131
0.544749 62.469 36.7523
0.548696 62.621 36.6883
0.552673 62.775 36.6210
0.556677 62.929 36.5503
0.560711 63.085 36.4760
0.564774 63.241 36.3982
0.568867 63.399 36.3167
0.572989 63.558 36.2313
0.577141 63.718 36.1420
0.581324 63.880 36.0488
0.585536 64.042 35.9515
0.589779 64.206 35.8500
0.594053 64.371 35.7443
0.598358 64.537 35.6342
0.602694 64.704 35.5198
0.607061 64.872 35.4010
0.611460 65.042 35.2776
0.615891 65.213 35.1496
0.620354 65.385 35.0171
0.624849 65.559 34.8798
0.629377 65.733 34.7378
0.633938 65.909 34.5911
0.638532 66.086 34.4395
0.643159 66.265 34.2831
0.647819 66.445 34.1218
0.652514 66.626 33.9556
0.657242 66.808 33.7844
0.662005 66.992 33.6083
0.666802 67.177 33.4272
0.671634 67.364 33.2411
0.676501 67.551 33.0500
0.681403 67.740 32.8539
0.686341 67.931 32.6528
0.691314 68.122 32.4468
0.696324 68.315 32.2359
0.701369 68.509 32.0202
0.706452 68.703 31.7999
0.711571 68.897 31.5754
0.716727 69.090 31.3471
0.721921 69.282 31.1160
0.727153 69.470 30.8834
0.732422 69.653 30.6507
0.737729 69.831 30.4199
0.743075 70.005 30.1927
0.748460 70.175 29.9703
0.753883 70.342 29.7537
0.759346 70.508 29.5431
0.764849 70.672 29.3385
0.770391 70.835 29.1398
0.775974 70.998 28.9467
0.781597 71.160 28.7587
0.787261 71.322 28.5754
0.792965 71.483 28.3964
0.798712 71.644 28.2213
0.804499 71.805 28.0496
0.810329 71.965 27.8808
0.816201 72.124 27.7147
0.822116 72.283 27.5507
0.828073 72.442 27.3884
0.834073 72.601 27.2275
0.840118 72.759 27.0676
0.846205 72.916 26.9083
0.852337 73.074 26.7493
0.858514 73.231 26.5902
0.864735 73.387 26.4306
0.871001 73.544 26.2703
0.877313 73.700 26.1088
0.883670 73.856 25.9460
0.890074 74.011 25.7814
0.896523 74.167 25.6147
0.903020 74.322 25.4458
0.909564 74.477 25.2743
0.916155 74.631 25.0998
0.922793 74.786 24.9222
0.929480 74.940 24.7412
0.936216 75.095 24.5566
0.943000 75.249 24.3680
0.949833 75.403 24.1752
0.956716 75.558 23.9780
0.963649 75.712 23.7762
0.970632 75.867 23.5695
0.977666 76.021 23.3577
0.984750 76.176 23.1406
0.991886 76.331 22.9180
0.999074 76.486 22.6897
1.006313 76.641 22.4554
1.013605 76.797 22.2150
1.020950 76.953 21.9683
1.028349 77.110 21.7152
1.035801 77.267 21.4554
1.043306 77.425 21.1888
1.050867 77.584 20.9154
1.058482 77.743 20.6350
1.066152 77.902 20.3479
1.073878 78.063 20.0542
1.081659 78.224 19.7545
1.089498 78.385 19.4497
1.097393 78.547 19.1409
1.105345 78.709 18.8297
1.113355 78.871 18.5176
1.121422 79.033 18.2058
1.129549 79.195 17.8952
1.137734 79.356 17.5862
1.145978 79.517 17.2791
1.154283 79.678 16.9739
1.162647 79.837 16.6705
1.171072 79.997 16.3686
1.179558 80.156 16.0680
1.188106 80.314 15.7686
1.196715 80.473 15.4700
1.205387 80.630 15.1720
1.214122 80.787 14.8743
1.222920 80.944 14.5766
1.231781 81.101 14.2787
1.240708 81.257 13.9803
1.249698 81.413 13.6811
1.258754 81.568 13.3808
1.267875 81.723 13.0792
1.277063 81.878 12.7760
1.286317 82.032 12.4710
1.295638 82.187 12.1637
1.305027 82.341 11.8541
1.314484 82.495 11.5417
1.324009 82.649 11.2264
1.333603 82.802 10.9078
1.343267 82.956 10.5857
1.353001 83.110 10.2598
1.362805 83.263 9.9298
1.372681 83.417 9.5955
1.382628 83.570 9.2566
1.392647 83.724 8.9129
1.402739 83.878 8.5641
1.412904 84.032 8.2100
1.423142 84.187 7.8506
1.433455 84.341 7.4860
1.443842 84.496 7.1164
1.454305 84.651 6.7424
1.464843 84.805 6.3646
1.475458 84.960 5.9842
1.486150 85.114 5.6021
1.496919 85.268 5.2191
1.507766 85.421 4.8359
1.518692 85.574 4.4526
1.529697 85.726 4.0693
1.540782 85.878 3.6860
1.551947 86.028 3.3025
1.563193 86.179 2.9187
1.574521 86.329 2.5343
1.585931 86.478 2.1491
1.597423 86.626 1.7628
1.608998 86.774 1.3751
1.620658 86.922 0.9858
1.632402 87.069 0.5945
1.644231 87.216 0.2009
1.656146 87.362 -0.1952
1.668147 87.508 -0.5942
1.680235 87.653 -0.9963
1.692410 87.798 -1.4020
1.704674 87.943 -1.8115
1.717027 88.088 -2.2252
1.729469 88.232 -2.6435
1.742002 88.376 -3.0665
1.754625 88.520 -3.4948
1.767340 88.664 -3.9285
1.780147 88.807 -4.3680
1.793046 88.951 -4.8135
1.806040 89.094 -5.2650
1.819127 89.237 -5.7226
1.832309 89.380 -6.1860
1.845587 89.522 -6.6547
1.858961 89.664 -7.1284
1.872431 89.805 -7.6065
1.886000 89.945 -8.0883
1.899666 90.085 -8.5736
1.913432 90.223 -9.0619
1.927298 90.361 -9.5528
1.941264 90.499 -10.0461
1.955331 90.635 -10.5416
1.969500 90.771 -11.0389
1.983772 90.906 -11.5381
1.998147 91.040 -12.0388
2.012626 91.174 -12.5411
2.027211 91.307 -13.0448
2.041901 91.440 -13.5500
2.056697 91.572 -14.0565
2.071601 91.703 -14.5645
2.086613 91.834 -15.0740
2.101733 91.965 -15.5851
2.116963 92.095 -16.0979
2.132303 92.224 -16.6127
2.147755 92.354 -17.1297
2.163318 92.483 -17.6492
2.178995 92.611 -18.1717
2.194785 92.739 -18.6976
2.210689 92.866 -19.2274
2.226709 92.992 -19.7612
2.242844 93.118 -20.2993
2.259097 93.242 -20.8414
2.275467 93.366 -21.3874
2.291956 93.489 -21.9367
2.308565 93.611 -22.4889
2.325294 93.732 -23.0435
2.342144 93.852 -23.6000
2.359116 93.971 -24.1581
2.376211 94.089 -24.7172
2.393430 94.207 -25.2769
2.410774 94.323 -25.8370
2.428243 94.439 -26.3970
2.445839 94.555 -26.9568
2.463562 94.669 -27.5160
2.481415 94.784 -28.0747
2.499396 94.897 -28.6329
2.517508 95.010 -29.1907
2.535750 95.122 -29.7485
2.554126 95.234 -30.3071
2.572634 95.345 -30.8671
2.591276 95.454 -31.4295
2.610054 95.563 -31.9947
2.628967 95.671 -32.5630
2.648018 95.778 -33.1344
2.667206 95.884 -33.7084
2.686534 95.989 -34.2846
2.706002 96.092 -34.8623
2.725610 96.195 -35.4410
2.745361 96.297 -36.0199
2.765255 96.398 -36.5983
2.785294 96.498 -37.1758
2.805477 96.597 -37.7515
2.825807 96.696 -38.3252
2.846284 96.794 -38.8963
2.866909 96.891 -39.4646
2.887684 96.988 -40.0303
2.908609 97.084 -40.5937
2.929686 97.179 -41.1553
2.950916 97.274 -41.7162
2.972299 97.367 -42.2772
2.993838 97.459 -42.8388
3.015532 97.551 -43.4012
3.037384 97.641 -43.9643
3.059394 97.730 -44.5278
3.081564 97.819 -45.0911
3.103894 97.906 -45.6535
3.126386 97.993 -46.2145
3.149041 98.079 -46.7733
3.171861 98.164 -47.3293
3.194845 98.249 -47.8817
3.217996 98.333 -48.4303
3.241315 98.416 -48.9745
3.264803 98.499 -49.5145
3.288461 98.582 -50.0505
3.312291 98.663 -50.5829
3.336293 98.745 -51.1126
3.360469 98.825 -51.6401
3.384820 98.904 -52.1657
3.409348 98.983 -52.6895
3.434054 99.061 -53.2114
3.458938 99.138 -53.7313
3.484003 99.215 -54.2487
3.509250 99.291 -54.7633
3.534679 99.366 -55.2747
3.560293 99.442 -55.7823
3.586092 99.517 -56.2860
3.612079 99.592 -56.7853
3.638253 99.666 -57.2803
3.664618 99.740 -57.7710
3.691173 99.814 -58.2577
3.717921 99.888 -58.7407
3.744862 99.961 -59.2203
3.771999 100.034 -59.6968
3.799332 100.107 -60.1704
3.826864 100.179 -60.6413
3.854595 100.251 -61.1095
3.882527 100.323 -61.5751
3.910661 100.394 -62.0380
3.938999 100.466 -62.4983
3.967543 100.538 -62.9559
3.996294 100.609 -63.4108
4.025252 100.681 -63.8629
4.054421 100.753 -64.3121
4.083801 100.825 -64.7587
4.113394 100.897 -65.2027
4.143201 100.969 -65.6444
4.173225 101.040 -66.0841
4.203466 101.112 -66.5222
4.233926 101.184 -66.9590
4.264606 101.256 -67.3950
4.295509 101.328 -67.8303
4.326636 101.400 -68.2654
4.357989 101.472 -68.7003
4.389569 101.544 -69.1352
4.421378 101.617 -69.5701
4.453417 101.689 -70.0049
4.485688 101.762 -70.4396
4.518193 101.835 -70.8744
4.550934 101.907 -71.3095
4.583912 101.980 -71.7451
4.617129 102.053 -72.1815
4.650587 102.125 -72.6190
4.684287 102.198 -73.0579
4.718231 102.270 -73.4984
4.752421 102.342 -73.9409
4.786859 102.415 -74.3853
4.821547 102.487 -74.8317
4.856485 102.558 -75.2801
4.891677 102.630 -75.7303
4.927125 102.701 -76.1823
4.962829 102.773 -76.6360
4.998791 102.843 -77.0914
5.035015 102.914 -77.5483
5.071500 102.984 -78.0070
5.108251 103.053 -78.4676
5.145267 103.122 -78.9301
5.182552 103.191 -79.3947
5.220107 103.259 -79.8614
5.257934 103.327 -80.3300
5.296035 103.393 -80.8002
5.334412 103.460 -81.2715
5.373067 103.526 -81.7436
5.412003 103.591 -82.2161
5.451221 103.655 -82.6890
5.490722 103.719 -83.1621
5.530510 103.782 -83.6355
5.570587 103.845 -84.1094
5.610953 103.906 -84.5836
5.651613 103.967 -85.0580
5.692567 104.028 -85.5319
5.733818 104.088 -86.0051
5.775367 104.147 -86.4771
5.817218 104.205 -86.9474
5.859372 104.263 -87.4161
5.901831 104.320 -87.8831
5.944598 104.376 -88.3484
5.987675 104.432 -88.8121
6.031065 104.488 -89.2741
6.074768 104.543 -89.7341
6.118788 104.597 -90.1919
6.163127 104.651 -90.6473
6.207788 104.704 -91.1001
6.252772 104.758 -91.5502
6.298082 104.810 -91.9978
6.343721 104.863 -92.4428
6.389690 104.915 -92.8856
6.435992 104.967 -93.3261
6.482630 105.019 -93.7644
6.529606 105.070 -94.2006
6.576922 105.122 -94.6348
6.624581 105.173 -95.0671
6.672585 105.224 -95.4974
6.720938 105.275 -95.9260
6.769640 105.326 -96.3532
6.818696 105.377 -96.7792
6.868107 105.428 -97.2043
6.917876 105.479 -97.6288
6.968006 105.530 -98.0527
7.018499 105.580 -98.4763
7.069358 105.631 -98.8996
7.120586 105.682 -99.3229
7.172184 105.732 -99.7462
7.224157 105.782 -100.1699
7.276506 105.833 -100.5940
7.329235 105.883 -101.0188
7.382345 105.933 -101.4443
7.435841 105.982 -101.8706
7.489724 106.032 -102.2977
7.543997 106.081 -102.7255
7.598664 106.129 -103.1541
7.653728 106.178 -103.5833
7.709189 106.226 -104.0132
7.765053 106.274 -104.4437
7.821322 106.321 -104.8749
7.877998 106.368 -105.3065
7.935086 106.414 -105.7383
7.992587 106.460 -106.1702
8.050504 106.506 -106.6019
8.108841 106.551 -107.0335
8.167601 106.595 -107.4647
8.226787 106.640 -107.8956
8.286402 106.683 -108.3258
8.346449 106.727 -108.7553
8.406931 106.769 -109.1838
8.467851 106.812 -109.6114
8.529212 106.854 -110.0379
8.591018 106.896 -110.4634
8.653272 106.937 -110.8879
8.715977 106.978 -111.3112
8.779137 107.019 -111.7335
8.842754 107.060 -112.1547
8.906833 107.100 -112.5750
8.971375 107.140 -112.9943
9.036386 107.179 -113.4129
9.101867 107.219 -113.8309
9.167823 107.258 -114.2482
9.234257 107.297 -114.6652
9.301172 107.336 -115.0818
9.368572 107.375 -115.4982
9.436460 107.413 -115.9144
9.504841 107.451 -116.3305
9.573717 107.488 -116.7466
9.643092 107.526 -117.1627
9.712970 107.563 -117.5788
9.783354 107.599 -117.9948
9.854248 107.635 -118.4108
9.925656 107.671 -118.8265
9.997581 107.707 -119.2419
10.070028 107.741 -119.6570
10.143000 107.776 -120.0714
10.216500 107.810 -120.4850
10.290533 107.843 -120.8977
10.365103 107.876 -121.3092
10.440212 107.909 -121.7195
10.515866 107.941 -122.1284
10.592069 107.973 -122.5356
10.668823 108.004 -122.9411
10.746134 108.035 -123.3447
10.824005 108.065 -123.7465
10.902440 108.095 -124.1463
10.981443 108.125 -124.5442
11.061020 108.155 -124.9403
11.141172 108.185 -125.3345
11.221906 108.214 -125.7271
11.303225 108.243 -126.1181
11.385133 108.272 -126.5077
11.467634 108.301 -126.8961
11.550734 108.329 -127.2834
11.634435 108.358 -127.6699
11.718742 108.386 -128.0558
11.803661 108.414 -128.4411
11.889195 108.442 -128.8261
11.975349 108.470 -129.2108
12.062128 108.497 -129.5954
12.149535 108.525 -129.9799
12.237576 108.552 -130.3645
12.326254 108.578 -130.7490
12.415575 108.605 -131.1334
12.505544 108.631 -131.5178
12.596164 108.656 -131.9020
12.687441 108.681 -132.2860
12.779379 108.706 -132.6698
12.871984 108.731 -133.0531
12.965260 108.755 -133.4361
13.059211 108.778 -133.8185
13.153843 108.801 -134.2004
13.249161 108.824 -134.5816
13.345170 108.847 -134.9621
13.441875 108.868 -135.3418
13.539280 108.890 -135.7207
13.637391 108.911 -136.0986
13.736214 108.931 -136.4754
13.835752 108.951 -136.8510
13.936011 108.971 -137.2252
14.036998 108.990 -137.5977
14.138716 109.008 -137.9683
14.241171 109.026 -138.3367
14.344368 109.044 -138.7026
14.448313 109.061 -139.0657
14.553011 109.078 -139.4257
14.658468 109.095 -139.7824
14.764689 109.111 -140.1357
14.871680 109.127 -140.4854
14.979446 109.144 -140.8317
15.087994 109.160 -141.1748
15.197328 109.176 -141.5150
15.307454 109.193 -141.8528
15.418378 109.210 -142.1889
15.530106 109.228 -142.5241
15.642643 109.246 -142.8593
15.755996 109.264 -143.1955
15.870171 109.283 -143.5335
15.985172 109.302 -143.8743
16.101007 109.321 -144.2186
16.217682 109.340 -144.5670
16.335201 109.360 -144.9198
16.453573 109.378 -145.2770
16.572803 109.397 -145.6385
16.692898 109.414 -146.0038
16.813862 109.431 -146.3720
16.935701 109.447 -146.7422
17.058424 109.462 -147.1132
17.182035 109.476 -147.4839
17.306543 109.489 -147.8531
17.431953 109.501 -148.2197
17.558273 109.513 -148.5827
17.685509 109.523 -148.9415
17.813665 109.534 -149.2958
17.942751 109.544 -149.6454
18.072771 109.553 -149.9905
18.203733 109.563 -150.3316
18.335646 109.573 -150.6692
18.468513 109.583 -151.0039
18.602345 109.593 -151.3365
18.737144 109.603 -151.6673
18.872921 109.613 -151.9968
19.009682 109.623 -152.3252
19.147434 109.633 -152.6524
19.286184 109.643 -152.9781
19.425940 109.652 -153.3022
19.566708 109.662 -153.6244
19.708496 109.671 -153.9445
19.851313 109.680 -154.2623
19.995163 109.689 -154.5781
20.140057 109.697 -154.8921
20.285999 109.706 -155.2049
20.433001 109.715 -155.5170
20.581066 109.723 -155.8287
20.730206 109.732 -156.1402
20.880424 109.740 -156.4514
21.031733 109.747 -156.7617
21.184137 109.753 -157.0700
21.337646 109.759 -157.3748
21.492268 109.763 -157.6746
21.648010 109.767 -157.9677
21.804880 109.771 -158.2527
21.962887 109.775 -158.5292
22.122040 109.779 -158.7973
22.282345 109.784 -159.0583
22.443811 109.791 -159.3147
22.606449 109.799 -159.5697
22.770266 109.808 -159.8271
22.935268 109.820 -160.0912
23.101467 109.832 -160.3655
23.268869 109.845 -160.6529
23.437485 109.857 -160.9550
23.607323 109.869 -161.2719
23.778391 109.879 -161.6022
23.950699 109.888 -161.9431
24.124256 109.893 -162.2909
24.299070 109.896 -162.6417
24.475151 109.897 -162.9914
24.652508 109.895 -163.3368
24.831150 109.892 -163.6755
25.011087 109.888 -164.0063
25.192327 109.882 -164.3291
25.374882 109.877 -164.6447
25.558758 109.871 -164.9542
25.743967 109.865 -165.2592
25.930519 109.859 -165.5609
26.118422 109.854 -165.8600
26.307686 109.848 -166.1570
26.498322 109.842 -166.4520
26.690340 109.837 -166.7450
26.883749 109.831 -167.0363
27.078560 109.826 -167.3261
27.274782 109.821 -167.6153
27.472427 109.817 -167.9047
27.671503 109.813 -168.1953
27.872023 109.810 -168.4877
28.073996 109.806 -168.7819
28.277431 109.803 -169.0775
28.482342 109.799 -169.3738
28.688736 109.795 -169.6696
28.896626 109.791 -169.9639
29.106022 109.787 -170.2561
29.316936 109.784 -170.5460
29.529379 109.780 -170.8338
29.743361 109.777 -171.1200
29.958893 109.774 -171.4051
30.175987 109.771 -171.6892
30.394655 109.768 -171.9721
30.614908 109.765 -172.2533
30.836756 109.762 -172.5319
31.060211 109.759 -172.8075
31.285286 109.757 -173.0803
31.511992 109.754 -173.3508
31.740341 109.752 -173.6203
31.970345 109.751 -173.8903
32.202015 109.749 -174.1621
32.435364 109.747 -174.4362
32.670403 109.745 -174.7125
32.907146 109.741 -174.9897
33.145607 109.737 -175.2661
33.385796 109.731 -175.5399
33.627724 109.725 -175.8094
33.871403 109.717 -176.0733
34.116848 109.709 -176.3310
34.364071 109.701 -176.5827
34.613087 109.692 -176.8287
34.863907 109.684 -177.0699
35.116547 109.676 -177.3077
35.371017 109.668 -177.5439
35.627331 109.660 -177.7810
35.885502 109.653 -178.0215
36.145542 109.647 -178.2681
36.407467 109.640 -178.5223
36.671291 109.632 -178.7845
36.937027 109.623 -179.0535
37.204689 109.612 -179.3266
37.474289 109.599 -179.6000
37.745842 109.585 -179.8703
38.019363 109.570 179.8652
38.294868 109.555 179.6076
38.572369 109.539 179.3564
38.851879 109.524 179.1099
39.133415 109.509 178.8658
39.416992 109.496 178.6221
39.702625 109.482 178.3774
39.990326 109.469 178.1313
40.280113 109.457 177.8839
40.571999 109.445 177.6357
40.866001 109.433 177.3872
41.162132 109.421 177.1388
41.460411 109.410 176.8904
41.760849 109.400 176.6420
42.063465 109.389 176.3934
42.368275 109.380 176.1446
42.675293 109.370 175.8952
42.984535 109.361 175.6447
43.296021 109.352 175.3923
43.609760 109.342 175.1381
43.925774 109.332 174.8826
44.244080 109.321 174.6286
44.564690 109.308 174.3798
44.887623 109.295 174.1397
45.212898 109.282 173.9095
45.540531 109.269 173.6862
45.870537 109.258 173.4623
46.202934 109.247 173.2285
46.537739 109.237 172.9775
46.874969 109.223 172.7084
47.214645 109.206 172.4284
47.556782 109.183 172.1512
47.901398 109.156 171.8915
48.248512 109.125 171.6598
48.598141 109.094 171.4589
48.950302 109.064 171.2845
49.305016 109.036 171.1288
49.662300 109.011 170.9843
50.022175 108.988 170.8456
50.384655 108.968 170.7080
50.749763 108.951 170.5661
51.117516 108.936 170.4130
51.487934 108.922 170.2430
51.861038 108.907 170.0545
52.236843 108.891 169.8520
52.615372 108.872 169.6437
52.996643 108.851 169.4379
53.380680 108.827 169.2388
53.767498 108.802 169.0464
54.157120 108.777 168.8602
54.549564 108.749 168.6813
54.944855 108.721 168.5134
55.343006 108.694 168.3576
55.744045 108.670 168.2075
56.147991 108.649 168.0472
56.554863 108.632 167.8574
56.964684 108.615 167.6249
57.377472 108.596 167.3524
57.793251 108.571 167.0588
58.212044 108.541 166.7720
58.633873 108.508 166.5157
59.058758 108.475 166.2999
59.486721 108.447 166.1185
59.917786 108.426 165.9557
60.351974 108.410 165.7950
60.789310 108.398 165.6261
61.229816 108.387 165.4464
61.673512 108.377 165.2585
62.120422 108.366 165.0676
62.570572 108.351 164.8786
63.023983 108.334 164.6953
63.480682 108.313 164.5182
63.940689 108.289 164.3438
64.404030 108.261 164.1661
64.870728 108.230 163.9791
65.340805 108.195 163.7803
65.814293 108.155 163.5721
66.291214 108.112 163.3606
66.771591 108.066 163.1535
67.255447 108.020 162.9587
67.742805 107.977 162.7816
68.233696 107.939 162.6221
68.728142 107.910 162.4735
69.226173 107.890 162.3250
69.727814 107.877 162.1676
70.233093 107.869 161.9988
70.742035 107.864 161.8223
71.254662 107.857 161.6451
71.771004 107.846 161.4753
72.291084 107.829 161.3203
72.814934 107.802 161.1853
73.342583 107.766 161.0718
73.874054 107.719 160.9786
74.409378 107.661 160.9034
74.948578 107.595 160.8410
75.491684 107.521 160.7842
76.038727 107.443 160.7325
76.589737 107.364 160.7043
77.144737 107.292 160.7281
77.703758 107.239 160.8067
78.266830 107.217 160.8872
78.833984 107.229 160.8845
79.405251 107.263 160.7481
79.980652 107.306 160.5005
80.560226 107.349 160.2095
81.143997 107.387 159.9387
81.732002 107.416 159.7318
82.324265 107.432 159.6279
82.920822 107.437 159.6608
83.521698 107.435 159.8322
84.126930 107.433 160.0936
84.736549 107.434 160.3583
85.350586 107.438 160.5272
85.969070 107.439 160.5198
86.592041 107.427 160.3120
87.219521 107.397 159.9555
87.851547 107.353 159.5422
88.488159 107.310 159.1373
89.129379 107.280 158.7507
89.775246 107.271 158.3633
90.425797 107.281 157.9517
91.081062 107.300 157.4907
91.741074 107.312 156.9776
92.405869 107.298 156.4727
93.075478 107.247 156.0840
93.749939 107.166 155.8887
94.429291 107.067 155.8766
95.113564 106.960 155.9715
95.802795 106.849 156.0894
96.497025 106.738 156.1785
97.196281 106.631 156.2278
97.900604 106.538 156.2446
98.610031 106.467 156.2220
99.324600 106.422 156.1393
100.044350 106.400 155.9942
100.769310 106.392 155.8176
101.499527 106.389 155.6544
102.235031 106.384 155.5382
102.975868 106.373 155.4770
103.722076 106.354 155.4547
104.473686 106.326 155.4436
105.230743 106.292 155.4144
105.993286 106.256 155.3397
106.761360 106.222 155.2036
107.534996 106.193 155.0149
108.314240 106.167 154.8082
109.099129 106.144 154.6289
109.889709 106.120 154.5100
110.686012 106.092 154.4535
111.488091 106.053 154.4335
112.295982 106.003 154.4136
113.109726 105.952 154.3329
113.929367 105.915 154.0802
114.754944 105.915 153.5148
115.586502 105.965 152.5139
116.424088 106.063 151.0197
117.267746 106.181 149.1025
118.117516 106.269 147.0267
118.973442 106.276 145.2954
119.835571 106.182 144.5639
120.703949 106.025 145.2696
121.578621 105.873 147.2286
122.459633 105.769 149.7433
123.347023 105.711 152.1035
124.240845 105.664 153.8907
125.141144 105.590 155.0121
126.047966 105.475 155.6027
126.961365 105.328 155.8474
127.881378 105.178 155.8672
128.808060 105.044 155.7527
129.741455 104.938 155.6265
130.681610 104.861 155.6224
131.628586 104.808 155.8207
132.582428 104.772 156.2226
133.543182 104.745 156.7833
134.510895 104.722 157.4269
135.485611 104.704 158.0508
136.467392 104.687 158.5897
137.456284 104.672 159.0514
138.452347 104.663 159.4851
139.455627 104.665 159.9272
140.466187 104.685 160.3443
141.484070 104.723 160.6141
142.509323 104.766 160.5671
143.542007 104.792 160.1186
144.582169 104.784 159.3757
145.629868 104.745 158.5554
146.685165 104.694 157.8353
147.748108 104.650 157.2994
148.818756 104.618 156.9706
149.897156 104.598 156.8384
150.983368 104.587 156.8396
152.077454 104.577 156.8608
153.179474 104.562 156.8008
154.289474 104.533 156.6321
155.407516 104.492 156.4034
156.533661 104.446 156.1811
157.667969 104.407 155.9995
158.810501 104.380 155.8521
159.961304 104.366 155.7078
161.120453 104.365 155.5277
162.287994 104.372 155.2754
163.464005 104.385 154.9205
164.648529 104.395 154.4567
165.841644 104.392 153.9326
167.043396 104.364 153.4735
168.253860 104.311 153.2293
169.473099 104.240 153.2728
170.701172 104.163 153.5794
171.938141 104.085 154.0703
173.184082 104.013 154.6461
174.439041 103.952 155.1946
175.703094 103.903 155.6190
176.976318 103.862 155.8774
178.258759 103.827 155.9870
179.550491 103.792 156.0060
180.851593 103.756 155.9998
182.162125 103.721 156.0051
183.482147 103.686 156.0243
184.811737 103.650 156.0480
186.150955 103.613 156.0790
187.499878 103.573 156.1345
188.858582 103.530 156.2280
190.227127 103.487 156.3525
191.605591 103.441 156.4734
192.994049 103.393 156.5458
194.392563 103.340 156.5474
195.801208 103.286 156.4878
197.220062 103.233 156.3997
198.649200 103.187 156.3283
200.088699 103.149 156.3131
201.538620 103.119 156.3682
202.999054 103.092 156.4781
204.470062 103.066 156.6116
205.951736 103.039 156.7404
207.444153 103.011 156.8525
208.947372 102.982 156.9505
210.461487 102.954 157.0469
211.986572 102.924 157.1575
213.522720 102.891 157.2925
215.069992 102.854 157.4517
216.628479 102.814 157.6244
218.198257 102.772 157.7929
219.779419 102.729 157.9403
221.372025 102.685 158.0536
222.976181 102.638 158.1225
224.591965 102.585 158.1404
226.219452 102.527 158.1144
227.858734 102.471 158.0780
229.509888 102.426 158.0782
231.173004 102.401 158.1396
232.848175 102.396 158.2639
234.535492 102.403 158.4399
236.235031 102.409 158.6403
237.946884 102.406 158.8283
239.671143 102.392 158.9761
241.407898 102.369 159.0779
243.157242 102.339 159.1474
244.919266 102.304 159.2054
246.694046 102.265 159.2709
248.481689 102.224 159.3581
250.282288 102.182 159.4809
252.095932 102.143 159.6483
253.922729 102.108 159.8557
255.762756 102.077 160.0847
257.616119 102.048 160.3114
259.482910 102.021 160.5184
261.363220 101.994 160.7014
263.257172 101.966 160.8650
265.164856 101.936 161.0165
267.086365 101.904 161.1644
269.021790 101.871 161.3170
270.971222 101.838 161.4807
272.934784 101.806 161.6591
274.912567 101.776 161.8517
276.904694 101.748 162.0547
278.911255 101.722 162.2628
280.932373 101.697 162.4708
282.968140 101.673 162.6740
285.018646 101.651 162.8678
287.084015 101.629 163.0467
289.164337 101.608 163.2053
291.259735 101.585 163.3405
293.370331 101.560 163.4550
295.496216 101.533 163.5587
297.637512 101.505 163.6646
299.794312 101.477 163.7847
301.966736 101.450 163.9277
304.154907 101.424 164.0946
306.358948 101.397 164.2778
308.578949 101.370 164.4654
310.815033 101.340 164.6486
313.067322 101.308 164.8252
315.335938 101.274 164.9992
317.621002 101.240 165.1777
319.922607 101.206 165.3669
322.240906 101.174 165.5686
324.575989 101.143 165.7807
326.928009 101.115 165.9989
329.297058 101.088 166.2195
331.683289 101.063 166.4399
334.086792 101.039 166.6581
336.507721 101.015 166.8723
338.946198 100.990 167.0814
341.402344 100.965 167.2870
343.876282 100.940 167.4946
346.368164 100.914 167.7117
348.878082 100.888 167.9433
351.406189 100.863 168.1877
353.952637 100.838 168.4394
356.517517 100.814 168.6915
359.100983 100.789 168.9382
361.703186 100.766 169.1776
364.324249 100.743 169.4121
366.964294 100.719 169.6471
369.623474 100.695 169.8872
372.301910 100.671 170.1350
374.999756 100.646 170.3905
377.717163 100.621 170.6508
380.454254 100.597 170.9105
383.211182 100.575 171.1648
385.988098 100.554 171.4133
388.785126 100.534 171.6605
391.602417 100.515 171.9113
394.440125 100.497 172.1681
397.298401 100.479 172.4299
400.177399 100.462 172.6946
403.077240 100.445 172.9600
405.998108 100.427 173.2250
408.940125 100.409 173.4896
411.903473 100.391 173.7550
414.888306 100.371 174.0233
417.894745 100.351 174.2972
420.922974 100.331 174.5794
423.973145 100.312 174.8709
427.045441 100.295 175.1707
430.139984 100.280 175.4757
433.256958 100.267 175.7820
436.396515 100.255 176.0868
439.558838 100.246 176.3887
442.744049 100.237 176.6864
445.952362 100.230 176.9779
449.183929 100.224 177.2588
452.438904 100.219 177.5226
455.717468 100.213 177.7654
459.019775 100.204 177.9906
462.346008 100.192 178.2103
465.696350 100.177 178.4383
469.070984 100.160 178.6830
472.470062 100.143 178.9449
475.893768 100.126 179.2194
479.342285 100.109 179.4996
482.815796 100.093 179.7807
486.314484 100.076 -179.9372
489.838531 100.059 -179.6485
493.388092 100.041 -179.3456
496.963379 100.024 -179.0255
500.564575 100.009 -178.6933
504.191864 99.995 -178.3577
507.845459 99.983 -178.0267
511.525513 99.972 -177.7029
515.232239 99.961 -177.3835
518.965820 99.949 -177.0635
522.726440 99.938 -176.7383
526.514343 99.926 -176.4049
530.329712 99.915 -176.0629
534.172729 99.905 -175.7153
538.043579 99.896 -175.3662
541.942444 99.888 -175.0169
545.869568 99.881 -174.6657
549.825134 99.874 -174.3112
553.809387 99.869 -173.9546
557.822510 99.863 -173.5981
561.864746 99.858 -173.2429
565.936279 99.853 -172.8886
570.037292 99.849 -172.5332
574.168030 99.844 -172.1741
578.328674 99.839 -171.8093
582.519470 99.834 -171.4393
586.740662 99.829 -171.0655
590.992432 99.824 -170.6869
595.275024 99.818 -170.3021
599.588623 99.814 -169.9124
603.933472 99.811 -169.5218
608.309814 99.809 -169.1340
612.717896 99.808 -168.7490
617.157898 99.807 -168.3635
621.630066 99.805 -167.9713
626.134644 99.804 -167.5663
630.671875 99.804 -167.1461
635.242004 99.807 -166.7146
639.845215 99.812 -166.2779
644.481812 99.820 -165.8376
649.151978 99.829 -165.3922
653.856018 99.842 -164.9430
658.594116 99.858 -164.4978
663.366577 99.875 -164.0688
668.173584 99.894 -163.6657
673.015442 99.913 -163.2885
677.892395 99.930 -162.9286
682.804688 99.945 -162.5763
687.752563 99.957 -162.2256
692.736328 99.968 -161.8732
697.756165 99.978 -161.5170
702.812378 99.987 -161.1571
707.905273 99.995 -160.7973
713.035034 100.003 -160.4424
718.201965 100.009 -160.0938
723.406372 100.013 -159.7476
728.648499 100.014 -159.3938
733.928589 100.010 -159.0190
739.246948 100.003 -158.6083
744.603821 99.995 -158.1488
749.999512 99.988 -157.6345
755.434326 99.985 -157.0699
760.908508 99.989 -156.4704
766.422363 100.001 -155.8564
771.976196 100.019 -155.2452
777.570251 100.042 -154.6475
783.204834 100.067 -154.0665
788.880249 100.094 -153.4990
794.596802 100.121 -152.9365
800.354797 100.149 -152.3691
806.154480 100.178 -151.7905
811.996216 100.211 -151.1997
817.880249 100.246 -150.5999
823.806946 100.286 -149.9967
829.776611 100.330 -149.3980
835.789490 100.377 -148.8098
841.845947 100.428 -148.2326
847.946289 100.481 -147.6651
854.090881 100.538 -147.1088
860.279968 100.598 -146.5687
866.513916 100.660 -146.0481
872.793030 100.723 -145.5464
879.117676 100.789 -145.0632
885.488098 100.855 -144.6001
891.904724 100.922 -144.1569
898.367859 100.988 -143.7300
904.877808 101.053 -143.3130
911.434937 101.116 -142.9008
918.039551 101.180 -142.4913
924.692017 101.244 -142.0840
931.392700 101.308 -141.6799
938.141968 101.373 -141.2811
944.940125 101.439 -140.8885
951.787537 101.504 -140.5013
958.684570 101.569 -140.1176
965.631592 101.634 -139.7354
972.628967 101.699 -139.3524
979.677063 101.763 -138.9682
986.776184 101.828 -138.5827
993.926758 101.894 -138.1936
1001.129150 101.959 -137.7957
1008.383728 102.027 -137.3846
1015.690918 102.096 -136.9624
1023.051025 102.169 -136.5351
1030.464478 102.247 -136.1113
1037.931641 102.328 -135.7023
1045.452881 102.413 -135.3201
1053.028687 102.500 -134.9705
1060.659424 102.587 -134.6501
1068.345459 102.672 -134.3506
1076.087158 102.755 -134.0625
1083.884888 102.837 -133.7787
1091.739136 102.919 -133.4966
1099.650269 103.000 -133.2166
1107.618774 103.081 -132.9396
1115.645020 103.162 -132.6658
1123.729492 103.243 -132.3951
1131.872559 103.325 -132.1265
1140.074585 103.406 -131.8590
1148.336060 103.488 -131.5914
1156.657349 103.571 -131.3228
1165.038940 103.654 -131.0516
1173.481323 103.738 -130.7755
1181.984863 103.824 -130.4944
1190.550049 103.913 -130.2137
1199.177246 104.005 -129.9443
1207.866943 104.100 -129.6978
1216.619629 104.196 -129.4800
1225.435791 104.290 -129.2877
1234.315796 104.383 -129.1125
1243.260132 104.473 -128.9454
1252.269287 104.562 -128.7787
1261.343750 104.649 -128.6083
1270.484009 104.735 -128.4329
1279.690430 104.821 -128.2513
1288.963623 104.907 -128.0625
1298.303955 104.994 -127.8674
1307.712036 105.082 -127.6688
1317.188232 105.172 -127.4702
1326.733154 105.262 -127.2736
1336.347168 105.353 -127.0783
1346.030884 105.443 -126.8815
1355.784790 105.534 -126.6797
1365.609375 105.625 -126.4699
1375.505127 105.717 -126.2480
1385.472656 105.810 -126.0097
1395.512329 105.907 -125.7542
1405.624756 106.009 -125.4870
1415.810547 106.116 -125.2203
1426.070068 106.229 -124.9695
1436.403931 106.345 -124.7444
1446.812744 106.463 -124.5462
1457.296997 106.582 -124.3699
1467.857178 106.702 -124.2095
1478.493896 106.822 -124.0611
1489.207642 106.943 -123.9214
1499.999023 107.065 -123.7869
1510.868652 107.188 -123.6543
1521.817017 107.313 -123.5209
1532.844727 107.440 -123.3847
1543.952393 107.570 -123.2447
1555.140503 107.704 -123.1018
1566.409668 107.843 -122.9615
1577.760498 107.987 -122.8362
1589.193604 108.137 -122.7412
1600.709595 108.291 -122.6864
1612.308960 108.448 -122.6729
1623.992432 108.605 -122.6963
1635.760498 108.763 -122.7501
1647.613892 108.921 -122.8296
1659.553223 109.081 -122.9309
1671.578979 109.242 -123.0520
1683.691895 109.404 -123.1936
1695.892578 109.569 -123.3595
1708.181763 109.735 -123.5538
1720.559937 109.902 -123.7786
1733.027832 110.071 -124.0326
1745.586060 110.240 -124.3127
1758.235352 110.411 -124.6143
1770.976196 110.584 -124.9345
1783.809448 110.760 -125.2767
1796.735718 110.942 -125.6531
1809.755615 111.129 -126.0805
1822.869873 111.319 -126.5721
1836.079102 111.510 -127.1335
1849.384033 111.700 -127.7652
1862.785400 111.889 -128.4655
1876.283936 112.075 -129.2316
1889.880249 112.257 -130.0596
1903.575073 112.435 -130.9448
1917.369141 112.609 -131.8822
1931.263184 112.778 -132.8683
1945.257935 112.943 -133.9027
1959.354126 113.106 -134.9911
1973.552368 113.264 -136.1425
1987.853516 113.415 -137.3621
2002.258301 113.560 -138.6483
2016.767456 113.694 -139.9950
2031.381836 113.819 -141.3952
2046.102051 113.933 -142.8432
2060.928955 114.036 -144.3359
2075.863281 114.128 -145.8731
2090.905762 114.207 -147.4544
2106.057373 114.272 -149.0753
2121.318848 114.321 -150.7250
2136.690918 114.351 -152.3862
2152.174316 114.364 -154.0376
2167.769775 114.360 -155.6612
2183.478271 114.342 -157.2466
2199.300537 114.310 -158.7901
2215.237549 114.267 -160.2893
2231.290039 114.213 -161.7415
2247.458984 114.149 -163.1445
2263.745117 114.076 -164.4965
2280.149170 113.993 -165.7955
2296.672119 113.902 -167.0385
2313.314697 113.803 -168.2217
2330.077881 113.698 -169.3430
2346.962646 113.587 -170.4050
2363.969727 113.471 -171.4130
2381.100098 113.349 -172.3692
2398.354492 113.221 -173.2707
2415.733887 113.087 -174.1105
2433.239258 112.946 -174.8801
2450.871582 112.799 -175.5717
2468.631592 112.647 -176.1799
2486.520264 112.492 -176.6996
2504.538574 112.333 -177.1237
2522.687500 112.173 -177.4418
2540.968018 112.013 -177.6441
2559.380859 111.857 -177.7279
2577.927246 111.708 -177.7010
2596.607910 111.569 -177.5772
2615.424072 111.442 -177.3717
2634.376465 111.328 -177.0989
2653.466309 111.227 -176.7717
2672.694336 111.140 -176.4012
2692.061768 111.067 -175.9987
2711.569580 111.010 -175.5789
2731.218750 110.970 -175.1640
2751.010254 110.944 -174.7805
2770.945312 110.931 -174.4512
2791.024658 110.928 -174.1895
2811.249512 110.930 -173.9995
2831.621094 110.934 -173.8770
2852.140137 110.936 -173.8134
2872.807861 110.935 -173.7955
2893.625488 110.930 -173.8048
2914.593994 110.918 -173.8188
2935.714355 110.902 -173.8179
2956.987793 110.884 -173.7916
2978.415283 110.866 -173.7394
2999.998047 110.849 -173.6655
3021.737305 110.833 -173.5743
3043.634033 110.820 -173.4673
3065.689453 110.809 -173.3422
3087.904785 110.801 -173.1959
3110.281006 110.798 -173.0311
3132.819336 110.802 -172.8594
3155.520996 110.812 -172.6972
3178.387207 110.828 -172.5608
3201.419189 110.848 -172.4624
3224.617920 110.869 -172.4093
3247.984863 110.888 -172.4024
3271.520996 110.901 -172.4325
3295.227783 110.906 -172.4781
3319.106445 110.902 -172.5089
3343.157959 110.890 -172.4949
3367.383789 110.871 -172.4117
3391.785156 110.850 -172.2405
3416.363525 110.829 -171.9670
3441.119873 110.813 -171.5807
3466.055664 110.807 -171.0763
3491.172119 110.818 -170.4604
3516.470703 110.851 -169.7570
3541.952393 110.911 -169.0054
3567.618896 110.999 -168.2524
3593.471436 111.115 -167.5443
3619.511230 111.258 -166.9211
3645.739746 111.423 -166.4135
3672.158203 111.605 -166.0389
3698.768066 111.802 -165.8035
3725.570801 112.011 -165.7106
3752.567871 112.231 -165.7673
3779.760498 112.458 -165.9845
3807.150146 112.692 -166.3726
3834.738281 112.927 -166.9366
3862.526367 113.162 -167.6760
3890.515869 113.396 -168.5912
3918.708252 113.625 -169.6869
3947.104736 113.847 -170.9715
3975.707031 114.058 -172.4533
4004.516602 114.255 -174.1368
4033.534912 114.430 -176.0205
4062.763672 114.579 -178.0913
4092.204102 114.696 179.6751
4121.857910 114.777 177.3091
4151.726562 114.819 174.8424
4181.811523 114.819 172.3075
4212.114746 114.774 169.7424
4242.637695 114.684 167.1932
4273.381836 114.547 164.7106
4304.348633 114.367 162.3429
4335.539551 114.147 160.1315
4366.956543 113.892 158.1094
4398.601074 113.608 156.3004
4430.475098 113.299 154.7213
4462.580078 112.971 153.3861
4494.917969 112.629 152.3068
4527.490234 112.279 151.4891
4560.298340 111.926 150.9298
4593.344238 111.576 150.6191
4626.629395 111.233 150.5474
4660.155762 110.901 150.7065
4693.925293 110.586 151.0845
4727.939453 110.292 151.6604
4762.200195 110.024 152.4013
4796.708984 109.787 153.2631
4831.467773 109.582 154.1959
4866.478516 109.409 155.1528
4901.743164 109.266 156.0917
4937.263184 109.150 156.9727
4973.040527 109.057 157.7597
5009.077148 108.981 158.4279
5045.375000 108.915 158.9685
5081.936035 108.852 159.3857
5118.761719 108.789 159.6913
5155.854492 108.721 159.9002
5193.215820 108.643 160.0291
5230.848145 108.554 160.0988
5268.752930 108.449 160.1383
5306.932617 108.329 160.1800
5345.388672 108.194 160.2537
5384.123535 108.044 160.3851
5423.139160 107.881 160.5982
5462.437500 107.708 160.9169
5502.020508 107.529 161.3606
5541.890625 107.346 161.9408
5582.049316 107.167 162.6580
5622.499023 106.993 163.5030
5663.242188 106.828 164.4608
5704.280273 106.676 165.5106
5745.615723 106.537 166.6275
5787.250977 106.411 167.7887
5829.187988 106.297 168.9814
5871.428711 106.191 170.2044
5913.975586 106.094 171.4638
5956.830566 106.007 172.7652
5999.996094 105.928 174.1100
6043.474609 105.860 175.4964
6087.268066 105.803 176.9207
6131.378906 105.757 178.3759
6175.809570 105.722 179.8531
6220.562012 105.698 -178.6521
6265.638672 105.685 -177.1371
6311.041992 105.682 -175.5948
6356.774414 105.691 -174.0196
6402.838379 105.712 -172.4102
6449.235840 105.747 -170.7692
6495.969727 105.799 -169.1027
6543.041992 105.867 -167.4207
6590.455566 105.952 -165.7334
6638.212891 106.054 -164.0466
6686.315918 106.174 -162.3601
6734.767578 106.313 -160.6723
6783.570312 106.473 -158.9845
6832.727051 106.656 -157.3027
6882.239746 106.863 -155.6385
6932.111328 107.098 -154.0094
6982.344238 107.362 -152.4360
7032.941406 107.655 -150.9366
7083.904785 107.980 -149.5270
7135.237793 108.339 -148.2244
7186.942871 108.735 -147.0531
7239.022461 109.170 -146.0473
7291.479492 109.647 -145.2543
7344.316406 110.166 -144.7352
7397.536133 110.725 -144.5592
7451.141602 111.319 -144.7976
7505.135742 111.941 -145.5212
7559.520996 112.581 -146.7985
7614.300293 113.223 -148.6918
7669.476562 113.849 -151.2501
7725.052734 114.437 -154.5015
7781.031738 114.963 -158.4410
7837.416504 115.399 -163.0179
7894.209473 115.722 -168.1299
7951.414062 115.912 -173.6266
8009.033203 115.955 -179.3192
8067.069824 115.849 175.0015
8125.527344 115.598 169.5406
8184.408203 115.217 164.4791
8243.715820 114.724 159.9599
8303.453125 114.142 156.0832
8363.623047 113.496 152.9065
8424.229492 112.809 150.4484
8485.275391 112.105 148.6925
8546.763672 111.404 147.5903
8608.697266 110.724 147.0695
8671.079102 110.077 147.0479
8733.913086 109.470 147.4452
8797.202148 108.909 148.1909
8860.950195 108.395 149.2265
8925.160156 107.928 150.4995
8989.835938 107.510 151.9583
9054.980469 107.140 153.5534
9120.596680 106.816 155.2426
9186.688477 106.536 156.9932
9253.258789 106.298 158.7821
9320.311523 106.101 160.5885
9387.850586 105.944 162.3857
9455.878906 105.828 164.1418
9524.400391 105.750 165.8231
9593.417969 105.709 167.4009
9662.935547 105.702 168.8533
9732.957031 105.727 170.1597
9803.486328 105.783 171.2936
9874.526367 105.868 172.2231
9946.081055 105.978 172.9147
10018.154297 106.110 173.3401
10090.750000 106.259 173.4765
10163.872070 106.420 173.3008
10237.523438 106.589 172.7857
10311.708984 106.760 171.9015
10386.431641 106.922 170.6241
10461.696289 107.067 168.9429
10537.505859 107.183 166.8614
10613.865234 107.260 164.3956
10690.777344 107.286 161.5740
10768.247070 107.249 158.4413
10846.278320 107.140 155.0616
10924.875000 106.950 151.5162
11004.041016 106.675 147.8944
11083.781250 106.314 144.2817
11164.098633 105.870 140.7526
11244.998047 105.347 137.3692
11326.484375 104.748 134.1807
11408.560547 104.079 131.2211
11491.231445 103.347 128.5076
11574.501953 102.553 126.0436
11658.375977 101.700 123.8311
11742.857422 100.785 121.8836
11827.951172 99.803 120.2361
11913.661133 98.750 118.9479
11999.992188 97.618 118.1004
12086.949219 96.404 117.7938
12174.536133 95.108 118.1448
12262.757812 93.729 119.3047
12351.619141 92.275 121.5320
12441.124023 90.761 125.3691
12531.277344 89.235 132.0434
12622.083984 87.813 144.3989
12713.548828 86.721 168.0226
12805.676758 86.233 -157.0868
12898.471680 86.465 -129.5137
12991.939453 87.249 -114.5579
13086.083984 88.313 -106.4243
13180.911133 89.462 -101.5884
13276.425781 90.602 -98.5070
13372.631836 91.703 -96.4926
13469.535156 92.762 -95.2392
13567.140625 93.783 -94.6330
13665.454102 94.771 -94.6640
13764.479492 95.723 -95.3737
13864.222656 96.632 -96.8211
13964.688477 97.482 -99.0596
14065.882812 98.251 -102.1164
14167.809570 98.913 -105.9705
14270.475586 99.439 -110.5355
14373.885742 99.804 -115.6543
14478.044922 99.989 -121.1040
14582.958984 99.985 -126.6119
14688.632812 99.796 -131.8842
14795.072266 99.441 -136.6474
14902.283203 98.951 -140.6852
15010.271484 98.366 -143.8600
15119.041992 97.727 -146.1190
15228.600586 97.081 -147.4920
15338.953125 96.468 -148.0844
15450.105469 95.928 -148.0668
15562.063477 95.493 -147.6683
15674.833008 95.187 -147.1710
15788.418945 95.021 -146.8974
15902.828125 94.988 -147.1800
16018.066406 95.060 -148.3195
16134.139648 95.189 -150.5416
16251.054688 95.309 -153.9587
16368.816406 95.350 -158.5396
16487.431641 95.241 -164.0934
16606.906250 94.925 -170.2782
16727.246094 94.366 -176.6397
16848.458984 93.552 177.3143
16970.550781 92.497 172.0329
17093.527344 91.229 167.8764
17217.394531 89.786 165.1091
17342.158203 88.209 163.9036
17467.826172 86.544 164.3370
17594.404297 84.839 166.3723
17721.900391 83.145 169.8343
17850.320312 81.512 174.4029
17979.671875 79.983 179.6707
18109.960938 78.576 -174.7400
18241.193359 77.283 -169.0741
18373.376953 76.077 -163.4221
18506.517578 74.937 -157.7268
18640.623047 73.851 -151.7969
18775.701172 72.820 -145.3431
18911.757812 71.863 -138.0602
19048.800781 71.017 -129.8157
19186.835938 70.336 -120.9533
19325.871094 69.853 -112.4283
19465.914062 69.547 -105.3267
19606.972656 69.353 -100.1230
19749.052734 69.205 -96.6043
19892.162109 69.086 -94.3826
20036.308594 69.016 -93.2717
