* Measurement data measured by REW V5.30.4
* Source: EXCL: Microphone (Realtek(R) Audio), MICROPHONE (Master Volume), L, volume: 1.000
* Format: 256k Log Swept Sine, 1 sweep at -19.0 dBFS with no timing reference
* Dated: Jan 16, 2024 12:14:40 AM
* REW Settings:
*  C-weighting compensation: Off
*  Target level: 75.0 dB
* Note: ND ND-001 R
* Measurement: R ND ND-001
* Smoothing: 1/12 octave
* Frequency Step: 96 ppo
* Start Frequency: 0.36621094 Hz
*
* Freq(Hz) SPL(dB) Phase(degrees)
0.366211 76.342 -3.9547
0.368865 76.349 -3.9446
0.371538 76.359 -3.9296
0.374230 76.372 -3.9109
0.376942 76.386 -3.8896
0.379673 76.400 -3.8665
0.382424 76.416 -3.8422
0.385196 76.432 -3.8168
0.387987 76.448 -3.7906
0.390798 76.465 -3.7638
0.393630 76.481 -3.7363
0.396483 76.498 -3.7081
0.399356 76.515 -3.6794
0.402250 76.532 -3.6501
0.405165 76.549 -3.6201
0.408101 76.567 -3.5896
0.411058 76.584 -3.5584
0.414037 76.602 -3.5266
0.417037 76.619 -3.4941
0.420059 76.637 -3.4610
0.423103 76.655 -3.4273
0.426169 76.673 -3.3930
0.429257 76.691 -3.3580
0.432367 76.709 -3.3223
0.435501 76.728 -3.2860
0.438656 76.746 -3.2490
0.441835 76.765 -3.2114
0.445037 76.784 -3.1730
0.448262 76.803 -3.1340
0.451510 76.822 -3.0944
0.454782 76.841 -3.0540
0.458077 76.861 -3.0130
0.461397 76.880 -2.9712
0.464740 76.900 -2.9288
0.468108 76.920 -2.8857
0.471500 76.940 -2.8419
0.474917 76.960 -2.7974
0.478358 76.980 -2.7522
0.481825 77.001 -2.7063
0.485316 77.021 -2.6597
0.488833 77.042 -2.6124
0.492375 77.063 -2.5644
0.495943 77.084 -2.5157
0.499537 77.105 -2.4662
0.503157 77.126 -2.4161
0.506803 77.148 -2.3653
0.510475 77.169 -2.3139
0.514174 77.191 -2.2617
0.517900 77.213 -2.2088
0.521653 77.235 -2.1553
0.525433 77.257 -2.1010
0.529241 77.280 -2.0461
0.533076 77.302 -1.9905
0.536939 77.325 -1.9343
0.540830 77.348 -1.8774
0.544749 77.371 -1.8199
0.548696 77.394 -1.7617
0.552673 77.418 -1.7029
0.556677 77.441 -1.6435
0.560711 77.465 -1.5835
0.564774 77.489 -1.5229
0.568867 77.513 -1.4616
0.572989 77.537 -1.3999
0.577141 77.562 -1.3375
0.581324 77.586 -1.2747
0.585536 77.611 -1.2113
0.589779 77.636 -1.1474
0.594053 77.661 -1.0830
0.598358 77.687 -1.0181
0.602694 77.712 -0.9528
0.607061 77.738 -0.8870
0.611460 77.764 -0.8208
0.615891 77.790 -0.7543
0.620354 77.816 -0.6873
0.624849 77.843 -0.6201
0.629377 77.869 -0.5525
0.633938 77.896 -0.4846
0.638532 77.923 -0.4165
0.643159 77.950 -0.3482
0.647819 77.978 -0.2796
0.652514 78.006 -0.2109
0.657242 78.033 -0.1420
0.662005 78.061 -0.0731
0.666802 78.090 -0.0040
0.671634 78.118 0.0650
0.676501 78.147 0.1341
0.681403 78.176 0.2032
0.686341 78.205 0.2721
0.691314 78.234 0.3410
0.696324 78.264 0.4097
0.701369 78.294 0.4783
0.706452 78.324 0.5467
0.711571 78.356 0.6151
0.716727 78.388 0.6834
0.721921 78.422 0.7519
0.727153 78.457 0.8208
0.732422 78.496 0.8904
0.737729 78.537 0.9613
0.743075 78.581 1.0338
0.748460 78.627 1.1083
0.753883 78.676 1.1850
0.759346 78.726 1.2638
0.764849 78.778 1.3448
0.770391 78.831 1.4280
0.775974 78.885 1.5132
0.781597 78.941 1.6002
0.787261 78.997 1.6889
0.792965 79.055 1.7792
0.798712 79.114 1.8708
0.804499 79.174 1.9635
0.810329 79.235 2.0573
0.816201 79.298 2.1518
0.822116 79.361 2.2469
0.828073 79.426 2.3425
0.834073 79.491 2.4382
0.840118 79.558 2.5340
0.846205 79.626 2.6296
0.852337 79.695 2.7247
0.858514 79.765 2.8193
0.864735 79.836 2.9130
0.871001 79.908 3.0057
0.877313 79.982 3.0971
0.883670 80.056 3.1871
0.890074 80.131 3.2754
0.896523 80.208 3.3617
0.903020 80.285 3.4460
0.909564 80.363 3.5279
0.916155 80.443 3.6073
0.922793 80.523 3.6839
0.929480 80.604 3.7574
0.936216 80.686 3.8278
0.943000 80.769 3.8947
0.949833 80.853 3.9579
0.956716 80.938 4.0173
0.963649 81.023 4.0725
0.970632 81.110 4.1234
0.977666 81.197 4.1698
0.984750 81.285 4.2114
0.991886 81.373 4.2480
0.999074 81.462 4.2795
1.006313 81.552 4.3056
1.013605 81.643 4.3260
1.020950 81.734 4.3407
1.028349 81.826 4.3494
1.035801 81.918 4.3519
1.043306 82.010 4.3480
1.050867 82.103 4.3377
1.058482 82.197 4.3208
1.066152 82.291 4.2973
1.073878 82.385 4.2674
1.081659 82.479 4.2313
1.089498 82.574 4.1898
1.097393 82.670 4.1435
1.105345 82.766 4.0937
1.113355 82.864 4.0412
1.121422 82.962 3.9871
1.129549 83.061 3.9318
1.137734 83.162 3.8756
1.145978 83.264 3.8187
1.154283 83.367 3.7609
1.162647 83.471 3.7020
1.171072 83.576 3.6419
1.179558 83.683 3.5802
1.188106 83.790 3.5168
1.196715 83.899 3.4514
1.205387 84.009 3.3837
1.214122 84.120 3.3134
1.222920 84.231 3.2403
1.231781 84.344 3.1640
1.240708 84.458 3.0844
1.249698 84.573 3.0011
1.258754 84.688 2.9140
1.267875 84.805 2.8226
1.277063 84.922 2.7268
1.286317 85.040 2.6263
1.295638 85.159 2.5209
1.305027 85.278 2.4103
1.314484 85.398 2.2942
1.324009 85.518 2.1724
1.333603 85.639 2.0446
1.343267 85.760 1.9106
1.353001 85.882 1.7701
1.362805 86.004 1.6229
1.372681 86.126 1.4687
1.382628 86.248 1.3073
1.392647 86.371 1.1385
1.402739 86.493 0.9621
1.412904 86.616 0.7779
1.423142 86.738 0.5859
1.433455 86.860 0.3861
1.443842 86.982 0.1788
1.454305 87.104 -0.0355
1.464843 87.226 -0.2560
1.475458 87.348 -0.4818
1.486150 87.470 -0.7119
1.496919 87.592 -0.9455
1.507766 87.715 -1.1821
1.518692 87.837 -1.4214
1.529697 87.960 -1.6633
1.540782 88.084 -1.9079
1.551947 88.207 -2.1552
1.563193 88.331 -2.4053
1.574521 88.455 -2.6586
1.585931 88.580 -2.9150
1.597423 88.704 -3.1749
1.608998 88.829 -3.4385
1.620658 88.954 -3.7059
1.632402 89.079 -3.9775
1.644231 89.204 -4.2534
1.656146 89.329 -4.5339
1.668147 89.454 -4.8192
1.680235 89.579 -5.1095
1.692410 89.705 -5.4052
1.704674 89.830 -5.7065
1.717027 89.955 -6.0136
1.729469 90.081 -6.3268
1.742002 90.206 -6.6463
1.754625 90.331 -6.9725
1.767340 90.455 -7.3056
1.780147 90.580 -7.6457
1.793046 90.704 -7.9931
1.806040 90.829 -8.3478
1.819127 90.953 -8.7097
1.832309 91.076 -9.0787
1.845587 91.199 -9.4543
1.858961 91.322 -9.8360
1.872431 91.445 -10.2235
1.886000 91.567 -10.6162
1.899666 91.689 -11.0138
1.913432 91.811 -11.4159
1.927298 91.932 -11.8221
1.941264 92.053 -12.2323
1.955331 92.173 -12.6461
1.969500 92.293 -13.0634
1.983772 92.413 -13.4840
1.998147 92.532 -13.9078
2.012626 92.651 -14.3345
2.027211 92.770 -14.7642
2.041901 92.888 -15.1967
2.056697 93.006 -15.6319
2.071601 93.124 -16.0699
2.086613 93.241 -16.5107
2.101733 93.358 -16.9542
2.116963 93.475 -17.4007
2.132303 93.591 -17.8501
2.147755 93.707 -18.3028
2.163318 93.822 -18.7589
2.178995 93.937 -19.2189
2.194785 94.051 -19.6832
2.210689 94.165 -20.1521
2.226709 94.278 -20.6259
2.242844 94.391 -21.1049
2.259097 94.503 -21.5887
2.275467 94.614 -22.0772
2.291956 94.724 -22.5699
2.308565 94.834 -23.0665
2.325294 94.943 -23.5663
2.342144 95.051 -24.0690
2.359116 95.159 -24.5740
2.376211 95.266 -25.0808
2.393430 95.372 -25.5892
2.410774 95.478 -26.0985
2.428243 95.583 -26.6085
2.445839 95.687 -27.1189
2.463562 95.791 -27.6293
2.481415 95.895 -28.1397
2.499396 95.998 -28.6499
2.517508 96.100 -29.1601
2.535750 96.202 -29.6706
2.554126 96.303 -30.1821
2.572634 96.403 -30.6951
2.591276 96.503 -31.2107
2.610054 96.602 -31.7292
2.628967 96.699 -32.2510
2.648018 96.796 -32.7759
2.667206 96.892 -33.3038
2.686534 96.988 -33.8340
2.706002 97.082 -34.3660
2.725610 97.175 -34.8992
2.745361 97.268 -35.4328
2.765255 97.360 -35.9662
2.785294 97.451 -36.4988
2.805477 97.542 -37.0298
2.825807 97.632 -37.5589
2.846284 97.721 -38.0854
2.866909 97.810 -38.6092
2.887684 97.898 -39.1301
2.908609 97.986 -39.6485
2.929686 98.073 -40.1649
2.950916 98.159 -40.6801
2.972299 98.245 -41.1949
2.993838 98.329 -41.7098
3.015532 98.413 -42.2250
3.037384 98.496 -42.7406
3.059394 98.578 -43.2561
3.081564 98.659 -43.7711
3.103894 98.740 -44.2851
3.126386 98.819 -44.7974
3.149041 98.899 -45.3075
3.171861 98.977 -45.8147
3.194845 99.056 -46.3185
3.217996 99.133 -46.8183
3.241315 99.211 -47.3138
3.264803 99.288 -47.8049
3.288461 99.365 -48.2917
3.312291 99.442 -48.7747
3.336293 99.517 -49.2543
3.360469 99.593 -49.7310
3.384820 99.667 -50.2052
3.409348 99.742 -50.6770
3.434054 99.815 -51.1465
3.458938 99.888 -51.6136
3.484003 99.961 -52.0780
3.509250 100.034 -52.5396
3.534679 100.106 -52.9980
3.560293 100.178 -53.4530
3.586092 100.250 -53.9044
3.612079 100.322 -54.3518
3.638253 100.395 -54.7952
3.664618 100.467 -55.2345
3.691173 100.539 -55.6699
3.717921 100.611 -56.1014
3.744862 100.683 -56.5294
3.771999 100.755 -56.9541
3.799332 100.827 -57.3760
3.826864 100.899 -57.7952
3.854595 100.970 -58.2120
3.882527 101.042 -58.6268
3.910661 101.114 -59.0397
3.938999 101.186 -59.4509
3.967543 101.259 -59.8605
3.996294 101.332 -60.2686
4.025252 101.405 -60.6750
4.054421 101.478 -61.0796
4.083801 101.552 -61.4824
4.113394 101.625 -61.8836
4.143201 101.700 -62.2832
4.173225 101.774 -62.6817
4.203466 101.848 -63.0794
4.233926 101.923 -63.4770
4.264606 101.998 -63.8748
4.295509 102.073 -64.2733
4.326636 102.149 -64.6730
4.357989 102.224 -65.0740
4.389569 102.300 -65.4765
4.421378 102.376 -65.8804
4.453417 102.452 -66.2858
4.485688 102.529 -66.6925
4.518193 102.605 -67.1005
4.550934 102.682 -67.5100
4.583912 102.759 -67.9212
4.617129 102.835 -68.3342
4.650587 102.912 -68.7495
4.684287 102.989 -69.1671
4.718231 103.065 -69.5875
4.752421 103.141 -70.0108
4.786859 103.217 -70.4371
4.821547 103.293 -70.8665
4.856485 103.369 -71.2989
4.891677 103.444 -71.7340
4.927125 103.520 -72.1716
4.962829 103.595 -72.6115
4.998791 103.669 -73.0534
5.035015 103.743 -73.4973
5.071500 103.817 -73.9430
5.108251 103.890 -74.3907
5.145267 103.962 -74.8404
5.182552 104.034 -75.2924
5.220107 104.105 -75.7465
5.257934 104.176 -76.2024
5.296035 104.246 -76.6599
5.334412 104.316 -77.1184
5.373067 104.385 -77.5773
5.412003 104.453 -78.0363
5.451221 104.521 -78.4951
5.490722 104.588 -78.9536
5.530510 104.654 -79.4117
5.570587 104.720 -79.8697
5.610953 104.785 -80.3275
5.651613 104.849 -80.7848
5.692567 104.913 -81.2413
5.733818 104.976 -81.6965
5.775367 105.039 -82.1501
5.817218 105.101 -82.6018
5.859372 105.163 -83.0513
5.901831 105.224 -83.4987
5.944598 105.285 -83.9440
5.987675 105.345 -84.3874
6.031065 105.405 -84.8289
6.074768 105.465 -85.2686
6.118788 105.524 -85.7062
6.163127 105.584 -86.1418
6.207788 105.643 -86.5753
6.252772 105.702 -87.0068
6.298082 105.760 -87.4363
6.343721 105.819 -87.8639
6.389690 105.878 -88.2901
6.435992 105.936 -88.7150
6.482630 105.994 -89.1390
6.529606 106.053 -89.5623
6.576922 106.111 -89.9852
6.624581 106.170 -90.4077
6.672585 106.228 -90.8299
6.720938 106.286 -91.2522
6.769640 106.345 -91.6747
6.818696 106.403 -92.0977
6.868107 106.461 -92.5215
6.917876 106.519 -92.9465
6.968006 106.577 -93.3727
7.018499 106.634 -93.8003
7.069358 106.692 -94.2294
7.120586 106.749 -94.6600
7.172184 106.806 -95.0920
7.224157 106.862 -95.5254
7.276506 106.918 -95.9602
7.329235 106.974 -96.3964
7.382345 107.029 -96.8341
7.435841 107.083 -97.2731
7.489724 107.137 -97.7131
7.543997 107.191 -98.1539
7.598664 107.243 -98.5950
7.653728 107.295 -99.0362
7.709189 107.347 -99.4772
7.765053 107.397 -99.9179
7.821322 107.447 -100.3579
7.877998 107.497 -100.7971
7.935086 107.545 -101.2349
7.992587 107.593 -101.6710
8.050504 107.641 -102.1049
8.108841 107.687 -102.5364
8.167601 107.734 -102.9656
8.226787 107.779 -103.3921
8.286402 107.824 -103.8158
8.346449 107.869 -104.2367
8.406931 107.914 -104.6544
8.467851 107.958 -105.0691
8.529212 108.002 -105.4806
8.591018 108.045 -105.8893
8.653272 108.089 -106.2952
8.715977 108.132 -106.6986
8.779137 108.176 -107.0998
8.842754 108.219 -107.4988
8.906833 108.263 -107.8960
8.971375 108.306 -108.2917
9.036386 108.350 -108.6863
9.101867 108.393 -109.0801
9.167823 108.437 -109.4736
9.234257 108.480 -109.8670
9.301172 108.524 -110.2605
9.368572 108.567 -110.6544
9.436460 108.611 -111.0489
9.504841 108.654 -111.4442
9.573717 108.697 -111.8406
9.643092 108.740 -112.2381
9.712970 108.783 -112.6366
9.783354 108.825 -113.0361
9.854248 108.867 -113.4365
9.925656 108.908 -113.8378
9.997581 108.949 -114.2398
10.070028 108.990 -114.6423
10.143000 109.030 -115.0451
10.216500 109.070 -115.4479
10.290533 109.109 -115.8505
10.365103 109.148 -116.2528
10.440212 109.186 -116.6545
10.515866 109.223 -117.0555
10.592069 109.261 -117.4557
10.668823 109.298 -117.8548
10.746134 109.334 -118.2529
10.824005 109.370 -118.6501
10.902440 109.406 -119.0462
10.981443 109.441 -119.4414
11.061020 109.477 -119.8357
11.141172 109.512 -120.2292
11.221906 109.546 -120.6222
11.303225 109.581 -121.0146
11.385133 109.615 -121.4067
11.467634 109.648 -121.7985
11.550734 109.682 -122.1900
11.634435 109.715 -122.5813
11.718742 109.747 -122.9723
11.803661 109.780 -123.3630
11.889195 109.811 -123.7532
11.975349 109.843 -124.1428
12.062128 109.874 -124.5315
12.149535 109.904 -124.9191
12.237576 109.934 -125.3055
12.326254 109.964 -125.6903
12.415575 109.993 -126.0734
12.505544 110.022 -126.4545
12.596164 110.050 -126.8335
12.687441 110.079 -127.2105
12.779379 110.107 -127.5854
12.871984 110.135 -127.9584
12.965260 110.163 -128.3296
13.059211 110.191 -128.6994
13.153843 110.219 -129.0682
13.249161 110.247 -129.4364
13.345170 110.275 -129.8044
13.441875 110.303 -130.1727
13.539280 110.331 -130.5418
13.637391 110.360 -130.9121
13.736214 110.388 -131.2839
13.835752 110.415 -131.6573
13.936011 110.443 -132.0327
14.036998 110.470 -132.4098
14.138716 110.497 -132.7885
14.241171 110.523 -133.1685
14.344368 110.549 -133.5493
14.448313 110.573 -133.9304
14.553011 110.598 -134.3112
14.658468 110.621 -134.6910
14.764689 110.644 -135.0692
14.871680 110.667 -135.4453
14.979446 110.688 -135.8188
15.087994 110.710 -136.1893
15.197328 110.731 -136.5567
15.307454 110.752 -136.9210
15.418378 110.773 -137.2824
15.530106 110.794 -137.6413
15.642643 110.815 -137.9982
15.755996 110.836 -138.3538
15.870171 110.857 -138.7088
15.985172 110.878 -139.0640
16.101007 110.899 -139.4201
16.217682 110.921 -139.7776
16.335201 110.942 -140.1369
16.453573 110.962 -140.4982
16.572803 110.983 -140.8615
16.692898 111.002 -141.2265
16.813862 111.021 -141.5927
16.935701 111.040 -141.9591
17.058424 111.057 -142.3250
17.182035 111.073 -142.6893
17.306543 111.089 -143.0508
17.431953 111.103 -143.4086
17.558273 111.117 -143.7618
17.685509 111.130 -144.1097
17.813665 111.143 -144.4518
17.942751 111.156 -144.7882
18.072771 111.169 -145.1189
18.203733 111.181 -145.4445
18.335646 111.194 -145.7661
18.468513 111.208 -146.0845
18.602345 111.222 -146.4010
18.737144 111.236 -146.7169
18.872921 111.251 -147.0334
19.009682 111.266 -147.3515
19.147434 111.281 -147.6719
19.286184 111.296 -147.9950
19.425940 111.311 -148.3207
19.566708 111.325 -148.6486
19.708496 111.338 -148.9779
19.851313 111.351 -149.3075
19.995163 111.362 -149.6361
20.140057 111.373 -149.9625
20.285999 111.384 -150.2855
20.433001 111.394 -150.6041
20.581066 111.403 -150.9179
20.730206 111.413 -151.2269
20.880424 111.423 -151.5317
21.031733 111.433 -151.8334
21.184137 111.445 -152.1336
21.337646 111.456 -152.4341
21.492268 111.469 -152.7370
21.648010 111.482 -153.0441
21.804880 111.495 -153.3569
21.962887 111.509 -153.6764
22.122040 111.522 -154.0029
22.282345 111.534 -154.3358
22.443811 111.545 -154.6738
22.606449 111.555 -155.0150
22.770266 111.564 -155.3572
22.935268 111.571 -155.6980
23.101467 111.577 -156.0349
23.268869 111.581 -156.3661
23.437485 111.585 -156.6904
23.607323 111.589 -157.0073
23.778391 111.593 -157.3171
23.950699 111.597 -157.6208
24.124256 111.602 -157.9200
24.299070 111.608 -158.2163
24.475151 111.614 -158.5117
24.652508 111.620 -158.8074
24.831150 111.627 -159.1046
25.011087 111.634 -159.4036
25.192327 111.641 -159.7044
25.374882 111.647 -160.0064
25.558758 111.654 -160.3090
25.743967 111.660 -160.6115
25.930519 111.665 -160.9133
26.118422 111.671 -161.2140
26.307686 111.676 -161.5136
26.498322 111.680 -161.8121
26.690340 111.685 -162.1097
26.883749 111.689 -162.4064
27.078560 111.693 -162.7020
27.274782 111.697 -162.9964
27.472427 111.700 -163.2891
27.671503 111.703 -163.5796
27.872023 111.705 -163.8677
28.073996 111.707 -164.1534
28.277431 111.709 -164.4368
28.482342 111.711 -164.7184
28.688736 111.713 -164.9988
28.896626 111.715 -165.2784
29.106022 111.716 -165.5572
29.316936 111.717 -165.8350
29.529379 111.717 -166.1114
29.743361 111.718 -166.3855
29.958893 111.718 -166.6571
30.175987 111.718 -166.9259
30.394655 111.718 -167.1927
30.614908 111.718 -167.4587
30.836756 111.719 -167.7256
31.060211 111.721 -167.9951
31.285286 111.722 -168.2683
31.511992 111.723 -168.5455
31.740341 111.723 -168.8260
31.970345 111.723 -169.1079
32.202015 111.722 -169.3888
32.435364 111.720 -169.6662
32.670403 111.718 -169.9386
32.907146 111.716 -170.2056
33.145607 111.715 -170.4682
33.385796 111.714 -170.7290
33.627724 111.715 -170.9909
33.871403 111.716 -171.2570
34.116848 111.718 -171.5298
34.364071 111.719 -171.8098
34.613087 111.720 -172.0965
34.863907 111.720 -172.3874
35.116547 111.718 -172.6795
35.371017 111.715 -172.9694
35.627331 111.711 -173.2541
35.885502 111.706 -173.5318
36.145542 111.700 -173.8017
36.407467 111.694 -174.0645
36.671291 111.689 -174.3215
36.937027 111.683 -174.5746
37.204689 111.678 -174.8255
37.474289 111.673 -175.0758
37.745842 111.668 -175.3260
38.019363 111.662 -175.5763
38.294868 111.656 -175.8263
38.572369 111.650 -176.0756
38.851879 111.643 -176.3238
39.133415 111.636 -176.5715
39.416992 111.630 -176.8192
39.702625 111.623 -177.0683
39.990326 111.616 -177.3195
40.280113 111.609 -177.5733
40.571999 111.601 -177.8288
40.866001 111.592 -178.0847
41.162132 111.584 -178.3388
41.460411 111.574 -178.5898
41.760849 111.566 -178.8372
42.063465 111.558 -179.0823
42.368275 111.550 -179.3274
42.675293 111.544 -179.5755
42.984535 111.538 -179.8288
43.296021 111.532 179.9122
43.609760 111.525 179.6494
43.925774 111.518 179.3859
44.244080 111.509 179.1259
44.564690 111.500 178.8729
44.887623 111.490 178.6288
45.212898 111.480 178.3933
45.540531 111.471 178.1651
45.870537 111.463 177.9415
46.202934 111.455 177.7202
46.537739 111.447 177.4991
46.874969 111.440 177.2770
47.214645 111.432 177.0535
47.556782 111.423 176.8284
47.901398 111.414 176.6018
48.248512 111.405 176.3741
48.598141 111.394 176.1455
48.950302 111.383 175.9164
49.305016 111.371 175.6870
49.662300 111.358 175.4581
50.022175 111.345 175.2304
50.384655 111.332 175.0048
50.749763 111.318 174.7814
51.117516 111.306 174.5593
51.487934 111.294 174.3361
51.861038 111.283 174.1091
52.236843 111.272 173.8770
52.615372 111.261 173.6403
52.996643 111.250 173.4024
53.380680 111.238 173.1679
53.767498 111.226 172.9409
54.157120 111.214 172.7225
54.549564 111.203 172.5111
54.944855 111.193 172.3029
55.343006 111.184 172.0941
55.744045 111.175 171.8828
56.147991 111.165 171.6690
56.554863 111.154 171.4549
56.964684 111.142 171.2433
57.377472 111.128 171.0376
57.793251 111.113 170.8399
58.212044 111.098 170.6501
58.633873 111.084 170.4641
59.058758 111.071 170.2734
59.486721 111.059 170.0685
59.917786 111.047 169.8433
60.351974 111.033 169.5988
60.789310 111.017 169.3434
61.229816 110.998 169.0876
61.673512 110.978 168.8382
62.120422 110.959 168.5955
62.570572 110.940 168.3553
63.023983 110.922 168.1133
63.480682 110.905 167.8678
63.940689 110.888 167.6204
64.404030 110.870 167.3738
64.870728 110.853 167.1310
65.340805 110.834 166.8944
65.814293 110.816 166.6664
66.291214 110.797 166.4483
66.771591 110.778 166.2393
67.255447 110.759 166.0369
67.742805 110.741 165.8382
68.233696 110.722 165.6413
68.728142 110.703 165.4459
69.226173 110.682 165.2533
69.727814 110.662 165.0645
70.233093 110.641 164.8796
70.742035 110.621 164.6971
71.254662 110.601 164.5138
71.771004 110.582 164.3264
72.291084 110.564 164.1320
72.814934 110.546 163.9291
73.342583 110.528 163.7173
73.874054 110.509 163.4981
74.409378 110.489 163.2748
74.948578 110.468 163.0520
75.491684 110.445 162.8337
76.038727 110.422 162.6228
76.589737 110.400 162.4206
77.144737 110.377 162.2257
77.703758 110.356 162.0345
78.266830 110.337 161.8419
78.833984 110.318 161.6440
79.405251 110.300 161.4390
79.980652 110.281 161.2278
80.560226 110.263 161.0116
81.143997 110.244 160.7910
81.732002 110.224 160.5665
82.324265 110.203 160.3388
82.920822 110.181 160.1094
83.521698 110.157 159.8794
84.126930 110.132 159.6487
84.736549 110.104 159.4177
85.350586 110.075 159.1879
85.969070 110.044 158.9628
86.592041 110.011 158.7464
87.219521 109.977 158.5413
87.851547 109.943 158.3477
88.488159 109.910 158.1635
89.129379 109.879 157.9863
89.775246 109.848 157.8143
90.425797 109.818 157.6474
91.081062 109.789 157.4852
91.741074 109.761 157.3273
92.405869 109.733 157.1725
93.075478 109.705 157.0190
93.749939 109.677 156.8646
94.429291 109.648 156.7083
95.113564 109.618 156.5498
95.802795 109.588 156.3887
96.497025 109.557 156.2238
97.196281 109.525 156.0538
97.900604 109.493 155.8788
98.610031 109.461 155.7014
99.324600 109.428 155.5258
100.044350 109.395 155.3566
100.769310 109.362 155.1962
101.499527 109.330 155.0442
102.235031 109.299 154.8983
102.975868 109.269 154.7557
103.722076 109.239 154.6144
104.473686 109.210 154.4726
105.230743 109.182 154.3281
105.993286 109.154 154.1780
106.761360 109.128 154.0214
107.534996 109.101 153.8604
108.314240 109.073 153.6994
109.099129 109.045 153.5418
109.889709 109.017 153.3877
110.686012 108.987 153.2329
111.488091 108.956 153.0705
112.295982 108.923 152.8944
113.109726 108.887 152.7029
113.929367 108.848 152.4977
114.754944 108.807 152.2809
115.586502 108.766 152.0541
116.424088 108.726 151.8197
117.267746 108.687 151.5848
118.117516 108.648 151.3628
118.973442 108.608 151.1762
119.835571 108.567 151.0524
120.703949 108.529 151.0059
121.578621 108.494 151.0214
122.459633 108.464 151.0632
123.347023 108.437 151.0968
124.240845 108.409 151.0999
125.141144 108.379 151.0664
126.047966 108.345 151.0033
126.961365 108.309 150.9219
127.881378 108.273 150.8297
128.808060 108.238 150.7307
129.741455 108.203 150.6283
130.681610 108.169 150.5256
131.628586 108.135 150.4231
132.582428 108.100 150.3171
133.543182 108.063 150.2011
134.510895 108.025 150.0692
135.485611 107.987 149.9203
136.467392 107.950 149.7608
137.456284 107.915 149.6026
138.452347 107.884 149.4587
139.455627 107.859 149.3368
140.466187 107.836 149.2346
141.484070 107.815 149.1399
142.509323 107.789 149.0443
143.542007 107.754 148.9557
144.582169 107.710 148.8870
145.629868 107.660 148.8375
146.685165 107.606 148.7964
147.748108 107.552 148.7519
148.818756 107.501 148.6973
149.897156 107.452 148.6322
150.983368 107.407 148.5598
152.077454 107.363 148.4872
153.179474 107.320 148.4231
154.289474 107.278 148.3720
155.407516 107.237 148.3315
156.533661 107.197 148.2940
157.667969 107.159 148.2512
158.810501 107.122 148.1971
159.961304 107.086 148.1307
161.120453 107.049 148.0558
162.287994 107.012 147.9791
163.464005 106.973 147.9073
164.648529 106.933 147.8432
165.841644 106.890 147.7853
167.043396 106.847 147.7301
168.253860 106.802 147.6753
169.473099 106.755 147.6216
170.701172 106.709 147.5722
171.938141 106.664 147.5299
173.184082 106.621 147.4954
174.439041 106.581 147.4673
175.703094 106.544 147.4435
176.976318 106.508 147.4225
178.258759 106.473 147.4048
179.550491 106.437 147.3918
180.851593 106.400 147.3851
182.162125 106.363 147.3827
183.482147 106.326 147.3775
184.811737 106.288 147.3612
186.150955 106.249 147.3303
187.499878 106.207 147.2884
188.858582 106.163 147.2438
190.227127 106.118 147.2043
191.605591 106.071 147.1732
192.994049 106.025 147.1510
194.392563 105.979 147.1359
195.801208 105.933 147.1263
197.220062 105.886 147.1219
198.649200 105.839 147.1236
200.088699 105.792 147.1315
201.538620 105.745 147.1454
202.999054 105.699 147.1643
204.470062 105.656 147.1857
205.951736 105.614 147.2059
207.444153 105.573 147.2222
208.947372 105.532 147.2346
210.461487 105.491 147.2457
211.986572 105.447 147.2594
213.522720 105.403 147.2798
215.069992 105.356 147.3104
216.628479 105.309 147.3530
218.198257 105.261 147.4076
219.779419 105.215 147.4720
221.372025 105.169 147.5421
222.976181 105.124 147.6137
224.591965 105.081 147.6842
226.219452 105.037 147.7524
227.858734 104.994 147.8186
229.509888 104.951 147.8833
231.173004 104.908 147.9475
232.848175 104.866 148.0128
234.535492 104.825 148.0804
236.235031 104.783 148.1500
237.946884 104.740 148.2205
239.671143 104.696 148.2917
241.407898 104.649 148.3656
243.157242 104.601 148.4460
244.919266 104.551 148.5363
246.694046 104.500 148.6400
248.481689 104.448 148.7592
250.282288 104.396 148.8945
252.095932 104.346 149.0470
253.922729 104.298 149.2201
255.762756 104.253 149.4150
257.616119 104.212 149.6254
259.482910 104.174 149.8380
261.363220 104.138 150.0384
263.257172 104.103 150.2191
265.164856 104.069 150.3816
267.086365 104.035 150.5352
269.021790 104.001 150.6899
270.971222 103.967 150.8500
272.934784 103.934 151.0117
274.912567 103.903 151.1674
276.904694 103.872 151.3128
278.911255 103.843 151.4513
280.932373 103.814 151.5884
282.968140 103.786 151.7265
285.018646 103.758 151.8642
287.084015 103.731 151.9969
289.164337 103.703 152.1194
291.259735 103.673 152.2292
293.370331 103.639 152.3299
295.496216 103.601 152.4301
297.637512 103.560 152.5396
299.794312 103.517 152.6654
301.966736 103.473 152.8101
304.154907 103.428 152.9717
306.358948 103.383 153.1456
308.578949 103.340 153.3276
310.815033 103.297 153.5171
313.067322 103.256 153.7159
315.335938 103.216 153.9248
317.621002 103.177 154.1433
319.922607 103.137 154.3716
322.240906 103.098 154.6115
324.575989 103.059 154.8651
326.928009 103.021 155.1340
329.297058 102.984 155.4174
331.683289 102.948 155.7115
334.086792 102.914 156.0123
336.507721 102.881 156.3173
338.946198 102.849 156.6259
341.402344 102.818 156.9385
343.876282 102.787 157.2563
346.368164 102.756 157.5812
348.878082 102.725 157.9153
351.406189 102.695 158.2596
353.952637 102.667 158.6133
356.517517 102.641 158.9749
359.100983 102.618 159.3430
361.703186 102.596 159.7165
364.324249 102.576 160.0956
366.964294 102.558 160.4809
369.623474 102.542 160.8736
372.301910 102.528 161.2747
374.999756 102.516 161.6837
377.717163 102.505 162.0988
380.454254 102.496 162.5181
383.211182 102.490 162.9419
385.988098 102.485 163.3713
388.785126 102.484 163.8065
391.602417 102.484 164.2466
394.440125 102.487 164.6904
397.298401 102.494 165.1362
400.177399 102.503 165.5815
403.077240 102.516 166.0230
405.998108 102.532 166.4581
408.940125 102.551 166.8864
411.903473 102.572 167.3105
414.888306 102.594 167.7346
417.894745 102.619 168.1628
420.922974 102.646 168.5967
423.973145 102.677 169.0358
427.045441 102.712 169.4767
430.139984 102.752 169.9123
433.256958 102.797 170.3336
436.396515 102.846 170.7338
439.558838 102.900 171.1098
442.744049 102.957 171.4601
445.952362 103.017 171.7827
449.183929 103.081 172.0736
452.438904 103.147 172.3284
455.717468 103.215 172.5449
459.019775 103.282 172.7266
462.346008 103.349 172.8823
465.696350 103.415 173.0215
469.070984 103.481 173.1486
472.470062 103.547 173.2622
475.893768 103.614 173.3581
479.342285 103.682 173.4309
482.815796 103.751 173.4764
486.314484 103.819 173.4940
489.838531 103.887 173.4890
493.388092 103.954 173.4691
496.963379 104.021 173.4380
500.564575 104.089 173.3916
504.191864 104.157 173.3213
507.845459 104.226 173.2194
511.525513 104.293 173.0830
515.232239 104.359 172.9147
518.965820 104.421 172.7197
522.726440 104.481 172.5044
526.514343 104.538 172.2746
530.329712 104.593 172.0333
534.172729 104.646 171.7789
538.043579 104.698 171.5075
541.942444 104.748 171.2174
545.869568 104.795 170.9104
549.825134 104.841 170.5891
553.809387 104.884 170.2540
557.822510 104.925 169.9051
561.864746 104.963 169.5434
565.936279 104.997 169.1718
570.037292 105.026 168.7935
574.168030 105.051 168.4117
578.328674 105.072 168.0287
582.519470 105.090 167.6453
586.740662 105.106 167.2632
590.992432 105.118 166.8860
595.275024 105.127 166.5174
599.588623 105.136 166.1579
603.933472 105.143 165.8040
608.309814 105.149 165.4520
612.717896 105.153 165.0992
617.157898 105.156 164.7464
621.630066 105.156 164.3971
626.134644 105.155 164.0555
630.671875 105.154 163.7225
635.242004 105.152 163.3932
639.845215 105.151 163.0620
644.481812 105.149 162.7275
649.151978 105.146 162.3927
653.856018 105.143 162.0585
658.594116 105.140 161.7206
663.366577 105.136 161.3710
668.173584 105.132 161.0034
673.015442 105.124 160.6189
677.892395 105.111 160.2250
682.804688 105.095 159.8307
687.752563 105.074 159.4423
692.736328 105.050 159.0648
697.756165 105.024 158.7021
702.812378 104.995 158.3557
707.905273 104.965 158.0231
713.035034 104.935 157.6999
718.201965 104.903 157.3823
723.406372 104.870 157.0696
728.648499 104.836 156.7628
733.928589 104.800 156.4638
739.246948 104.762 156.1745
744.603821 104.724 155.8961
749.999512 104.684 155.6288
755.434326 104.643 155.3719
760.908508 104.602 155.1246
766.422363 104.560 154.8860
771.976196 104.517 154.6564
777.570251 104.473 154.4377
783.204834 104.427 154.2328
788.880249 104.380 154.0456
794.596802 104.333 153.8803
800.354797 104.287 153.7390
806.154480 104.242 153.6191
811.996216 104.201 153.5131
817.880249 104.163 153.4104
823.806946 104.128 153.3003
829.776611 104.094 153.1736
835.789490 104.061 153.0267
841.845947 104.025 152.8646
847.946289 103.987 152.6970
854.090881 103.947 152.5322
860.279968 103.904 152.3746
866.513916 103.860 152.2277
872.793030 103.814 152.0946
879.117676 103.769 151.9754
885.488098 103.723 151.8658
891.904724 103.679 151.7617
898.367859 103.634 151.6629
904.877808 103.589 151.5721
911.434937 103.545 151.4911
918.039551 103.501 151.4188
924.692017 103.459 151.3529
931.392700 103.418 151.2901
938.141968 103.377 151.2269
944.940125 103.337 151.1613
951.787537 103.296 151.0940
958.684570 103.255 151.0276
965.631592 103.213 150.9645
972.628967 103.171 150.9068
979.677063 103.128 150.8545
986.776184 103.086 150.8065
993.926758 103.043 150.7633
1001.129150 103.000 150.7286
1008.383728 102.958 150.7061
1015.690918 102.917 150.6949
1023.051025 102.879 150.6904
1030.464478 102.844 150.6850
1037.931641 102.812 150.6677
1045.452881 102.781 150.6268
1053.028687 102.750 150.5566
1060.659424 102.718 150.4607
1068.345459 102.682 150.3474
1076.087158 102.643 150.2260
1083.884888 102.601 150.1035
1091.739136 102.556 149.9830
1099.650269 102.510 149.8656
1107.618774 102.461 149.7524
1115.645020 102.409 149.6447
1123.729492 102.356 149.5447
1131.872559 102.301 149.4550
1140.074585 102.244 149.3773
1148.336060 102.186 149.3126
1156.657349 102.126 149.2608
1165.038940 102.066 149.2231
1173.481323 102.005 149.2015
1181.984863 101.944 149.1968
1190.550049 101.885 149.2041
1199.177246 101.827 149.2133
1207.866943 101.771 149.2127
1216.619629 101.714 149.1962
1225.435791 101.655 149.1661
1234.315796 101.592 149.1300
1243.260132 101.526 149.0967
1252.269287 101.455 149.0745
1261.343750 101.381 149.0687
1270.484009 101.304 149.0822
1279.690430 101.225 149.1177
1288.963623 101.144 149.1780
1298.303955 101.062 149.2632
1307.712036 100.980 149.3707
1317.188232 100.897 149.4968
1326.733154 100.814 149.6389
1336.347168 100.730 149.7979
1346.030884 100.645 149.9772
1355.784790 100.559 150.1811
1365.609375 100.470 150.4137
1375.505127 100.381 150.6801
1385.472656 100.292 150.9856
1395.512329 100.205 151.3323
1405.624756 100.120 151.7152
1415.810547 100.040 152.1223
1426.070068 99.964 152.5380
1436.403931 99.891 152.9525
1446.812744 99.820 153.3647
1457.296997 99.748 153.7798
1467.857178 99.677 154.2044
1478.493896 99.605 154.6436
1489.207642 99.532 155.1013
1499.999023 99.460 155.5812
1510.868652 99.388 156.0872
1521.817017 99.316 156.6229
1532.844727 99.246 157.1917
1543.952393 99.177 157.7957
1555.140503 99.112 158.4350
1566.409668 99.050 159.1050
1577.760498 98.994 159.7949
1589.193604 98.944 160.4902
1600.709595 98.897 161.1805
1612.308960 98.853 161.8639
1623.992432 98.810 162.5459
1635.760498 98.768 163.2342
1647.613892 98.726 163.9360
1659.553223 98.686 164.6575
1671.578979 98.648 165.4036
1683.691895 98.612 166.1754
1695.892578 98.578 166.9701
1708.181763 98.547 167.7844
1720.559937 98.519 168.6172
1733.027832 98.493 169.4718
1745.586060 98.469 170.3542
1758.235352 98.447 171.2722
1770.976196 98.431 172.2321
1783.809448 98.420 173.2325
1796.735718 98.417 174.2623
1809.755615 98.423 175.3050
1822.869873 98.436 176.3484
1836.079102 98.455 177.3886
1849.384033 98.480 178.4273
1862.785400 98.511 179.4678
1876.283936 98.545 -179.4862
1889.880249 98.585 -178.4306
1903.575073 98.631 -177.3612
1917.369141 98.683 -176.2731
1931.263184 98.742 -175.1624
1945.257935 98.811 -174.0294
1959.354126 98.891 -172.8837
1973.552368 98.982 -171.7422
1987.853516 99.082 -170.6199
2002.258301 99.192 -169.5246
2016.767456 99.308 -168.4568
2031.381836 99.432 -167.4135
2046.102051 99.563 -166.3909
2060.928955 99.701 -165.3870
2075.863281 99.846 -164.4030
2090.905762 99.999 -163.4418
2106.057373 100.159 -162.5035
2121.318848 100.327 -161.5847
2136.690918 100.503 -160.6791
2152.174316 100.688 -159.7818
2167.769775 100.886 -158.8959
2183.478271 101.097 -158.0354
2199.300537 101.322 -157.2198
2215.237549 101.561 -156.4660
2231.290039 101.811 -155.7851
2247.458984 102.073 -155.1835
2263.745117 102.344 -154.6647
2280.149170 102.626 -154.2299
2296.672119 102.917 -153.8804
2313.314697 103.219 -153.6209
2330.077881 103.533 -153.4631
2346.962646 103.858 -153.4282
2363.969727 104.194 -153.5412
2381.100098 104.538 -153.8233
2398.354492 104.886 -154.2883
2415.733887 105.235 -154.9447
2433.239258 105.582 -155.7976
2450.871582 105.923 -156.8509
2468.631592 106.254 -158.1072
2486.520264 106.571 -159.5650
2504.538574 106.869 -161.2163
2522.687500 107.144 -163.0462
2540.968018 107.394 -165.0360
2559.380859 107.616 -167.1685
2577.927246 107.808 -169.4289
2596.607910 107.967 -171.7991
2615.424072 108.089 -174.2545
2634.376465 108.172 -176.7635
2653.466309 108.215 -179.2889
2672.694336 108.217 178.2101
2692.061768 108.180 175.7745
2711.569580 108.107 173.4402
2731.218750 108.004 171.2326
2751.010254 107.874 169.1668
2770.945312 107.721 167.2523
2791.024658 107.550 165.4957
2811.249512 107.363 163.9022
2831.621094 107.163 162.4746
2852.140137 106.954 161.2122
2872.807861 106.738 160.1129
2893.625488 106.517 159.1755
2914.593994 106.293 158.4016
2935.714355 106.070 157.7910
2956.987793 105.850 157.3363
2978.415283 105.636 157.0229
2999.998047 105.431 156.8329
3021.737305 105.234 156.7509
3043.634033 105.046 156.7662
3065.689453 104.867 156.8746
3087.904785 104.697 157.0750
3110.281006 104.539 157.3627
3132.819336 104.394 157.7253
3155.520996 104.263 158.1455
3178.387207 104.146 158.6057
3201.419189 104.042 159.0907
3224.617920 103.952 159.5876
3247.984863 103.873 160.0862
3271.520996 103.804 160.5810
3295.227783 103.745 161.0714
3319.106445 103.694 161.5579
3343.157959 103.652 162.0342
3367.383789 103.621 162.4852
3391.785156 103.598 162.8912
3416.363525 103.583 163.2346
3441.119873 103.571 163.5045
3466.055664 103.559 163.7000
3491.172119 103.544 163.8246
3516.470703 103.524 163.8826
3541.952393 103.493 163.8787
3567.618896 103.450 163.8245
3593.471436 103.389 163.7419
3619.511230 103.307 163.6649
3645.739746 103.202 163.6386
3672.158203 103.072 163.7199
3698.768066 102.921 163.9725
3725.570801 102.753 164.4547
3752.567871 102.579 165.2061
3779.760498 102.409 166.2421
3807.150146 102.252 167.5552
3834.738281 102.119 169.1204
3862.526367 102.018 170.9006
3890.515869 101.954 172.8461
3918.708252 101.931 174.8954
3947.104736 101.952 176.9827
3975.707031 102.015 179.0462
4004.516602 102.115 -178.9658
4033.534912 102.248 -177.0915
4062.763672 102.408 -175.3509
4092.204102 102.590 -173.7466
4121.857910 102.789 -172.2734
4151.726562 103.004 -170.9271
4181.811523 103.232 -169.7050
4212.114746 103.471 -168.6021
4242.637695 103.718 -167.6077
4273.381836 103.975 -166.7100
4304.348633 104.240 -165.9035
4335.539551 104.516 -165.1920
4366.956543 104.803 -164.5862
4398.601074 105.100 -164.1016
4430.475098 105.407 -163.7533
4462.580078 105.720 -163.5498
4494.917969 106.038 -163.4942
4527.490234 106.360 -163.5902
4560.298340 106.683 -163.8445
4593.344238 107.006 -164.2636
4626.629395 107.325 -164.8484
4660.155762 107.638 -165.5948
4693.925293 107.944 -166.4997
4727.939453 108.242 -167.5650
4762.200195 108.529 -168.7965
4796.708984 108.802 -170.2025
4831.467773 109.057 -171.7871
4866.478516 109.287 -173.5449
4901.743164 109.488 -175.4605
4937.263184 109.654 -177.5097
4973.040527 109.779 -179.6579
5009.077148 109.858 178.1450
5045.375000 109.889 175.9636
5081.936035 109.873 173.8687
5118.761719 109.816 171.9254
5155.854492 109.727 170.1823
5193.215820 109.615 168.6621
5230.848145 109.493 167.3620
5268.752930 109.368 166.2597
5306.932617 109.247 165.3218
5345.388672 109.134 164.5114
5384.123535 109.030 163.7930
5423.139160 108.937 163.1337
5462.437500 108.855 162.4967
5502.020508 108.781 161.8409
5541.890625 108.710 161.1306
5582.049316 108.633 160.3499
5622.499023 108.543 159.5123
5663.242188 108.431 158.6592
5704.280273 108.294 157.8481
5745.615723 108.133 157.1373
5787.250977 107.951 156.5795
5829.187988 107.754 156.2203
5871.428711 107.549 156.0951
5913.975586 107.347 156.2222
5956.830566 107.159 156.5950
5999.996094 106.994 157.1779
6043.474609 106.860 157.9107
6087.268066 106.762 158.7183
6131.378906 106.697 159.5229
6175.809570 106.660 160.2627
6220.562012 106.642 160.9077
6265.638672 106.633 161.4639
6311.041992 106.628 161.9610
6356.774414 106.625 162.4337
6402.838379 106.624 162.9081
6449.235840 106.627 163.3992
6495.969727 106.635 163.9121
6543.041992 106.652 164.4455
6590.455566 106.676 164.9977
6638.212891 106.709 165.5715
6686.315918 106.753 166.1743
6734.767578 106.809 166.8137
6783.570312 106.883 167.4909
6832.727051 106.977 168.1982
6882.239746 107.096 168.9172
6932.111328 107.245 169.6182
6982.344238 107.427 170.2632
7032.941406 107.642 170.8119
7083.904785 107.891 171.2238
7135.237793 108.174 171.4561
7186.942871 108.492 171.4612
7239.022461 108.841 171.1875
7291.479492 109.217 170.5796
7344.316406 109.617 169.5802
7397.536133 110.030 168.1359
7451.141602 110.446 166.2019
7505.135742 110.853 163.7435
7559.520996 111.237 160.7365
7614.300293 111.579 157.1743
7669.476562 111.862 153.0749
7725.052734 112.064 148.4879
7781.031738 112.168 143.4991
7837.416504 112.158 138.2298
7894.209473 112.025 132.8282
7951.414062 111.765 127.4524
8009.033203 111.381 122.2558
8067.069824 110.884 117.3729
8125.527344 110.287 112.9083
8184.408203 109.606 108.9321
8243.715820 108.860 105.4823
8303.453125 108.065 102.5668
8363.623047 107.238 100.1653
8424.229492 106.393 98.2335
8485.275391 105.542 96.7068
8546.763672 104.694 95.5065
8608.697266 103.851 94.5510
8671.079102 103.013 93.7737
8733.913086 102.176 93.1357
8797.202148 101.337 92.6201
8860.950195 100.500 92.1877
8925.160156 99.682 91.6942
8989.835938 98.895 90.8447
9054.980469 98.146 89.2679
9120.596680 97.424 86.6054
9186.688477 96.721 82.4921
9253.258789 96.039 76.4395
9320.311523 95.411 67.6474
9387.850586 94.910 54.7518
9455.878906 94.654 35.8380
9524.400391 94.765 10.4554
9593.417969 95.289 -16.2324
9662.935547 96.140 -37.7175
9732.957031 97.156 -53.3008
9803.486328 98.192 -64.9530
9874.526367 99.157 -74.2469
9946.081055 100.007 -82.0448
10018.154297 100.730 -88.7655
10090.750000 101.332 -94.6019
10163.872070 101.832 -99.6460
10237.523438 102.252 -103.9561
10311.708984 102.612 -107.5883
10386.431641 102.935 -110.6077
10461.696289 103.239 -113.0889
10537.505859 103.537 -115.1167
10613.865234 103.844 -116.7866
10690.777344 104.166 -118.2029
10768.247070 104.507 -119.4697
10846.278320 104.868 -120.6823
10924.875000 105.247 -121.9231
11004.041016 105.642 -123.2652
11083.781250 106.045 -124.7749
11164.098633 106.452 -126.5089
11244.998047 106.851 -128.5068
11326.484375 107.233 -130.7878
11408.560547 107.589 -133.3531
11491.231445 107.909 -136.1910
11574.501953 108.187 -139.2779
11658.375977 108.415 -142.5765
11742.857422 108.588 -146.0381
11827.951172 108.704 -149.6096
11913.661133 108.763 -153.2433
11999.992188 108.768 -156.9001
12086.949219 108.719 -160.5475
12174.536133 108.619 -164.1569
12262.757812 108.469 -167.7049
12351.619141 108.273 -171.1757
12441.124023 108.029 -174.5568
12531.277344 107.738 -177.8309
12622.083984 107.398 179.0288
12713.548828 107.007 176.0583
12805.676758 106.566 173.2990
12898.471680 106.076 170.7981
12991.939453 105.537 168.6093
13086.083984 104.955 166.7884
13180.911133 104.336 165.3860
13276.425781 103.688 164.4429
13372.631836 103.021 163.9910
13469.535156 102.345 164.0535
13567.140625 101.672 164.6417
13665.454102 101.015 165.7498
13764.479492 100.386 167.3594
13864.222656 99.798 169.4435
13964.688477 99.262 171.9658
14065.882812 98.791 174.8751
14167.809570 98.398 178.1040
14270.475586 98.094 -178.4293
14373.885742 97.892 -174.8278
14478.044922 97.802 -171.2257
14582.958984 97.830 -167.7910
14688.632812 97.978 -164.7180
14795.072266 98.238 -162.2183
14902.283203 98.591 -160.5028
15010.271484 99.006 -159.7520
15119.041992 99.444 -160.0860
15228.600586 99.855 -161.5443
15338.953125 100.191 -164.0706
15450.105469 100.401 -167.5023
15562.063477 100.446 -171.5709
15674.833008 100.298 -175.9229
15788.418945 99.949 179.8383
15902.828125 99.409 176.1007
16018.066406 98.707 173.1995
16134.139648 97.881 171.3880
16251.054688 96.980 170.8237
16368.816406 96.058 171.5609
16487.431641 95.174 173.5408
16606.906250 94.386 176.5739
16727.246094 93.747 -179.6645
16848.458984 93.297 -175.6127
16970.550781 93.052 -171.7690
17093.527344 92.999 -168.6105
17217.394531 93.096 -166.5091
17342.158203 93.283 -165.6854
17467.826172 93.488 -166.1987
17594.404297 93.644 -167.9580
17721.900391 93.691 -170.7457
17850.320312 93.587 -174.2514
17979.671875 93.308 -178.1169
18109.960938 92.850 178.0087
18241.193359 92.230 174.4096
18373.376953 91.473 171.2604
18506.517578 90.609 168.6215
18640.623047 89.665 166.4653
18775.701172 88.658 164.7224
18911.757812 87.594 163.3366
19048.800781 86.471 162.3067
19186.835938 85.282 161.7055
19325.871094 84.021 161.6791
19465.914062 82.697 162.4113
19606.972656 81.345 164.0231
19749.052734 80.050 166.3903
19892.162109 78.972 168.9353
20036.308594 78.339 170.6507
