* Measurement data measured by REW V5.31
* Source: EXCL: Microphone (USB Sound Device        ), MICROPHONE (Master Volume), L, volume: 0.390
* Format: 256k Log Swept Sine, 1 sweep at -15.0 dBFS with no timing reference
* Dated: Oct 14, 2024 1:24:24 PM
* REW Settings:
*  C-weighting compensation: Off
*  Target level: 75.0 dB
* Note: NF Acoud NM20 L
* Measurement: L NF Acoud NM20
* Smoothing: 1/12 octave
* Frequency Step: 96 ppo
* Start Frequency: 0.36621094 Hz
*
* Freq(Hz)	SPL(dB)	Phase(degrees)
0.366211	83.886	159.2022
0.368865	83.881	159.1799
0.371538	83.872	159.1464
0.374230	83.861	159.1044
0.376942	83.849	159.0561
0.379673	83.836	159.0029
0.382424	83.823	158.9461
0.385196	83.809	158.8861
0.387987	83.795	158.8234
0.390798	83.780	158.7583
0.393630	83.766	158.6906
0.396483	83.751	158.6206
0.399356	83.737	158.5482
0.402250	83.722	158.4734
0.405165	83.707	158.3962
0.408101	83.692	158.3166
0.411058	83.677	158.2345
0.414037	83.661	158.1500
0.417037	83.646	158.0629
0.420059	83.631	157.9733
0.423103	83.615	157.8812
0.426169	83.599	157.7865
0.429257	83.583	157.6892
0.432368	83.568	157.5893
0.435501	83.551	157.4868
0.438656	83.535	157.3816
0.441835	83.519	157.2737
0.445037	83.503	157.1631
0.448262	83.486	157.0498
0.451510	83.469	156.9337
0.454782	83.453	156.8148
0.458077	83.436	156.6932
0.461397	83.419	156.5688
0.464740	83.402	156.4415
0.468108	83.384	156.3114
0.471500	83.367	156.1785
0.474917	83.350	156.0426
0.478358	83.332	155.9039
0.481825	83.314	155.7623
0.485316	83.296	155.6178
0.488833	83.278	155.4703
0.492375	83.260	155.3199
0.495943	83.242	155.1665
0.499537	83.223	155.0102
0.503157	83.205	154.8509
0.506803	83.186	154.6886
0.510475	83.167	154.5234
0.514175	83.149	154.3552
0.517900	83.129	154.1840
0.521653	83.110	154.0098
0.525434	83.091	153.8326
0.529241	83.071	153.6525
0.533076	83.052	153.4693
0.536939	83.032	153.2833
0.540830	83.012	153.0942
0.544749	82.992	152.9023
0.548696	82.972	152.7074
0.552673	82.951	152.5096
0.556677	82.931	152.3089
0.560711	82.910	152.1053
0.564774	82.889	151.8989
0.568867	82.868	151.6897
0.572989	82.847	151.4778
0.577141	82.826	151.2630
0.581324	82.805	151.0456
0.585536	82.783	150.8256
0.589779	82.761	150.6029
0.594053	82.739	150.3776
0.598358	82.717	150.1499
0.602694	82.695	149.9197
0.607061	82.673	149.6871
0.611460	82.650	149.4523
0.615891	82.628	149.2151
0.620354	82.605	148.9759
0.624849	82.582	148.7345
0.629377	82.559	148.4912
0.633938	82.535	148.2459
0.638532	82.512	147.9989
0.643159	82.488	147.7503
0.647819	82.464	147.5000
0.652514	82.440	147.2483
0.657242	82.416	146.9953
0.662005	82.391	146.7412
0.666802	82.367	146.4860
0.671634	82.342	146.2299
0.676501	82.317	145.9731
0.681403	82.292	145.7158
0.686341	82.267	145.4581
0.691314	82.241	145.2002
0.696324	82.215	144.9423
0.701370	82.189	144.6845
0.706452	82.163	144.4269
0.711571	82.136	144.1697
0.716728	82.108	143.9127
0.721921	82.079	143.6558
0.727153	82.049	143.3984
0.732422	82.017	143.1399
0.737729	81.982	142.8793
0.743075	81.946	142.6157
0.748460	81.908	142.3480
0.753883	81.868	142.0757
0.759346	81.828	141.7983
0.764849	81.786	141.5155
0.770391	81.744	141.2269
0.775974	81.701	140.9325
0.781597	81.658	140.6321
0.787261	81.614	140.3256
0.792966	81.570	140.0130
0.798712	81.525	139.6942
0.804500	81.479	139.3690
0.810329	81.432	139.0375
0.816201	81.385	138.6995
0.822116	81.338	138.3551
0.828073	81.289	138.0041
0.834074	81.240	137.6465
0.840118	81.190	137.2823
0.846206	81.139	136.9115
0.852338	81.088	136.5339
0.858514	81.035	136.1496
0.864735	80.982	135.7585
0.871001	80.928	135.3607
0.877313	80.872	134.9561
0.883670	80.816	134.5447
0.890074	80.759	134.1266
0.896524	80.701	133.7018
0.903020	80.642	133.2704
0.909564	80.581	132.8323
0.916155	80.520	132.3876
0.922794	80.457	131.9365
0.929481	80.393	131.4790
0.936216	80.328	131.0152
0.943000	80.262	130.5453
0.949834	80.194	130.0694
0.956717	80.125	129.5878
0.963649	80.054	129.1005
0.970632	79.982	128.6079
0.977666	79.909	128.1101
0.984750	79.834	127.6075
0.991886	79.757	127.1004
0.999074	79.678	126.5890
1.006314	79.598	126.0738
1.013606	79.516	125.5553
1.020951	79.433	125.0337
1.028349	79.347	124.5096
1.035801	79.259	123.9836
1.043307	79.170	123.4562
1.050867	79.078	122.9279
1.058482	78.984	122.3993
1.066152	78.888	121.8710
1.073878	78.789	121.3435
1.081660	78.688	120.8170
1.089498	78.585	120.2917
1.097393	78.478	119.7672
1.105345	78.369	119.2429
1.113355	78.256	118.7180
1.121423	78.140	118.1914
1.129549	78.021	117.6622
1.137734	77.898	117.1296
1.145979	77.771	116.5929
1.154283	77.641	116.0514
1.162647	77.507	115.5044
1.171072	77.370	114.9512
1.179558	77.230	114.3912
1.188106	77.086	113.8235
1.196715	76.939	113.2476
1.205387	76.789	112.6626
1.214122	76.636	112.0676
1.222920	76.481	111.4619
1.231782	76.322	110.8444
1.240708	76.162	110.2142
1.249699	75.998	109.5703
1.258754	75.832	108.9116
1.267876	75.664	108.2368
1.277063	75.495	107.5448
1.286318	75.323	106.8343
1.295639	75.149	106.1039
1.305027	74.974	105.3521
1.314484	74.798	104.5775
1.324009	74.621	103.7783
1.333604	74.442	102.9531
1.343268	74.263	102.0999
1.353002	74.084	101.2170
1.362806	73.904	100.3026
1.372681	73.724	99.3547
1.382628	73.545	98.3713
1.392647	73.366	97.3506
1.402739	73.187	96.2906
1.412904	73.010	95.1894
1.423142	72.833	94.0452
1.433455	72.657	92.8561
1.443843	72.483	91.6204
1.454305	72.308	90.3361
1.464844	72.132	89.0008
1.475459	71.955	87.6118
1.486150	71.775	86.1654
1.496920	71.591	84.6570
1.507767	71.403	83.0814
1.518693	71.210	81.4326
1.529698	71.012	79.7040
1.540783	70.811	77.8885
1.551948	70.606	75.9787
1.563194	70.398	73.9663
1.574521	70.188	71.8430
1.585931	69.976	69.6003
1.597423	69.764	67.2294
1.608999	69.552	64.7218
1.620658	69.341	62.0697
1.632402	69.132	59.2662
1.644232	68.926	56.3060
1.656146	68.725	53.1861
1.668147	68.529	49.9064
1.680235	68.340	46.4709
1.692411	68.158	42.8881
1.704675	67.985	39.1714
1.717028	67.823	35.3400
1.729470	67.673	31.4183
1.742003	67.536	27.4354
1.754626	67.414	23.4237
1.767341	67.308	19.4175
1.780147	67.221	15.4504
1.793047	67.154	11.5533
1.806040	67.109	7.7519
1.819128	67.088	4.0652
1.832310	67.091	0.5044
1.845587	67.121	-2.9263
1.858961	67.179	-6.2275
1.872432	67.263	-9.4019
1.886001	67.374	-12.4528
1.899667	67.510	-15.3829
1.913433	67.670	-18.1949
1.927299	67.853	-20.8911
1.941265	68.056	-23.4735
1.955332	68.277	-25.9442
1.969501	68.515	-28.3055
1.983773	68.767	-30.5595
1.998148	69.030	-32.7084
2.012627	69.303	-34.7545
2.027212	69.583	-36.7000
2.041902	69.866	-38.5470
2.056698	70.152	-40.2978
2.071602	70.437	-41.9544
2.086614	70.718	-43.5188
2.101734	70.994	-44.9932
2.116964	71.260	-46.3798
2.132304	71.516	-47.6813
2.147756	71.760	-48.9008
2.163320	71.989	-50.0428
2.178996	72.203	-51.1127
2.194786	72.404	-52.1181
2.210690	72.592	-53.0672
2.226710	72.769	-53.9688
2.242845	72.937	-54.8301
2.259098	73.097	-55.6570
2.275468	73.250	-56.4532
2.291957	73.398	-57.2211
2.308566	73.540	-57.9623
2.325295	73.678	-58.6773
2.342145	73.811	-59.3663
2.359117	73.940	-60.0290
2.376212	74.065	-60.6649
2.393431	74.186	-61.2731
2.410775	74.305	-61.8527
2.428244	74.421	-62.4025
2.445840	74.535	-62.9212
2.463564	74.647	-63.4075
2.481416	74.757	-63.8600
2.499397	74.866	-64.2776
2.517509	74.974	-64.6592
2.535752	75.080	-65.0046
2.554127	75.185	-65.3138
2.572635	75.287	-65.5880
2.591277	75.387	-65.8288
2.610055	75.484	-66.0382
2.628968	75.577	-66.2183
2.648019	75.667	-66.3710
2.667208	75.753	-66.4982
2.686535	75.837	-66.6012
2.706003	75.918	-66.6816
2.725612	75.997	-66.7408
2.745363	76.074	-66.7798
2.765257	76.151	-66.8001
2.785295	76.227	-66.8026
2.805478	76.303	-66.7884
2.825808	76.381	-66.7585
2.846285	76.459	-66.7137
2.866910	76.540	-66.6543
2.887685	76.623	-66.5805
2.908611	76.708	-66.4918
2.929688	76.795	-66.3871
2.950917	76.885	-66.2652
2.972301	76.977	-66.1251
2.993839	77.070	-65.9668
3.015534	77.164	-65.7911
3.037386	77.260	-65.5997
3.059396	77.357	-65.3950
3.081565	77.455	-65.1796
3.103896	77.554	-64.9567
3.126388	77.655	-64.7292
3.149043	77.757	-64.5003
3.171862	77.861	-64.2729
3.194847	77.967	-64.0498
3.217998	78.074	-63.8331
3.241317	78.184	-63.6244
3.264805	78.296	-63.4244
3.288463	78.410	-63.2324
3.312293	78.527	-63.0473
3.336295	78.646	-62.8673
3.360471	78.768	-62.6915
3.384822	78.892	-62.5197
3.409350	79.018	-62.3532
3.434056	79.146	-62.1934
3.458940	79.276	-62.0427
3.484005	79.407	-61.9034
3.509252	79.538	-61.7782
3.534681	79.670	-61.6694
3.560295	79.802	-61.5793
3.586094	79.934	-61.5097
3.612081	80.065	-61.4622
3.638255	80.195	-61.4373
3.664620	80.324	-61.4351
3.691175	80.453	-61.4546
3.717923	80.582	-61.4946
3.744864	80.710	-61.5536
3.772001	80.838	-61.6302
3.799335	80.965	-61.7232
3.826866	81.092	-61.8315
3.854597	81.217	-61.9540
3.882529	81.341	-62.0901
3.910664	81.463	-62.2392
3.939002	81.584	-62.4007
3.967546	81.702	-62.5746
3.996296	81.818	-62.7610
4.025255	81.931	-62.9602
4.054423	82.042	-63.1726
4.083804	82.150	-63.3984
4.113396	82.256	-63.6371
4.143204	82.359	-63.8877
4.173227	82.460	-64.1486
4.203468	82.558	-64.4179
4.233928	82.654	-64.6939
4.264609	82.747	-64.9745
4.295512	82.839	-65.2581
4.326639	82.927	-65.5436
4.357992	83.013	-65.8304
4.389572	83.096	-66.1186
4.421380	83.177	-66.4086
4.453419	83.255	-66.7012
4.485691	83.330	-66.9964
4.518196	83.402	-67.2937
4.550936	83.471	-67.5920
4.583914	83.539	-67.8895
4.617131	83.604	-68.1844
4.650589	83.667	-68.4746
4.684289	83.728	-68.7586
4.718233	83.788	-69.0350
4.752424	83.846	-69.3032
4.786862	83.903	-69.5631
4.821549	83.958	-69.8152
4.856488	84.011	-70.0599
4.891680	84.063	-70.2976
4.927127	84.113	-70.5284
4.962831	84.162	-70.7521
4.998794	84.211	-70.9685
5.035017	84.259	-71.1771
5.071503	84.307	-71.3774
5.108253	84.355	-71.5689
5.145270	84.404	-71.7513
5.182555	84.452	-71.9246
5.220110	84.501	-72.0894
5.257937	84.550	-72.2467
5.296038	84.599	-72.3978
5.334415	84.649	-72.5441
5.373071	84.700	-72.6874
5.412006	84.752	-72.8287
5.451224	84.805	-72.9691
5.490725	84.859	-73.1090
5.530514	84.914	-73.2486
5.570590	84.971	-73.3881
5.610957	85.030	-73.5282
5.651616	85.089	-73.6702
5.692570	85.150	-73.8158
5.733821	85.212	-73.9668
5.775370	85.275	-74.1251
5.817221	85.339	-74.2919
5.859375	85.404	-74.4683
5.901834	85.470	-74.6546
5.944602	85.537	-74.8508
5.987679	85.605	-75.0571
6.031068	85.674	-75.2739
6.074771	85.743	-75.5016
6.118792	85.812	-75.7410
6.163131	85.881	-75.9927
6.207792	85.950	-76.2573
6.252776	86.019	-76.5350
6.298086	86.087	-76.8258
6.343725	86.156	-77.1291
6.389694	86.223	-77.4440
6.435996	86.290	-77.7695
6.482634	86.356	-78.1048
6.529610	86.421	-78.4490
6.576926	86.485	-78.8016
6.624585	86.548	-79.1623
6.672590	86.610	-79.5307
6.720942	86.671	-79.9060
6.769645	86.730	-80.2871
6.818700	86.788	-80.6726
6.868111	86.845	-81.0610
6.917881	86.902	-81.4511
6.968010	86.957	-81.8421
7.018504	87.011	-82.2335
7.069362	87.064	-82.6249
7.120590	87.116	-83.0157
7.172189	87.168	-83.4051
7.224161	87.219	-83.7922
7.276511	87.270	-84.1761
7.329239	87.321	-84.5562
7.382350	87.372	-84.9322
7.435845	87.422	-85.3040
7.489729	87.473	-85.6720
7.544002	87.524	-86.0362
7.598669	87.576	-86.3970
7.653732	87.628	-86.7544
7.709194	87.682	-87.1087
7.765058	87.736	-87.4600
7.821327	87.791	-87.8088
7.878004	87.847	-88.1559
7.935091	87.904	-88.5021
7.992592	87.962	-88.8483
8.050510	88.022	-89.1950
8.108847	88.082	-89.5429
8.167607	88.144	-89.8922
8.226793	88.206	-90.2436
8.286408	88.270	-90.5975
8.346454	88.334	-90.9545
8.406936	88.399	-91.3152
8.467856	88.465	-91.6797
8.529218	88.531	-92.0482
8.591024	88.598	-92.4205
8.653278	88.666	-92.7965
8.715983	88.733	-93.1759
8.779143	88.800	-93.5586
8.842760	88.868	-93.9443
8.906839	88.935	-94.3326
8.971381	89.003	-94.7228
9.036392	89.070	-95.1143
9.101873	89.136	-95.5063
9.167829	89.203	-95.8983
9.234263	89.269	-96.2896
9.301178	89.335	-96.6798
9.368578	89.400	-97.0683
9.436467	89.465	-97.4543
9.504847	89.530	-97.8374
9.573723	89.594	-98.2171
9.643099	89.658	-98.5931
9.712976	89.720	-98.9653
9.783361	89.781	-99.3334
9.854255	89.839	-99.6975
9.925663	89.896	-100.0573
9.997588	89.950	-100.4131
10.070035	90.003	-100.7649
10.143007	90.053	-101.1130
10.216507	90.102	-101.4578
10.290540	90.149	-101.7994
10.365109	90.196	-102.1381
10.440219	90.241	-102.4743
10.515873	90.286	-102.8082
10.592076	90.331	-103.1401
10.668830	90.375	-103.4702
10.746141	90.419	-103.7989
10.824012	90.462	-104.1261
10.902447	90.506	-104.4521
10.981451	90.549	-104.7768
11.061027	90.591	-105.1003
11.141180	90.633	-105.4227
11.221913	90.675	-105.7439
11.303232	90.716	-106.0638
11.385140	90.757	-106.3824
11.467641	90.797	-106.6997
11.550741	90.836	-107.0156
11.634442	90.876	-107.3301
11.718750	90.914	-107.6432
11.803669	90.953	-107.9550
11.889203	90.992	-108.2656
11.975357	91.030	-108.5751
12.062136	91.068	-108.8836
12.149543	91.106	-109.1914
12.237583	91.144	-109.4985
12.326262	91.181	-109.8053
12.415583	91.218	-110.1120
12.505552	91.254	-110.4186
12.596172	91.290	-110.7256
12.687449	91.325	-111.0330
12.779387	91.360	-111.3410
12.871992	91.393	-111.6497
12.965268	91.427	-111.9594
13.059220	91.459	-112.2701
13.153852	91.492	-112.5819
13.249170	91.524	-112.8949
13.345179	91.556	-113.2092
13.441884	91.587	-113.5250
13.539289	91.619	-113.8424
13.637401	91.650	-114.1615
13.736223	91.681	-114.4824
13.835761	91.711	-114.8055
13.936021	91.741	-115.1308
14.037007	91.771	-115.4586
14.138725	91.800	-115.7890
14.241180	91.829	-116.1223
14.344377	91.858	-116.4586
14.448323	91.886	-116.7979
14.553021	91.914	-117.1404
14.658478	91.941	-117.4861
14.764700	91.968	-117.8348
14.871691	91.995	-118.1866
14.979457	92.022	-118.5411
15.088005	92.049	-118.8983
15.197339	92.075	-119.2578
15.307465	92.101	-119.6195
15.418389	92.128	-119.9831
15.530117	92.154	-120.3484
15.642655	92.180	-120.7152
15.756008	92.206	-121.0833
15.870182	92.232	-121.4527
15.985184	92.258	-121.8234
16.101019	92.285	-122.1953
16.217694	92.311	-122.5685
16.335214	92.338	-122.9432
16.453586	92.365	-123.3193
16.572815	92.393	-123.6970
16.692909	92.421	-124.0763
16.813872	92.450	-124.4573
16.935713	92.479	-124.8398
17.058436	92.508	-125.2237
17.182048	92.538	-125.6089
17.306556	92.569	-125.9951
17.431967	92.599	-126.3820
17.558286	92.629	-126.7693
17.685521	92.659	-127.1565
17.813677	92.689	-127.5432
17.942762	92.719	-127.9291
18.072783	92.749	-128.3137
18.203746	92.778	-128.6966
18.335658	92.807	-129.0775
18.468526	92.836	-129.4561
18.602356	92.865	-129.8319
18.737156	92.894	-130.2048
18.872934	92.923	-130.5746
19.009695	92.951	-130.9410
19.147447	92.980	-131.3042
19.286197	93.008	-131.6639
19.425953	93.036	-132.0204
19.566721	93.064	-132.3739
19.708510	93.092	-132.7245
19.851326	93.119	-133.0727
19.995177	93.146	-133.4187
20.140070	93.172	-133.7630
20.286013	93.198	-134.1059
20.433014	93.223	-134.4476
20.581080	93.248	-134.7883
20.730219	93.271	-135.1279
20.880439	93.294	-135.4664
21.031747	93.317	-135.8031
21.184152	93.338	-136.1378
21.337661	93.359	-136.4696
21.492282	93.378	-136.7979
21.648024	93.398	-137.1219
21.804895	93.416	-137.4413
21.962902	93.435	-137.7556
22.122054	93.453	-138.0649
22.282360	93.471	-138.3696
22.443827	93.489	-138.6705
22.606464	93.508	-138.9688
22.770280	93.528	-139.2661
22.935283	93.548	-139.5643
23.101481	93.569	-139.8652
23.268884	93.591	-140.1706
23.437500	93.613	-140.4824
23.607338	93.636	-140.8016
23.778406	93.659	-141.1293
23.950714	93.682	-141.4657
24.124271	93.705	-141.8106
24.299086	93.727	-142.1635
24.475167	93.749	-142.5232
24.652524	93.770	-142.8887
24.831166	93.790	-143.2587
25.011103	93.810	-143.6321
25.192344	93.830	-144.0080
25.374898	93.849	-144.3856
25.558775	93.868	-144.7645
25.743984	93.886	-145.1445
25.930536	93.905	-145.5253
26.118439	93.923	-145.9066
26.307704	93.940	-146.2881
26.498341	93.958	-146.6692
26.690359	93.974	-147.0490
26.883768	93.990	-147.4267
27.078579	94.006	-147.8014
27.274801	94.021	-148.1723
27.472446	94.035	-148.5389
27.671522	94.050	-148.9013
27.872042	94.064	-149.2596
28.074014	94.078	-149.6143
28.277450	94.091	-149.9662
28.482360	94.105	-150.3158
28.688755	94.118	-150.6638
28.896645	94.130	-151.0104
29.106042	94.142	-151.3555
29.316957	94.154	-151.6991
29.529400	94.164	-152.0411
29.743382	94.175	-152.3816
29.958915	94.185	-152.7211
30.176009	94.195	-153.0602
30.394677	94.205	-153.3998
30.614929	94.215	-153.7408
30.836778	94.224	-154.0835
31.060234	94.232	-154.4281
31.285309	94.240	-154.7740
31.512015	94.246	-155.1201
31.740364	94.253	-155.4655
31.970368	94.258	-155.8090
32.202039	94.263	-156.1502
32.435388	94.269	-156.4896
32.670428	94.275	-156.8281
32.907171	94.281	-157.1675
33.145630	94.288	-157.5095
33.385817	94.295	-157.8555
33.627745	94.302	-158.2062
33.871425	94.309	-158.5611
34.116871	94.315	-158.9191
34.364096	94.321	-159.2781
34.613113	94.326	-159.6364
34.863934	94.331	-159.9923
35.116572	94.335	-160.3451
35.371041	94.340	-160.6948
35.627354	94.344	-161.0424
35.885525	94.349	-161.3887
36.145566	94.354	-161.7347
36.407492	94.358	-162.0805
36.671316	94.362	-162.4258
36.937051	94.364	-162.7695
37.204712	94.367	-163.1102
37.474313	94.368	-163.4467
37.745867	94.369	-163.7787
38.019389	94.370	-164.1064
38.294893	94.371	-164.4309
38.572394	94.371	-164.7538
38.851905	94.372	-165.0765
39.133442	94.371	-165.3996
39.417019	94.370	-165.7226
39.702651	94.368	-166.0438
39.990353	94.365	-166.3610
40.280140	94.362	-166.6721
40.572026	94.358	-166.9762
40.866028	94.355	-167.2742
41.162160	94.352	-167.5688
41.460438	94.351	-167.8639
41.760877	94.350	-168.1635
42.063494	94.350	-168.4696
42.368303	94.349	-168.7820
42.675322	94.347	-169.0979
42.984565	94.343	-169.4128
43.296048	94.339	-169.7231
43.609789	94.335	-170.0269
43.925804	94.332	-170.3253
44.244108	94.329	-170.6220
44.564719	94.328	-170.9216
44.887654	94.327	-171.2279
45.212928	94.326	-171.5422
45.540560	94.324	-171.8630
45.870565	94.321	-172.1868
46.202962	94.317	-172.5095
46.537768	94.312	-172.8277
46.875000	94.306	-173.1394
47.214676	94.301	-173.4447
47.556813	94.295	-173.7450
47.901429	94.291	-174.0431
48.248542	94.288	-174.3427
48.598171	94.285	-174.6474
48.950334	94.282	-174.9598
49.305048	94.279	-175.2804
49.662333	94.274	-175.6072
50.022206	94.267	-175.9356
50.384688	94.258	-176.2604
50.749796	94.248	-176.5770
51.117550	94.237	-176.8832
51.487969	94.225	-177.1794
51.861072	94.214	-177.4680
52.236879	94.204	-177.7525
52.615409	94.195	-178.0361
52.996681	94.186	-178.3215
53.380717	94.177	-178.6102
53.767536	94.168	-178.9029
54.157158	94.159	-179.1987
54.549603	94.149	-179.4958
54.944892	94.139	-179.7916
55.343045	94.129	179.9158
55.744084	94.119	179.6270
56.148028	94.109	179.3406
56.554900	94.100	179.0543
56.964720	94.091	178.7655
57.377510	94.083	178.4727
57.793291	94.075	178.1761
58.212085	94.066	177.8768
58.633914	94.056	177.5764
59.058799	94.046	177.2758
59.486764	94.036	176.9753
59.917829	94.024	176.6745
60.352019	94.012	176.3735
60.789354	93.999	176.0726
61.229859	93.985	175.7725
61.673556	93.970	175.4741
62.120468	93.955	175.1775
62.570618	93.938	174.8828
63.024031	93.922	174.5898
63.480729	93.904	174.2988
63.940736	93.887	174.0099
64.404077	93.869	173.7239
64.870776	93.851	173.4412
65.340856	93.832	173.1622
65.814343	93.814	172.8868
66.291261	93.797	172.6140
66.771635	93.779	172.3424
67.255489	93.762	172.0708
67.742850	93.744	171.7988
68.233743	93.726	171.5269
68.728193	93.708	171.2560
69.226226	93.689	170.9871
69.727867	93.669	170.7212
70.233144	93.649	170.4588
70.742083	93.628	170.2006
71.254709	93.608	169.9464
71.771050	93.588	169.6952
72.291132	93.568	169.4449
72.814984	93.549	169.1935
73.342631	93.530	168.9396
73.874102	93.512	168.6834
74.409424	93.493	168.4263
74.948626	93.474	168.1696
75.491734	93.455	167.9142
76.038779	93.436	167.6604
76.589787	93.416	167.4085
77.144788	93.397	167.1584
77.703811	93.376	166.9097
78.266885	93.356	166.6619
78.834039	93.334	166.4149
79.405303	93.312	166.1694
79.980706	93.289	165.9261
80.560280	93.266	165.6844
81.144053	93.244	165.4413
81.732056	93.223	165.1898
82.324320	93.203	164.9225
82.920876	93.181	164.6362
83.521755	93.158	164.3353
84.126988	93.133	164.0294
84.736607	93.106	163.7269
85.350643	93.079	163.4319
85.969129	93.051	163.1458
86.592097	93.023	162.8702
87.219579	92.996	162.6070
87.851608	92.969	162.3574
88.488217	92.943	162.1209
89.129439	92.917	161.8954
89.775308	92.893	161.6776
90.425856	92.869	161.4639
91.081119	92.844	161.2514
91.741131	92.819	161.0377
92.405925	92.793	160.8203
93.075536	92.766	160.5982
93.750000	92.736	160.3724
94.429351	92.704	160.1460
95.113625	92.669	159.9235
95.802858	92.633	159.7090
96.497085	92.597	159.5058
97.196342	92.561	159.3148
97.900667	92.526	159.1338
98.610096	92.494	158.9565
99.324665	92.465	158.7736
100.044413	92.438	158.5783
100.769376	92.411	158.3705
101.499592	92.383	158.1564
102.235100	92.354	157.9434
102.975938	92.325	157.7361
103.722144	92.296	157.5356
104.473757	92.268	157.3391
105.230817	92.241	157.1428
105.993363	92.213	156.9453
106.761435	92.185	156.7486
107.535072	92.155	156.5573
108.314315	92.124	156.3761
109.099206	92.092	156.2084
109.889783	92.059	156.0544
110.686090	92.025	155.9102
111.488167	91.990	155.7703
112.296056	91.953	155.6329
113.109800	91.910	155.5033
113.929440	91.862	155.3921
114.755020	91.809	155.3091
115.586582	91.753	155.2550
116.424170	91.695	155.2209
117.267827	91.636	155.1990
118.117598	91.579	155.1883
118.973527	91.529	155.1805
119.835658	91.489	155.1453
120.704037	91.461	155.0466
121.578708	91.440	154.8765
122.459718	91.426	154.6569
123.347111	91.416	154.4150
124.240935	91.411	154.1713
125.141236	91.407	153.9421
126.048061	91.404	153.7407
126.961458	91.399	153.5760
127.881473	91.390	153.4494
128.808154	91.378	153.3521
129.741551	91.363	153.2666
130.681712	91.344	153.1713
131.628686	91.321	153.0477
132.582521	91.293	152.8878
133.543269	91.260	152.7007
134.510979	91.222	152.5052
135.485701	91.183	152.3141
136.467486	91.144	152.1303
137.456386	91.106	151.9526
138.452451	91.069	151.7787
139.455735	91.032	151.6076
140.466288	90.997	151.4395
141.484165	90.961	151.2751
142.509418	90.926	151.1143
143.542100	90.892	150.9567
144.582265	90.856	150.8025
145.629968	90.821	150.6526
146.685262	90.785	150.5084
147.748204	90.747	150.3693
148.818849	90.709	150.2333
149.897251	90.669	150.0995
150.983469	90.628	149.9705
152.077557	90.586	149.8509
153.179574	90.544	149.7446
154.289576	90.503	149.6528
155.407622	90.463	149.5727
156.533770	90.425	149.4989
157.668078	90.389	149.4248
158.810606	90.354	149.3445
159.961413	90.319	149.2552
161.120559	90.284	149.1572
162.288105	90.249	149.0521
163.464112	90.212	148.9424
164.648640	90.173	148.8305
165.841752	90.133	148.7195
167.043510	90.090	148.6128
168.253976	90.046	148.5126
169.473213	90.001	148.4200
170.701286	89.955	148.3353
171.938258	89.911	148.2580
173.184194	89.868	148.1862
174.439158	89.826	148.1172
175.703216	89.785	148.0494
176.976434	89.746	147.9819
178.258878	89.706	147.9148
179.550615	89.666	147.8480
180.851713	89.626	147.7810
182.162239	89.585	147.7134
183.482262	89.544	147.6449
184.811850	89.502	147.5761
186.151073	89.459	147.5077
187.500000	89.415	147.4411
188.858702	89.370	147.3780
190.227250	89.325	147.3200
191.605715	89.279	147.2690
192.994169	89.232	147.2270
194.392685	89.185	147.1959
195.801334	89.138	147.1776
197.220191	89.090	147.1738
198.649330	89.043	147.1866
200.088825	88.996	147.2173
201.538751	88.950	147.2664
202.999184	88.906	147.3320
204.470200	88.864	147.4117
205.951875	88.824	147.5028
207.444287	88.787	147.6021
208.947514	88.752	147.7067
210.461634	88.719	147.8143
211.986726	88.688	147.9230
213.522869	88.660	148.0308
215.070144	88.634	148.1349
216.628631	88.612	148.2315
218.198411	88.593	148.3152
219.779567	88.577	148.3790
221.372180	88.564	148.4153
222.976334	88.551	148.4188
224.592112	88.537	148.3895
226.219600	88.521	148.3318
227.858880	88.501	148.2535
229.510039	88.478	148.1630
231.173164	88.452	148.0677
232.848340	88.421	147.9725
234.535655	88.388	147.8802
236.235197	88.353	147.7912
237.947054	88.315	147.7055
239.671317	88.276	147.6248
241.408074	88.235	147.5522
243.157416	88.191	147.4916
244.919435	88.146	147.4450
246.694223	88.100	147.4137
248.481871	88.052	147.3987
250.282473	88.005	147.4022
252.096123	87.958	147.4258
253.922915	87.914	147.4683
255.762945	87.873	147.5244
257.616309	87.834	147.5834
259.483103	87.798	147.6327
261.363424	87.763	147.6642
263.257372	87.727	147.6790
265.165043	87.690	147.6857
267.086538	87.651	147.6956
269.021957	87.611	147.7167
270.971401	87.570	147.7530
272.934972	87.529	147.8038
274.912771	87.489	147.8665
276.904902	87.450	147.9384
278.911469	87.413	148.0176
280.932577	87.377	148.1020
282.968330	87.344	148.1880
285.018835	87.314	148.2697
287.084199	87.285	148.3394
289.164530	87.257	148.3907
291.259935	87.228	148.4217
293.370525	87.197	148.4378
295.496408	87.163	148.4495
297.637697	87.127	148.4669
299.794503	87.088	148.4966
301.966937	87.048	148.5395
304.155114	87.008	148.5933
306.359147	86.968	148.6545
308.579152	86.929	148.7197
310.815244	86.889	148.7863
313.067539	86.850	148.8533
315.336156	86.810	148.9225
317.621211	86.768	148.9981
319.922826	86.727	149.0849
322.241118	86.685	149.1847
324.576210	86.644	149.2954
326.928223	86.604	149.4131
329.297280	86.565	149.5337
331.683504	86.528	149.6543
334.087019	86.491	149.7730
336.507952	86.455	149.8888
338.946427	86.419	150.0012
341.402572	86.382	150.1110
343.876516	86.345	150.2205
346.368387	86.306	150.3322
348.878315	86.267	150.4479
351.406431	86.228	150.5690
353.952867	86.189	150.6960
356.517756	86.150	150.8284
359.101230	86.112	150.9655
361.703426	86.074	151.1058
364.324478	86.036	151.2484
366.964523	85.998	151.3929
369.623699	85.961	151.5394
372.302145	85.923	151.6888
375.000000	85.886	151.8418
377.717405	85.849	151.9987
380.454501	85.813	152.1600
383.211431	85.777	152.3257
385.988339	85.741	152.4958
388.785369	85.705	152.6700
391.602668	85.670	152.8480
394.440383	85.635	153.0294
397.298660	85.601	153.2128
400.177650	85.567	153.3963
403.077502	85.533	153.5782
405.998368	85.500	153.7578
408.940400	85.467	153.9357
411.903750	85.433	154.1142
414.888575	85.399	154.2975
417.895028	85.365	154.4896
420.923268	85.330	154.6932
423.973452	85.297	154.9085
427.045738	85.264	155.1332
430.140287	85.233	155.3628
433.257261	85.204	155.5922
436.396822	85.177	155.8181
439.559133	85.151	156.0402
442.744360	85.126	156.2586
445.952668	85.102	156.4721
449.184225	85.079	156.6764
452.439199	85.057	156.8661
455.717760	85.034	157.0384
459.020079	85.009	157.1968
462.346327	84.981	157.3516
465.696680	84.950	157.5143
469.071310	84.917	157.6920
472.470394	84.883	157.8860
475.894109	84.848	158.0933
479.342634	84.815	158.3085
482.816148	84.782	158.5262
486.314833	84.748	158.7444
489.838871	84.714	158.9676
493.388445	84.679	159.2033
496.963741	84.645	159.4561
500.564945	84.612	159.7227
504.192245	84.581	159.9958
507.845830	84.552	160.2688
511.525890	84.523	160.5383
515.232618	84.495	160.8046
518.966206	84.466	161.0704
522.726849	84.436	161.3401
526.514743	84.406	161.6185
530.330086	84.376	161.9083
534.173076	84.347	162.2084
538.043915	84.319	162.5141
541.942803	84.292	162.8225
545.869944	84.266	163.1340
549.825542	84.241	163.4496
553.809805	84.217	163.7679
557.822939	84.193	164.0860
561.865154	84.171	164.4014
565.936660	84.148	164.7143
570.037671	84.125	165.0277
574.168399	84.101	165.3453
578.329060	84.078	165.6693
582.519870	84.054	165.9992
586.741049	84.030	166.3347
590.992817	84.007	166.6781
595.275394	83.983	167.0321
599.589005	83.961	167.3960
603.933874	83.940	167.7654
608.310228	83.920	168.1365
612.718295	83.900	168.5080
617.158304	83.880	168.8823
621.630488	83.860	169.2654
626.135079	83.840	169.6635
630.672311	83.821	170.0790
635.242423	83.803	170.5080
639.845651	83.788	170.9445
644.482237	83.775	171.3861
649.152421	83.765	171.8336
653.856447	83.757	172.2855
658.594560	83.753	172.7352
663.367008	83.751	173.1725
668.174039	83.751	173.5894
673.015903	83.751	173.9860
677.892854	83.749	174.3702
682.805145	83.745	174.7519
687.753032	83.739	175.1388
692.736774	83.731	175.5364
697.756631	83.723	175.9484
702.812863	83.715	176.3759
707.905735	83.708	176.8168
713.035511	83.701	177.2672
718.202461	83.696	177.7236
723.406852	83.692	178.1854
728.648956	83.689	178.6534
733.929047	83.687	179.1288
739.247399	83.685	179.6125
744.604290	83.685	-179.8949
750.000000	83.687	-179.3930
755.434809	83.689	-178.8818
760.909001	83.693	-178.3618
766.422861	83.699	-177.8330
771.976677	83.707	-177.2961
777.570739	83.716	-176.7521
783.205337	83.727	-176.2020
788.880766	83.740	-175.6455
794.597321	83.755	-175.0801
800.355301	83.773	-174.5040
806.155005	83.795	-173.9182
811.996736	83.821	-173.3288
817.880799	83.852	-172.7449
823.807501	83.888	-172.1770
829.777150	83.927	-171.6341
835.790057	83.967	-171.1183
841.846536	84.006	-170.6229
847.946903	84.045	-170.1376
854.091476	84.083	-169.6548
860.280575	84.121	-169.1719
866.514523	84.159	-168.6868
872.793644	84.198	-168.1973
879.118267	84.239	-167.7038
885.488720	84.282	-167.2105
891.905336	84.327	-166.7212
898.368450	84.374	-166.2367
904.878398	84.423	-165.7554
911.435520	84.474	-165.2771
918.040157	84.528	-164.8038
924.692655	84.584	-164.3386
931.393359	84.642	-163.8853
938.142619	84.702	-163.4476
944.940787	84.764	-163.0274
951.788218	84.827	-162.6242
958.685268	84.891	-162.2359
965.632296	84.955	-161.8599
972.629666	85.020	-161.4934
979.677741	85.086	-161.1353
986.776890	85.153	-160.7856
993.927482	85.220	-160.4429
1001.129891	85.287	-160.1033
1008.384491	85.355	-159.7633
1015.691660	85.426	-159.4245
1023.051781	85.499	-159.0924
1030.465236	85.576	-158.7747
1037.932411	85.656	-158.4827
1045.453698	85.738	-158.2282
1053.029486	85.821	-158.0172
1060.660172	85.902	-157.8473
1068.346153	85.981	-157.7115
1076.087829	86.056	-157.6034
1083.885605	86.127	-157.5199
1091.739887	86.195	-157.4625
1099.651084	86.257	-157.4322
1107.619609	86.312	-157.4243
1115.645878	86.356	-157.4225
1123.730308	86.388	-157.3957
1131.873321	86.409	-157.2992
1140.075341	86.424	-157.0890
1148.336797	86.443	-156.7464
1156.658119	86.475	-156.2963
1165.039741	86.525	-155.7997
1173.482099	86.592	-155.3213
1181.985634	86.673	-154.9049
1190.550789	86.763	-154.5705
1199.178011	86.855	-154.3223
1207.867749	86.945	-154.1555
1216.620457	87.031	-154.0558
1225.436590	87.107	-153.9979
1234.316609	87.175	-153.9501
1243.260976	87.234	-153.8817
1252.270157	87.290	-153.7710
1261.344623	87.345	-153.6151
1270.484846	87.402	-153.4282
1279.691303	87.464	-153.2292
1288.964474	87.528	-153.0323
1298.304842	87.594	-152.8451
1307.712894	87.661	-152.6704
1317.189120	87.729	-152.5088
1326.734016	87.796	-152.3587
1336.348077	87.863	-152.2157
1346.031806	87.929	-152.0742
1355.785708	87.995	-151.9278
1365.610290	88.062	-151.7710
1375.506065	88.129	-151.5982
1385.473549	88.198	-151.4039
1395.513261	88.270	-151.1865
1405.625726	88.346	-150.9513
1415.811469	88.427	-150.7101
1426.071023	88.512	-150.4780
1436.404921	88.599	-150.2643
1446.813703	88.686	-150.0694
1457.297912	88.773	-149.8877
1467.858093	88.859	-149.7126
1478.494798	88.943	-149.5397
1489.208581	89.025	-149.3655
1500.000000	89.105	-149.1871
1510.869618	89.182	-149.0014
1521.818002	89.255	-148.8059
1532.845723	89.325	-148.5981
1543.953355	89.393	-148.3763
1555.141477	89.460	-148.1399
1566.410674	89.529	-147.8932
1577.761531	89.601	-147.6476
1589.194642	89.676	-147.4180
1600.710601	89.753	-147.2142
1612.310010	89.831	-147.0370
1623.993473	89.908	-146.8813
1635.761599	89.985	-146.7399
1647.615002	90.060	-146.6068
1659.554299	90.135	-146.4771
1671.580114	90.210	-146.3476
1683.693072	90.285	-146.2173
1695.893807	90.361	-146.0877
1708.182952	90.437	-145.9608
1720.561150	90.513	-145.8360
1733.029045	90.587	-145.7104
1745.587288	90.661	-145.5788
1758.236533	90.734	-145.4348
1770.977440	90.807	-145.2730
1783.810673	90.884	-145.0940
1796.736900	90.965	-144.9072
1809.756796	91.051	-144.7270
1822.871040	91.141	-144.5647
1836.080315	91.234	-144.4242
1849.385310	91.329	-144.3044
1862.786718	91.425	-144.2019
1876.285239	91.524	-144.1126
1889.881575	91.625	-144.0318
1903.576436	91.730	-143.9554
1917.370535	91.841	-143.8803
1931.264593	91.958	-143.8060
1945.259332	92.083	-143.7367
1959.355483	92.216	-143.6840
1973.553781	92.356	-143.6633
1987.854965	92.500	-143.6858
2002.259781	92.645	-143.7544
2016.768981	92.789	-143.8651
2031.383320	92.931	-144.0105
2046.103561	93.070	-144.1819
2060.930471	93.206	-144.3712
2075.864823	93.339	-144.5723
2090.907395	93.468	-144.7800
2106.058972	93.595	-144.9875
2121.320344	93.717	-145.1847
2136.692305	93.838	-145.3594
2152.175658	93.958	-145.4999
2167.771210	94.081	-145.6023
2183.479774	94.210	-145.6745
2199.302169	94.348	-145.7332
2215.239219	94.495	-145.7984
2231.291755	94.652	-145.8896
2247.460615	94.818	-146.0271
2263.746641	94.993	-146.2299
2280.150683	95.174	-146.5139
2296.673595	95.360	-146.8902
2313.316238	95.547	-147.3644
2330.079481	95.734	-147.9395
2346.964198	95.918	-148.6180
2363.971268	96.097	-149.4010
2381.101578	96.268	-150.2832
2398.356022	96.429	-151.2528
2415.735498	96.577	-152.2947
2433.240913	96.714	-153.3925
2450.873180	96.838	-154.5320
2468.633217	96.950	-155.7017
2486.521951	97.050	-156.8915
2504.540314	97.139	-158.0910
2522.689246	97.217	-159.2884
2540.969692	97.287	-160.4740
2559.382606	97.349	-161.6452
2577.928947	97.407	-162.8088
2596.609683	97.460	-163.9749
2615.425787	97.507	-165.1515
2634.378241	97.547	-166.3420
2653.468031	97.578	-167.5432
2672.696154	97.601	-168.7459
2692.063613	97.613	-169.9374
2711.571415	97.618	-171.1066
2731.220579	97.616	-172.2496
2751.012130	97.608	-173.3695
2770.947098	97.595	-174.4710
2791.026522	97.575	-175.5569
2811.251451	97.549	-176.6266
2831.622938	97.515	-177.6770
2852.142045	97.474	-178.7032
2872.809842	97.424	-179.6991
2893.627406	97.367	179.3453
2914.595823	97.301	178.4432
2935.716186	97.229	177.6069
2956.989596	97.152	176.8413
2978.417161	97.072	176.1445
3000.000000	96.990	175.5115
3021.739237	96.907	174.9379
3043.636005	96.823	174.4230
3065.691446	96.737	173.9710
3087.906710	96.650	173.5884
3110.282955	96.565	173.2778
3132.821347	96.483	173.0340
3155.523062	96.406	172.8464
3178.389283	96.334	172.7036
3201.421202	96.266	172.5959
3224.620020	96.202	172.5160
3247.986946	96.142	172.4586
3271.523198	96.084	172.4221
3295.230004	96.028	172.4111
3319.108599	95.974	172.4327
3343.160228	95.922	172.4905
3367.386145	95.874	172.5822
3391.787613	95.831	172.7022
3416.365904	95.791	172.8467
3441.122300	95.754	173.0176
3466.058091	95.721	173.2235
3491.174576	95.691	173.4736
3516.473066	95.667	173.7709
3541.954880	95.651	174.1101
3567.621345	95.643	174.4807
3593.473800	95.644	174.8700
3619.513592	95.654	175.2651
3645.742080	95.671	175.6557
3672.160630	95.694	176.0382
3698.770620	95.721	176.4169
3725.573436	95.753	176.7982
3752.570477	95.790	177.1851
3779.763150	95.831	177.5766
3807.152872	95.877	177.9716
3834.741071	95.927	178.3732
3862.529185	95.981	178.7886
3890.518664	96.041	179.2233
3918.710966	96.109	179.6744
3947.107561	96.188	-179.8691
3975.709929	96.279	-179.4237
4004.519563	96.382	-179.0081
4033.537962	96.495	-178.6397
4062.766641	96.619	-178.3292
4092.207123	96.750	-178.0795
4121.860942	96.889	-177.8914
4151.729646	97.036	-177.7693
4181.814790	97.189	-177.7206
4212.117944	97.348	-177.7516
4242.640687	97.511	-177.8630
4273.384610	97.678	-178.0543
4304.351317	97.850	-178.3293
4335.542421	98.028	-178.6993
4366.959549	98.210	-179.1820
4398.604338	98.396	-179.7984
4430.478438	98.583	179.4315
4462.583511	98.768	178.4948
4494.921231	98.949	177.3857
4527.493283	99.122	176.1010
4560.301365	99.284	174.6375
4593.347189	99.433	172.9953
4626.632476	99.563	171.1820
4660.158962	99.671	169.2133
4693.928395	99.757	167.1083
4727.942535	99.817	164.8867
4762.203156	99.850	162.5674
4796.712043	99.855	160.1696
4831.470996	99.829	157.7151
4866.481826	99.771	155.2338
4901.746360	99.679	152.7610
4937.266434	99.552	150.3331
4973.043902	99.393	147.9849
5009.080628	99.200	145.7510
5045.378492	98.975	143.6677
5081.939384	98.722	141.7690
5118.765212	98.443	140.0822
5155.857894	98.143	138.6243
5193.219366	97.828	137.3998
5230.851574	97.500	136.4054
5268.756481	97.164	135.6350
5306.936062	96.822	135.0813
5345.392309	96.476	134.7345
5384.127225	96.128	134.5858
5423.142830	95.777	134.6338
5462.441159	95.423	134.8881
5502.024259	95.069	135.3665
5541.894195	94.719	136.0889
5582.053045	94.377	137.0701
5622.502902	94.051	138.3133
5663.245876	93.750	139.8051
5704.284090	93.484	141.5052
5745.619684	93.261	143.3376
5787.254813	93.085	145.1972
5829.191647	92.953	146.9703
5871.432373	92.856	148.5629
5913.979192	92.778	149.9289
5956.834323	92.705	151.0843
6000.000000	92.622	152.0967
6043.478473	92.525	153.0575
6087.272010	92.415	154.0500
6131.382892	92.295	155.1301
6175.813420	92.172	156.3232
6220.565910	92.051	157.6347
6265.642695	91.936	159.0616
6311.046124	91.831	160.5981
6356.778566	91.739	162.2358
6402.842404	91.663	163.9623
6449.240040	91.603	165.7641
6495.973891	91.563	167.6262
6543.046396	91.543	169.5318
6590.460007	91.542	171.4656
6638.217197	91.562	173.4181
6686.320456	91.602	175.3863
6734.772290	91.663	177.3696
6783.575226	91.745	179.3651
6832.731809	91.852	-178.6335
6882.244600	91.982	-176.6377
6932.116181	92.139	-174.6652
6982.349153	92.323	-172.7369
7032.946133	92.534	-170.8715
7083.909760	92.774	-169.0849
7135.242690	93.046	-167.3939
7186.947600	93.351	-165.8217
7239.027185	93.692	-164.4004
7291.484160	94.071	-163.1748
7344.321260	94.488	-162.2026
7397.541239	94.940	-161.5502
7451.146872	95.424	-161.2865
7505.140954	95.933	-161.4812
7559.526299	96.458	-162.2044
7614.305743	96.986	-163.5238
7669.482141	97.503	-165.4983
7725.058371	97.990	-168.1700
7781.037328	98.423	-171.5521
7837.421932	98.782	-175.6131
7894.215122	99.043	179.7325
7951.419859	99.189	174.6266
8009.039125	99.207	169.2613
8067.075924	99.093	163.8615
8125.533282	98.852	158.6579
8184.414245	98.492	153.8576
8243.721885	98.031	149.6232
8303.459292	97.487	146.0637
8363.629581	96.880	143.2354
8424.235888	96.232	141.1532
8485.281374	95.559	139.8007
8546.769221	94.882	139.1351
8608.702634	94.216	139.0936
8671.084842	93.572	139.6030
8733.919097	92.962	140.5897
8797.208675	92.391	141.9861
8860.956876	91.863	143.7346
8925.167022	91.384	145.7819
8989.842461	90.954	148.0752
9054.986566	90.576	150.5642
9120.602731	90.251	153.2067
9186.694378	89.976	155.9718
9253.264952	89.755	158.8395
9320.317925	89.586	161.7927
9387.856790	89.475	164.8073
9455.885071	89.424	167.8510
9524.406312	89.438	170.8866
9593.424086	89.521	173.8741
9662.941992	89.678	176.7694
9732.963653	89.916	179.5114
9803.492719	90.242	-177.9886
9874.532869	90.657	-175.8493
9946.087805	91.160	-174.2119
10018.161257	91.742	-173.2294
10090.756983	92.390	-173.0583
10163.878768	93.078	-173.8522
10237.530423	93.775	-175.7470
10311.715789	94.438	-178.8369
10386.438732	95.021	176.8538
10461.703149	95.474	171.3977
10537.512962	95.750	164.9835
10613.872125	95.813	157.9199
10690.784618	95.642	150.6149
10768.254450	95.233	143.5191
10846.285661	94.601	137.0504
10924.882318	93.776	131.5330
11004.048518	92.795	127.1721
11083.788390	91.698	124.0603
11164.106090	90.527	122.1974
11245.005805	89.320	121.5166
11326.491752	88.112	121.9079
11408.568180	86.931	123.2333
11491.239368	85.801	125.3381
11574.509626	84.737	128.0596
11658.383294	83.747	131.2444
11742.864745	82.832	134.7664
11827.958384	81.988	138.5350
11913.668646	81.209	142.4944
12000.000000	80.485	146.6181
12086.956947	79.810	150.9085
12174.544019	79.176	155.3919
12262.765784	78.583	160.1062
12351.626840	78.033	165.0744
12441.131819	77.531	170.2781
12531.285389	77.083	175.6549
12622.092249	76.692	-178.8750
12713.557132	76.354	-173.3790
12805.684808	76.066	-167.9014
12898.480079	75.824	-162.4592
12991.947783	75.622	-157.0463
13086.092792	75.460	-151.6459
13180.920015	75.336	-146.2452
13276.434395	75.251	-140.8397
13372.640911	75.205	-135.4274
13469.544580	75.200	-130.0058
13567.150452	75.238	-124.5771
13665.463617	75.322	-119.1510
13764.489200	75.456	-113.7402
13864.232362	75.645	-108.3564
13964.698305	75.894	-103.0160
14065.892266	76.212	-97.7493
14167.819519	76.607	-92.6019
14270.485380	77.087	-87.6357
14373.895200	77.661	-82.9389
14478.054370	78.334	-78.6341
14582.968320	79.105	-74.8743
14688.642520	79.968	-71.8323
14795.082478	80.905	-69.6890
14902.293745	81.890	-68.6158
15010.281908	82.890	-68.7485
15119.052599	83.862	-70.1667
15228.611486	84.762	-72.8802
15338.964283	85.543	-76.8156
15450.116741	86.163	-81.8034
15562.074656	86.585	-87.5716
15674.843864	86.787	-93.7606
15788.430244	86.766	-99.9652
15902.839718	86.542	-105.7999
16018.078250	86.152	-110.9649
16134.151848	85.648	-115.2907
16251.066563	85.090	-118.7583
16368.828491	84.534	-121.4949
16487.443769	84.028	-123.7519
16606.918584	83.599	-125.8593
16727.259161	83.245	-128.1558
16848.471777	82.938	-130.9099
16970.562748	82.629	-134.2619
17093.538442	82.261	-138.1955
17217.405268	81.778	-142.5420
17342.169684	81.142	-147.0161
17467.838194	80.333	-151.2761
17594.417350	79.349	-154.9843
17721.913751	78.203	-157.8523
17850.334044	76.922	-159.6693
17979.684923	75.535	-160.3127
18109.973131	74.075	-159.7522
18241.205462	72.575	-158.0500
18373.388756	71.062	-155.3418
18506.529905	69.555	-151.7768
18640.635849	68.064	-147.4176
18775.713581	66.588	-142.1263
18911.770141	65.131	-135.5039
19048.812624	63.712	-127.0044
19186.848172	62.377	-116.3120
19325.883983	61.191	-103.8241
19465.927305	60.216	-90.7710
19606.985439	59.485	-78.6888
19749.065738	58.999	-68.7921
19892.175609	58.720	-61.8283
20036.322514	58.598	-58.2324
