* Measurement data measured by REW V5.31
* Source: EXCL: Microphone (USB Sound Device        ), MICROPHONE (Master Volume), L, volume: 0.390
* Format: 256k Log Swept Sine, 1 sweep at -10.0 dBFS with no timing reference
* Dated: Nov 4, 2024 12:31:06 AM
* REW Settings:
*  C-weighting compensation: Off
*  Target level: 75.0 dB
* Note: NF Acous NE4 Pop L
* Measurement: L NF Acous NE4 Pop
* Smoothing: 1/12 octave
* Frequency Step: 96 ppo
* Start Frequency: 0.36621094 Hz
*
* Freq(Hz)	SPL(dB)	Phase(degrees)
0.366211	93.166	159.9295
0.368865	93.158	159.9097
0.371538	93.145	159.8800
0.374230	93.128	159.8426
0.376942	93.110	159.7993
0.379673	93.090	159.7516
0.382424	93.070	159.7005
0.385196	93.049	159.6463
0.387987	93.027	159.5895
0.390798	93.006	159.5302
0.393630	92.984	159.4685
0.396483	92.962	159.4044
0.399356	92.940	159.3379
0.402250	92.917	159.2691
0.405165	92.894	159.1978
0.408101	92.872	159.1242
0.411058	92.849	159.0480
0.414037	92.826	158.9694
0.417037	92.802	158.8883
0.420059	92.779	158.8047
0.423103	92.755	158.7185
0.426169	92.732	158.6297
0.429257	92.708	158.5384
0.432368	92.684	158.4444
0.435501	92.659	158.3477
0.438656	92.635	158.2484
0.441835	92.610	158.1464
0.445037	92.585	158.0416
0.448262	92.560	157.9342
0.451510	92.535	157.8239
0.454782	92.510	157.7109
0.458077	92.484	157.5950
0.461397	92.458	157.4763
0.464740	92.432	157.3548
0.468108	92.406	157.2304
0.471500	92.380	157.1031
0.474917	92.354	156.9728
0.478358	92.327	156.8397
0.481825	92.300	156.7036
0.485316	92.273	156.5645
0.488833	92.246	156.4225
0.492375	92.218	156.2775
0.495943	92.190	156.1294
0.499537	92.163	155.9784
0.503157	92.135	155.8243
0.506803	92.106	155.6672
0.510475	92.078	155.5071
0.514175	92.049	155.3439
0.517900	92.020	155.1776
0.521653	91.991	155.0083
0.525434	91.962	154.8360
0.529241	91.932	154.6606
0.533076	91.903	154.4821
0.536939	91.873	154.3006
0.540830	91.842	154.1161
0.544749	91.812	153.9285
0.548696	91.781	153.7380
0.552673	91.751	153.5444
0.556677	91.720	153.3479
0.560711	91.688	153.1484
0.564774	91.657	152.9460
0.568867	91.625	152.7407
0.572989	91.593	152.5326
0.577141	91.561	152.3216
0.581324	91.528	152.1079
0.585536	91.496	151.8914
0.589779	91.463	151.6722
0.594053	91.430	151.4504
0.598358	91.396	151.2261
0.602694	91.363	150.9992
0.607061	91.329	150.7700
0.611460	91.295	150.5383
0.615891	91.260	150.3044
0.620354	91.226	150.0684
0.624849	91.191	149.8303
0.629377	91.156	149.5902
0.633938	91.120	149.3483
0.638532	91.085	149.1046
0.643159	91.049	148.8593
0.647819	91.013	148.6126
0.652514	90.976	148.3646
0.657242	90.940	148.1154
0.662005	90.903	147.8652
0.666802	90.866	147.6143
0.671634	90.828	147.3627
0.676501	90.790	147.1108
0.681403	90.752	146.8586
0.686341	90.714	146.6065
0.691314	90.675	146.3547
0.696324	90.636	146.1034
0.701370	90.596	145.8527
0.706452	90.556	145.6030
0.711571	90.514	145.3542
0.716728	90.471	145.1064
0.721921	90.425	144.8593
0.727153	90.375	144.6123
0.732422	90.319	144.3645
0.737729	90.258	144.1148
0.743075	90.192	143.8619
0.748460	90.120	143.6046
0.753883	90.043	143.3422
0.759346	89.963	143.0738
0.764849	89.879	142.7991
0.770391	89.792	142.5178
0.775974	89.703	142.2294
0.781597	89.611	141.9339
0.787261	89.516	141.6309
0.792966	89.419	141.3204
0.798712	89.319	141.0021
0.804500	89.217	140.6759
0.810329	89.113	140.3415
0.816201	89.006	139.9988
0.822116	88.897	139.6477
0.828073	88.786	139.2878
0.834074	88.672	138.9191
0.840118	88.557	138.5412
0.846206	88.439	138.1541
0.852338	88.318	137.7575
0.858514	88.196	137.3512
0.864735	88.072	136.9351
0.871001	87.946	136.5088
0.877313	87.818	136.0722
0.883670	87.688	135.6251
0.890074	87.556	135.1673
0.896524	87.423	134.6985
0.903020	87.288	134.2186
0.909564	87.151	133.7273
0.916155	87.013	133.2246
0.922794	86.874	132.7101
0.929481	86.733	132.1837
0.936216	86.591	131.6452
0.943000	86.448	131.0945
0.949834	86.304	130.5314
0.956717	86.159	129.9557
0.963649	86.013	129.3674
0.970632	85.866	128.7663
0.977666	85.719	128.1524
0.984750	85.572	127.5255
0.991886	85.424	126.8858
0.999074	85.276	126.2331
1.006314	85.128	125.5675
1.013606	84.980	124.8891
1.020951	84.833	124.1981
1.028349	84.686	123.4946
1.035801	84.540	122.7788
1.043307	84.394	122.0509
1.050867	84.249	121.3114
1.058482	84.105	120.5603
1.066152	83.963	119.7979
1.073878	83.821	119.0242
1.081660	83.680	118.2386
1.089498	83.540	117.4400
1.097393	83.399	116.6263
1.105345	83.256	115.7944
1.113355	83.111	114.9401
1.121423	82.963	114.0587
1.129549	82.810	113.1451
1.137734	82.653	112.1936
1.145979	82.491	111.1982
1.154283	82.325	110.1522
1.162647	82.155	109.0478
1.171072	81.981	107.8760
1.179558	81.804	106.6263
1.188106	81.623	105.2863
1.196715	81.440	103.8410
1.205387	81.256	102.2727
1.214122	81.069	100.5596
1.222920	80.882	98.6753
1.231782	80.694	96.5878
1.240708	80.507	94.2573
1.249699	80.321	91.6350
1.258754	80.136	88.6609
1.267876	79.954	85.2617
1.277063	79.774	81.3490
1.286318	79.598	76.8200
1.295639	79.427	71.5615
1.305027	79.262	65.4636
1.314484	79.102	58.4465
1.324009	78.950	50.5058
1.333604	78.806	41.7649
1.343268	78.672	32.5073
1.353002	78.548	23.1470
1.362806	78.435	14.1268
1.372681	78.334	5.7995
1.382628	78.248	-1.6381
1.392647	78.176	-8.1374
1.402739	78.121	-13.7501
1.412904	78.084	-18.5777
1.423142	78.065	-22.7355
1.433455	78.068	-26.3344
1.443843	78.094	-29.4728
1.454305	78.144	-32.2347
1.464844	78.219	-34.6906
1.475459	78.323	-36.8983
1.486150	78.454	-38.9038
1.496920	78.615	-40.7428
1.507767	78.804	-42.4423
1.518693	79.022	-44.0233
1.529698	79.266	-45.5019
1.540783	79.536	-46.8913
1.551948	79.830	-48.2019
1.563194	80.147	-49.4427
1.574521	80.484	-50.6211
1.585931	80.841	-51.7435
1.597423	81.214	-52.8153
1.608999	81.602	-53.8414
1.620658	82.004	-54.8259
1.632402	82.416	-55.7725
1.644232	82.837	-56.6843
1.656146	83.265	-57.5643
1.668147	83.696	-58.4151
1.680235	84.130	-59.2388
1.692411	84.562	-60.0376
1.704675	84.991	-60.8133
1.717028	85.415	-61.5677
1.729470	85.830	-62.3023
1.742003	86.234	-63.0186
1.754626	86.624	-63.7180
1.767341	86.999	-64.4021
1.780147	87.357	-65.0725
1.793047	87.694	-65.7309
1.806040	88.012	-66.3797
1.819128	88.309	-67.0214
1.832310	88.587	-67.6592
1.845587	88.847	-68.2959
1.858961	89.092	-68.9343
1.872432	89.323	-69.5759
1.886001	89.541	-70.2213
1.899667	89.749	-70.8705
1.913433	89.946	-71.5227
1.927299	90.133	-72.1771
1.941265	90.311	-72.8326
1.955332	90.481	-73.4881
1.969501	90.643	-74.1423
1.983773	90.798	-74.7941
1.998148	90.946	-75.4425
2.012627	91.088	-76.0863
2.027212	91.224	-76.7247
2.041902	91.356	-77.3565
2.056698	91.484	-77.9810
2.071602	91.609	-78.5972
2.086614	91.731	-79.2045
2.101734	91.851	-79.8021
2.116964	91.971	-80.3896
2.132304	92.090	-80.9667
2.147756	92.209	-81.5335
2.163320	92.329	-82.0908
2.178996	92.450	-82.6399
2.194786	92.570	-83.1830
2.210690	92.689	-83.7225
2.226710	92.807	-84.2613
2.242845	92.922	-84.8013
2.259098	93.034	-85.3437
2.275468	93.142	-85.8889
2.291957	93.247	-86.4368
2.308566	93.349	-86.9867
2.325295	93.446	-87.5379
2.342145	93.541	-88.0892
2.359117	93.632	-88.6397
2.376212	93.721	-89.1881
2.393431	93.806	-89.7333
2.410775	93.890	-90.2741
2.428244	93.971	-90.8092
2.445840	94.050	-91.3374
2.463564	94.128	-91.8577
2.481416	94.204	-92.3691
2.499397	94.279	-92.8708
2.517509	94.353	-93.3623
2.535752	94.426	-93.8440
2.554127	94.498	-94.3165
2.572635	94.568	-94.7813
2.591277	94.637	-95.2403
2.610055	94.703	-95.6951
2.628968	94.767	-96.1470
2.648019	94.829	-96.5967
2.667208	94.888	-97.0444
2.686535	94.945	-97.4899
2.706003	94.999	-97.9328
2.725612	95.052	-98.3727
2.745363	95.102	-98.8087
2.765257	95.151	-99.2400
2.785295	95.199	-99.6659
2.805478	95.245	-100.0853
2.825808	95.290	-100.4974
2.846285	95.334	-100.9013
2.866910	95.378	-101.2963
2.887685	95.420	-101.6817
2.908611	95.462	-102.0573
2.929688	95.503	-102.4233
2.950917	95.543	-102.7801
2.972301	95.582	-103.1285
2.993839	95.620	-103.4692
3.015534	95.656	-103.8028
3.037386	95.690	-104.1297
3.059396	95.724	-104.4501
3.081565	95.756	-104.7642
3.103896	95.787	-105.0721
3.126388	95.817	-105.3737
3.149043	95.846	-105.6689
3.171862	95.876	-105.9575
3.194847	95.905	-106.2394
3.217998	95.933	-106.5143
3.241317	95.962	-106.7817
3.264805	95.991	-107.0414
3.288463	96.021	-107.2927
3.312293	96.050	-107.5354
3.336295	96.079	-107.7692
3.360471	96.108	-107.9941
3.384822	96.137	-108.2105
3.409350	96.166	-108.4190
3.434056	96.195	-108.6205
3.458940	96.223	-108.8159
3.484005	96.252	-109.0063
3.509252	96.281	-109.1928
3.534681	96.310	-109.3762
3.560295	96.339	-109.5577
3.586094	96.369	-109.7378
3.612081	96.399	-109.9173
3.638255	96.430	-110.0961
3.664620	96.462	-110.2741
3.691175	96.495	-110.4507
3.717923	96.528	-110.6256
3.744864	96.562	-110.7984
3.772001	96.597	-110.9695
3.799335	96.632	-111.1393
3.826866	96.667	-111.3087
3.854597	96.703	-111.4787
3.882529	96.739	-111.6503
3.910664	96.776	-111.8247
3.939002	96.813	-112.0029
3.967546	96.850	-112.1856
3.996296	96.887	-112.3736
4.025255	96.924	-112.5671
4.054423	96.962	-112.7660
4.083804	97.000	-112.9701
4.113396	97.039	-113.1792
4.143204	97.078	-113.3930
4.173227	97.117	-113.6115
4.203468	97.155	-113.8349
4.233928	97.194	-114.0633
4.264609	97.233	-114.2971
4.295512	97.271	-114.5367
4.326639	97.308	-114.7823
4.357992	97.345	-115.0344
4.389572	97.382	-115.2934
4.421380	97.417	-115.5597
4.453419	97.452	-115.8332
4.485691	97.487	-116.1138
4.518196	97.520	-116.4010
4.550936	97.553	-116.6940
4.583914	97.585	-116.9922
4.617131	97.616	-117.2946
4.650589	97.646	-117.6005
4.684289	97.676	-117.9093
4.718233	97.704	-118.2207
4.752424	97.730	-118.5346
4.786862	97.756	-118.8513
4.821549	97.780	-119.1711
4.856488	97.803	-119.4938
4.891680	97.825	-119.8191
4.927127	97.846	-120.1462
4.962831	97.865	-120.4742
4.998794	97.884	-120.8018
5.035017	97.901	-121.1280
5.071503	97.918	-121.4519
5.108253	97.933	-121.7730
5.145270	97.948	-122.0909
5.182555	97.961	-122.4059
5.220110	97.973	-122.7179
5.257937	97.985	-123.0270
5.296038	97.996	-123.3330
5.334415	98.006	-123.6354
5.373071	98.015	-123.9337
5.412006	98.025	-124.2273
5.451224	98.034	-124.5157
5.490725	98.043	-124.7984
5.530514	98.052	-125.0751
5.570590	98.061	-125.3461
5.610957	98.069	-125.6115
5.651616	98.078	-125.8718
5.692570	98.088	-126.1275
5.733821	98.097	-126.3792
5.775370	98.107	-126.6273
5.817221	98.118	-126.8720
5.859375	98.130	-127.1134
5.901834	98.142	-127.3516
5.944602	98.156	-127.5867
5.987679	98.170	-127.8193
6.031068	98.185	-128.0500
6.074771	98.201	-128.2801
6.118792	98.218	-128.5105
6.163131	98.236	-128.7423
6.207792	98.255	-128.9762
6.252776	98.275	-129.2126
6.298086	98.296	-129.4516
6.343725	98.318	-129.6935
6.389694	98.341	-129.9387
6.435996	98.365	-130.1877
6.482634	98.389	-130.4411
6.529610	98.414	-130.6997
6.576926	98.439	-130.9638
6.624585	98.465	-131.2338
6.672590	98.491	-131.5096
6.720942	98.517	-131.7912
6.769645	98.544	-132.0780
6.818700	98.570	-132.3699
6.868111	98.597	-132.6663
6.917881	98.623	-132.9671
6.968010	98.649	-133.2721
7.018504	98.674	-133.5811
7.069362	98.699	-133.8936
7.120590	98.724	-134.2089
7.172189	98.748	-134.5260
7.224161	98.771	-134.8440
7.276511	98.794	-135.1619
7.329239	98.816	-135.4790
7.382350	98.838	-135.7949
7.435845	98.859	-136.1089
7.489729	98.879	-136.4206
7.544002	98.900	-136.7291
7.598669	98.919	-137.0336
7.653732	98.939	-137.3333
7.709194	98.958	-137.6275
7.765058	98.977	-137.9160
7.821327	98.996	-138.1986
7.878004	99.015	-138.4751
7.935091	99.034	-138.7456
7.992592	99.053	-139.0098
8.050510	99.073	-139.2678
8.108847	99.093	-139.5196
8.167607	99.113	-139.7653
8.226793	99.135	-140.0054
8.286408	99.156	-140.2405
8.346454	99.179	-140.4712
8.406936	99.202	-140.6981
8.467856	99.226	-140.9215
8.529218	99.251	-141.1420
8.591024	99.277	-141.3601
8.653278	99.303	-141.5764
8.715983	99.329	-141.7917
8.779143	99.357	-142.0064
8.842760	99.384	-142.2210
8.906839	99.412	-142.4358
8.971381	99.441	-142.6509
9.036392	99.469	-142.8665
9.101873	99.497	-143.0825
9.167829	99.526	-143.2992
9.234263	99.554	-143.5163
9.301178	99.581	-143.7337
9.368578	99.608	-143.9508
9.436467	99.635	-144.1673
9.504847	99.661	-144.3825
9.573723	99.686	-144.5960
9.643099	99.709	-144.8073
9.712976	99.732	-145.0159
9.783361	99.751	-145.2211
9.854255	99.769	-145.4222
9.925663	99.783	-145.6188
9.997588	99.795	-145.8103
10.070035	99.804	-145.9966
10.143007	99.810	-146.1772
10.216507	99.814	-146.3520
10.290540	99.817	-146.5209
10.365109	99.817	-146.6838
10.440219	99.817	-146.8410
10.515873	99.816	-146.9928
10.592076	99.815	-147.1395
10.668830	99.813	-147.2817
10.746141	99.812	-147.4199
10.824012	99.810	-147.5546
10.902447	99.809	-147.6868
10.981451	99.807	-147.8171
11.061027	99.806	-147.9464
11.141180	99.805	-148.0752
11.221913	99.804	-148.2045
11.303232	99.802	-148.3349
11.385140	99.801	-148.4671
11.467641	99.800	-148.6017
11.550741	99.799	-148.7391
11.634442	99.797	-148.8797
11.718750	99.796	-149.0239
11.803669	99.794	-149.1719
11.889203	99.792	-149.3238
11.975357	99.790	-149.4795
12.062136	99.787	-149.6390
12.149543	99.784	-149.8020
12.237583	99.781	-149.9685
12.326262	99.777	-150.1380
12.415583	99.772	-150.3102
12.505552	99.766	-150.4847
12.596172	99.759	-150.6612
12.687449	99.751	-150.8391
12.779387	99.742	-151.0182
12.871992	99.733	-151.1981
12.965268	99.722	-151.3785
13.059220	99.712	-151.5592
13.153852	99.701	-151.7401
13.249170	99.689	-151.9210
13.345179	99.678	-152.1021
13.441884	99.667	-152.2834
13.539289	99.656	-152.4652
13.637401	99.645	-152.6479
13.736223	99.635	-152.8317
13.835761	99.625	-153.0172
13.936021	99.615	-153.2049
14.037007	99.605	-153.3953
14.138725	99.596	-153.5888
14.241180	99.587	-153.7860
14.344377	99.579	-153.9872
14.448323	99.570	-154.1928
14.553021	99.562	-154.4030
14.658478	99.554	-154.6178
14.764700	99.546	-154.8371
14.871691	99.539	-155.0608
14.979457	99.532	-155.2886
15.088005	99.525	-155.5199
15.197339	99.518	-155.7543
15.307465	99.512	-155.9911
15.418389	99.506	-156.2296
15.530117	99.500	-156.4693
15.642655	99.494	-156.7095
15.756008	99.488	-156.9497
15.870182	99.483	-157.1894
15.985184	99.478	-157.4282
16.101019	99.474	-157.6660
16.217694	99.470	-157.9024
16.335214	99.467	-158.1376
16.453586	99.465	-158.3715
16.572815	99.464	-158.6043
16.692909	99.463	-158.8359
16.813872	99.463	-159.0665
16.935713	99.465	-159.2962
17.058436	99.467	-159.5248
17.182048	99.470	-159.7523
17.306556	99.473	-159.9784
17.431967	99.477	-160.2029
17.558286	99.481	-160.4255
17.685521	99.485	-160.6457
17.813677	99.489	-160.8631
17.942762	99.493	-161.0774
18.072783	99.498	-161.2882
18.203746	99.502	-161.4953
18.335658	99.506	-161.6984
18.468526	99.510	-161.8975
18.602356	99.515	-162.0926
18.737156	99.519	-162.2837
18.872934	99.524	-162.4710
19.009695	99.528	-162.6548
19.147447	99.533	-162.8352
19.286197	99.538	-163.0126
19.425953	99.542	-163.1873
19.566721	99.546	-163.3595
19.708510	99.550	-163.5294
19.851326	99.554	-163.6974
19.995177	99.556	-163.8637
20.140070	99.559	-164.0286
20.286013	99.561	-164.1923
20.433014	99.562	-164.3552
20.581080	99.563	-164.5174
20.730219	99.563	-164.6794
20.880439	99.563	-164.8413
21.031747	99.563	-165.0036
21.184152	99.562	-165.1665
21.337661	99.561	-165.3302
21.492282	99.560	-165.4953
21.648024	99.559	-165.6619
21.804895	99.557	-165.8304
21.962902	99.556	-166.0011
22.122054	99.554	-166.1744
22.282360	99.552	-166.3505
22.443827	99.550	-166.5298
22.606464	99.547	-166.7125
22.770280	99.545	-166.8988
22.935283	99.543	-167.0887
23.101481	99.540	-167.2823
23.268884	99.538	-167.4793
23.437500	99.535	-167.6796
23.607338	99.533	-167.8829
23.778406	99.530	-168.0889
23.950714	99.528	-168.2972
24.124271	99.525	-168.5073
24.299086	99.523	-168.7190
24.475167	99.521	-168.9319
24.652524	99.520	-169.1456
24.831166	99.519	-169.3601
25.011103	99.519	-169.5750
25.192344	99.519	-169.7901
25.374898	99.520	-170.0053
25.558775	99.521	-170.2205
25.743984	99.523	-170.4355
25.930536	99.525	-170.6501
26.118439	99.528	-170.8643
26.307704	99.530	-171.0778
26.498341	99.533	-171.2902
26.690359	99.537	-171.5014
26.883768	99.540	-171.7106
27.078579	99.543	-171.9175
27.274801	99.545	-172.1215
27.472446	99.548	-172.3219
27.671522	99.550	-172.5186
27.872042	99.552	-172.7113
28.074014	99.554	-172.9003
28.277450	99.555	-173.0860
28.482360	99.557	-173.2693
28.688755	99.558	-173.4512
28.896645	99.559	-173.6329
29.106042	99.560	-173.8152
29.316957	99.561	-173.9991
29.529400	99.561	-174.1848
29.743382	99.561	-174.3726
29.958915	99.560	-174.5621
30.176009	99.559	-174.7528
30.394677	99.557	-174.9444
30.614929	99.554	-175.1365
30.836778	99.552	-175.3290
31.060234	99.549	-175.5222
31.285309	99.546	-175.7164
31.512015	99.543	-175.9124
31.740364	99.540	-176.1108
31.970368	99.538	-176.3122
32.202039	99.536	-176.5169
32.435388	99.534	-176.7251
32.670428	99.532	-176.9365
32.907171	99.530	-177.1508
33.145630	99.528	-177.3674
33.385817	99.527	-177.5857
33.627745	99.525	-177.8053
33.871425	99.524	-178.0255
34.116871	99.523	-178.2460
34.364096	99.522	-178.4663
34.613113	99.522	-178.6862
34.863934	99.521	-178.9055
35.116572	99.521	-179.1238
35.371041	99.521	-179.3410
35.627354	99.520	-179.5569
35.885525	99.520	-179.7714
36.145566	99.519	-179.9844
36.407492	99.519	179.8043
36.671316	99.518	179.5945
36.937051	99.517	179.3864
37.204712	99.516	179.1798
37.474313	99.514	178.9744
37.745867	99.512	178.7699
38.019389	99.511	178.5660
38.294893	99.509	178.3622
38.572394	99.506	178.1584
38.851905	99.504	177.9540
39.133442	99.502	177.7490
39.417019	99.499	177.5429
39.702651	99.497	177.3358
39.990353	99.494	177.1276
40.280140	99.491	176.9184
40.572026	99.489	176.7081
40.866028	99.486	176.4967
41.162160	99.484	176.2841
41.460438	99.481	176.0703
41.760877	99.479	175.8552
42.063494	99.477	175.6390
42.368303	99.474	175.4227
42.675322	99.471	175.2073
42.984565	99.468	174.9941
43.296048	99.464	174.7839
43.609789	99.461	174.5771
43.925804	99.458	174.3730
44.244108	99.455	174.1698
44.564719	99.453	173.9657
44.887654	99.451	173.7593
45.212928	99.448	173.5498
45.540560	99.445	173.3375
45.870565	99.442	173.1236
46.202962	99.438	172.9091
46.537768	99.433	172.6949
46.875000	99.428	172.4814
47.214676	99.424	172.2683
47.556813	99.419	172.0552
47.901429	99.414	171.8417
48.248542	99.409	171.6280
48.598171	99.405	171.4139
48.950334	99.401	171.1991
49.305048	99.397	170.9832
49.662333	99.393	170.7654
50.022206	99.390	170.5455
50.384688	99.386	170.3232
50.749796	99.382	170.0993
51.117550	99.379	169.8746
51.487969	99.375	169.6501
51.861072	99.370	169.4265
52.236879	99.366	169.2045
52.615409	99.361	168.9841
52.996681	99.357	168.7652
53.380717	99.353	168.5472
53.767536	99.349	168.3293
54.157158	99.345	168.1108
54.549603	99.342	167.8905
54.944892	99.339	167.6679
55.343045	99.336	167.4426
55.744084	99.333	167.2142
56.148028	99.330	166.9825
56.554900	99.327	166.7473
56.964720	99.325	166.5079
57.377510	99.322	166.2645
57.793291	99.319	166.0175
58.212085	99.316	165.7674
58.633914	99.312	165.5154
59.058799	99.307	165.2625
59.486764	99.302	165.0096
59.917829	99.297	164.7575
60.352019	99.291	164.5070
60.789354	99.284	164.2587
61.229859	99.277	164.0126
61.673556	99.270	163.7682
62.120468	99.262	163.5247
62.570618	99.254	163.2813
63.024031	99.247	163.0375
63.480729	99.239	162.7929
63.940736	99.231	162.5467
64.404077	99.223	162.2979
64.870776	99.215	162.0457
65.340856	99.207	161.7904
65.814343	99.198	161.5337
66.291261	99.188	161.2776
66.771635	99.179	161.0237
67.255489	99.169	160.7722
67.742850	99.159	160.5220
68.233743	99.149	160.2721
68.728193	99.140	160.0214
69.226226	99.131	159.7695
69.727867	99.121	159.5164
70.233144	99.111	159.2622
70.742083	99.102	159.0071
71.254709	99.092	158.7513
71.771050	99.082	158.4944
72.291132	99.072	158.2365
72.814984	99.063	157.9775
73.342631	99.053	157.7176
73.874102	99.043	157.4570
74.409424	99.033	157.1960
74.948626	99.023	156.9342
75.491734	99.014	156.6716
76.038779	99.004	156.4080
76.589787	98.995	156.1431
77.144788	98.986	155.8765
77.703811	98.976	155.6071
78.266885	98.967	155.3340
78.834039	98.958	155.0559
79.405303	98.949	154.7720
79.980706	98.940	154.4812
80.560280	98.930	154.1826
81.144053	98.920	153.8757
81.732056	98.908	153.5610
82.324320	98.895	153.2398
82.920876	98.881	152.9145
83.521755	98.865	152.5876
84.126988	98.848	152.2623
84.736607	98.829	151.9409
85.350643	98.809	151.6255
85.969129	98.789	151.3169
86.592097	98.769	151.0153
87.219579	98.748	150.7203
87.851608	98.727	150.4314
88.488217	98.707	150.1476
89.129439	98.686	149.8680
89.775308	98.666	149.5910
90.425856	98.646	149.3153
91.081119	98.627	149.0397
91.741131	98.608	148.7633
92.405925	98.588	148.4857
93.075536	98.569	148.2067
93.750000	98.550	147.9264
94.429351	98.530	147.6453
95.113625	98.511	147.3633
95.802858	98.491	147.0807
96.497085	98.471	146.7977
97.196342	98.451	146.5148
97.900667	98.431	146.2330
98.610096	98.410	145.9532
99.324665	98.388	145.6761
100.044413	98.367	145.4023
100.769376	98.345	145.1318
101.499592	98.323	144.8640
102.235100	98.301	144.5979
102.975938	98.279	144.3323
103.722144	98.257	144.0656
104.473757	98.235	143.7966
105.230817	98.214	143.5242
105.993363	98.193	143.2477
106.761435	98.171	142.9667
107.535072	98.149	142.6808
108.314315	98.127	142.3894
109.099206	98.105	142.0918
109.889783	98.083	141.7876
110.686090	98.059	141.4768
111.488167	98.034	141.1609
112.296056	98.008	140.8419
113.109800	97.981	140.5229
113.929440	97.951	140.2078
114.755020	97.918	139.9011
115.586582	97.884	139.6078
116.424170	97.848	139.3323
117.267827	97.812	139.0765
118.117598	97.776	138.8384
118.973527	97.741	138.6120
119.835658	97.710	138.3877
120.704037	97.680	138.1564
121.578708	97.652	137.9134
122.459718	97.625	137.6588
123.347111	97.599	137.3955
124.240935	97.573	137.1266
125.141236	97.547	136.8537
126.048061	97.523	136.5773
126.961458	97.498	136.2972
127.881473	97.473	136.0140
128.808154	97.448	135.7285
129.741551	97.422	135.4411
130.681712	97.396	135.1512
131.628686	97.370	134.8572
132.582521	97.343	134.5567
133.543269	97.315	134.2493
134.510979	97.286	133.9363
135.485701	97.254	133.6203
136.467486	97.222	133.3030
137.456386	97.187	132.9860
138.452451	97.152	132.6705
139.455735	97.114	132.3575
140.466288	97.076	132.0478
141.484165	97.037	131.7410
142.509418	96.997	131.4369
143.542100	96.957	131.1354
144.582265	96.917	130.8369
145.629968	96.876	130.5417
146.685262	96.837	130.2496
147.748204	96.797	129.9603
148.818849	96.758	129.6739
149.897251	96.718	129.3906
150.983469	96.678	129.1107
152.077557	96.637	128.8344
153.179574	96.596	128.5604
154.289576	96.555	128.2864
155.407622	96.514	128.0090
156.533770	96.473	127.7249
157.668078	96.432	127.4313
158.810606	96.391	127.1265
159.961413	96.349	126.8109
161.120559	96.306	126.4865
162.288105	96.260	126.1562
163.464112	96.212	125.8226
164.648640	96.162	125.4883
165.841752	96.110	125.1561
167.043510	96.055	124.8290
168.253976	95.998	124.5107
169.473213	95.940	124.2036
170.701286	95.882	123.9084
171.938258	95.823	123.6236
173.184194	95.764	123.3459
174.439158	95.706	123.0717
175.703216	95.648	122.7988
176.976434	95.591	122.5257
178.258878	95.534	122.2520
179.550615	95.476	121.9777
180.851713	95.419	121.7032
182.162239	95.360	121.4291
183.482262	95.302	121.1559
184.811850	95.242	120.8835
186.151073	95.181	120.6122
187.500000	95.120	120.3422
188.858702	95.058	120.0738
190.227250	94.995	119.8072
191.605715	94.931	119.5427
192.994169	94.868	119.2805
194.392685	94.803	119.0217
195.801334	94.738	118.7676
197.220191	94.672	118.5199
198.649330	94.605	118.2807
200.088825	94.537	118.0518
201.538751	94.469	117.8337
202.999184	94.400	117.6240
204.470200	94.331	117.4174
205.951875	94.263	117.2093
207.444287	94.194	116.9965
208.947514	94.125	116.7788
210.461634	94.055	116.5584
211.986726	93.982	116.3390
213.522869	93.906	116.1251
215.070144	93.829	115.9217
216.628631	93.749	115.7329
218.198411	93.668	115.5607
219.779567	93.588	115.4031
221.372180	93.508	115.2550
222.976334	93.429	115.1105
224.592112	93.351	114.9655
226.219600	93.272	114.8192
227.858880	93.194	114.6727
229.510039	93.115	114.5277
231.173164	93.035	114.3855
232.848340	92.955	114.2463
234.535655	92.875	114.1095
236.235197	92.795	113.9740
237.947054	92.715	113.8388
239.671317	92.633	113.7032
241.408074	92.551	113.5673
243.157416	92.467	113.4327
244.919435	92.381	113.3020
246.694223	92.293	113.1787
248.481871	92.203	113.0668
250.282473	92.113	112.9696
252.096123	92.022	112.8891
253.922915	91.931	112.8242
255.762945	91.842	112.7692
257.616309	91.755	112.7148
259.483103	91.670	112.6519
261.363424	91.584	112.5754
263.257372	91.497	112.4873
265.165043	91.407	112.3944
267.086538	91.315	112.3057
269.021957	91.219	112.2291
270.971401	91.122	112.1695
272.934972	91.024	112.1279
274.912771	90.925	112.1027
276.904902	90.827	112.0914
278.911469	90.728	112.0923
280.932577	90.630	112.1041
282.968330	90.534	112.1238
285.018835	90.438	112.1462
287.084199	90.343	112.1645
289.164530	90.247	112.1729
291.259935	90.151	112.1700
293.370525	90.052	112.1607
295.496408	89.949	112.1537
297.637697	89.843	112.1585
299.794503	89.734	112.1818
301.966937	89.623	112.2269
304.155114	89.511	112.2935
306.359147	89.397	112.3791
308.579152	89.283	112.4793
310.815244	89.169	112.5904
313.067539	89.053	112.7104
315.336156	88.937	112.8412
317.621211	88.819	112.9870
319.922826	88.700	113.1533
322.241118	88.581	113.3432
324.576210	88.461	113.5568
326.928223	88.342	113.7919
329.297280	88.224	114.0455
331.683504	88.106	114.3142
334.087019	87.989	114.5952
336.507952	87.871	114.8865
338.946427	87.753	115.1876
341.402572	87.635	115.5000
343.876516	87.516	115.8261
346.368387	87.395	116.1685
348.878315	87.275	116.5287
351.406431	87.154	116.9079
353.952867	87.034	117.3062
356.517756	86.913	117.7235
359.101230	86.793	118.1595
361.703426	86.673	118.6143
364.324478	86.554	119.0878
366.964523	86.434	119.5801
369.623699	86.316	120.0918
372.302145	86.198	120.6237
375.000000	86.081	121.1771
377.717405	85.965	121.7531
380.454501	85.850	122.3519
383.211431	85.737	122.9735
385.988339	85.625	123.6175
388.785369	85.515	124.2833
391.602668	85.406	124.9701
394.440383	85.299	125.6765
397.298660	85.195	126.4015
400.177650	85.093	127.1444
403.077502	84.993	127.9047
405.998368	84.896	128.6816
408.940400	84.801	129.4750
411.903750	84.707	130.2864
414.888575	84.616	131.1187
417.895028	84.526	131.9749
420.923268	84.439	132.8569
423.973452	84.356	133.7648
427.045738	84.277	134.6967
430.140287	84.202	135.6483
433.257261	84.133	136.6138
436.396822	84.069	137.5891
439.559133	84.009	138.5723
442.744360	83.955	139.5624
445.952668	83.905	140.5566
449.184225	83.861	141.5493
452.439199	83.821	142.5331
455.717760	83.785	143.5028
459.020079	83.751	144.4600
462.346327	83.718	145.4139
465.696680	83.687	146.3757
469.071310	83.657	147.3522
472.470394	83.631	148.3445
475.894109	83.608	149.3487
479.342634	83.591	150.3575
482.816148	83.577	151.3629
486.314833	83.567	152.3616
489.838871	83.561	153.3573
493.388445	83.557	154.3574
496.963741	83.557	155.3651
500.564945	83.563	156.3759
504.192245	83.574	157.3804
507.845830	83.590	158.3705
511.525890	83.610	159.3420
515.232618	83.633	160.2956
518.966206	83.659	161.2344
522.726849	83.687	162.1631
526.514743	83.718	163.0857
530.330086	83.752	164.0035
534.173076	83.790	164.9132
538.043915	83.832	165.8092
541.942803	83.876	166.6882
545.869944	83.924	167.5507
549.825542	83.974	168.3974
553.809805	84.027	169.2262
557.822939	84.082	170.0334
561.865154	84.140	170.8165
565.936660	84.198	171.5762
570.037671	84.258	172.3160
574.168399	84.318	173.0403
578.329060	84.380	173.7511
582.519870	84.442	174.4483
586.741049	84.505	175.1317
590.992817	84.569	175.8041
595.275394	84.633	176.4693
599.589005	84.699	177.1276
603.933874	84.766	177.7754
608.310228	84.835	178.4080
612.718295	84.904	179.0229
617.158304	84.974	179.6217
621.630488	85.043	-179.7899
626.135079	85.112	-179.2048
630.672311	85.183	-178.6196
635.242423	85.255	-178.0376
639.845651	85.330	-177.4646
644.482237	85.407	-176.9028
649.152421	85.486	-176.3509
653.856447	85.567	-175.8101
658.594560	85.652	-175.2876
663.367008	85.738	-174.7938
668.174039	85.826	-174.3367
673.015903	85.912	-173.9151
677.892854	85.995	-173.5203
682.805145	86.076	-173.1417
687.753032	86.155	-172.7711
692.736774	86.231	-172.4023
697.756631	86.306	-172.0305
702.812863	86.380	-171.6543
707.905735	86.455	-171.2763
713.035511	86.530	-170.9017
718.202461	86.606	-170.5344
723.406852	86.681	-170.1756
728.648956	86.757	-169.8241
733.929047	86.832	-169.4780
739.247399	86.907	-169.1363
744.604290	86.983	-168.7980
750.000000	87.058	-168.4623
755.434809	87.134	-168.1288
760.909001	87.210	-167.7973
766.422861	87.287	-167.4681
771.976677	87.364	-167.1415
777.570739	87.442	-166.8182
783.205337	87.520	-166.4985
788.880766	87.599	-166.1812
794.597321	87.678	-165.8636
800.355301	87.759	-165.5436
806.155005	87.842	-165.2225
811.996736	87.928	-164.9064
817.880799	88.017	-164.6045
823.807501	88.108	-164.3264
829.777150	88.201	-164.0798
835.790057	88.294	-163.8660
841.846536	88.384	-163.6775
847.946903	88.471	-163.5033
854.091476	88.557	-163.3350
860.280575	88.641	-163.1685
866.514523	88.723	-163.0008
872.793644	88.805	-162.8290
879.118267	88.888	-162.6535
885.488720	88.971	-162.4789
891.905336	89.054	-162.3095
898.368450	89.138	-162.1456
904.878398	89.223	-161.9852
911.435520	89.309	-161.8266
918.040157	89.395	-161.6714
924.692655	89.484	-161.5224
931.393359	89.573	-161.3836
938.142619	89.664	-161.2585
944.940787	89.756	-161.1487
951.788218	89.848	-161.0531
958.685268	89.939	-160.9690
965.632296	90.031	-160.8937
972.629666	90.122	-160.8250
979.677741	90.214	-160.7622
986.776890	90.306	-160.7061
993.927482	90.398	-160.6556
1001.129891	90.491	-160.6074
1008.384491	90.584	-160.5582
1015.691660	90.679	-160.5094
1023.051781	90.777	-160.4659
1030.465236	90.878	-160.4349
1037.932411	90.983	-160.4275
1045.453698	91.089	-160.4552
1053.029486	91.196	-160.5230
1060.660172	91.301	-160.6270
1068.346153	91.403	-160.7585
1076.087829	91.503	-160.9083
1083.885605	91.600	-161.0701
1091.739887	91.695	-161.2421
1099.651084	91.789	-161.4243
1107.619609	91.882	-161.6160
1115.645878	91.972	-161.8160
1123.730308	92.062	-162.0226
1131.873321	92.149	-162.2341
1140.075341	92.236	-162.4496
1148.336797	92.321	-162.6687
1156.658119	92.406	-162.8910
1165.039741	92.490	-163.1156
1173.482099	92.575	-163.3412
1181.985634	92.660	-163.5686
1190.550789	92.748	-163.8036
1199.178011	92.837	-164.0566
1207.867749	92.928	-164.3381
1216.620457	93.018	-164.6528
1225.436590	93.105	-164.9973
1234.316609	93.188	-165.3637
1243.260976	93.267	-165.7440
1252.270157	93.343	-166.1305
1261.344623	93.415	-166.5190
1270.484846	93.485	-166.9073
1279.691303	93.553	-167.2935
1288.964474	93.618	-167.6754
1298.304842	93.682	-168.0529
1307.712894	93.745	-168.4279
1317.189120	93.807	-168.8037
1326.734016	93.868	-169.1819
1336.348077	93.928	-169.5620
1346.031806	93.987	-169.9413
1355.785708	94.046	-170.3163
1365.610290	94.104	-170.6827
1375.506065	94.163	-171.0356
1385.473549	94.223	-171.3694
1395.513261	94.285	-171.6828
1405.625726	94.350	-171.9813
1415.811469	94.420	-172.2773
1426.071023	94.492	-172.5865
1436.404921	94.566	-172.9197
1446.813703	94.639	-173.2789
1457.297912	94.711	-173.6599
1467.858093	94.781	-174.0573
1478.494798	94.847	-174.4662
1489.208581	94.909	-174.8825
1500.000000	94.968	-175.3017
1510.869618	95.022	-175.7197
1521.818002	95.071	-176.1340
1532.845723	95.115	-176.5435
1543.953355	95.156	-176.9483
1555.141477	95.193	-177.3506
1566.410674	95.231	-177.7563
1577.761531	95.268	-178.1770
1589.194642	95.306	-178.6267
1600.710601	95.342	-179.1145
1612.310010	95.376	-179.6410
1623.993473	95.404	179.7991
1635.761599	95.428	179.2147
1647.615002	95.445	178.6144
1659.554299	95.456	178.0070
1671.580114	95.462	177.4003
1683.693072	95.463	176.7996
1695.893807	95.458	176.2078
1708.182952	95.448	175.6273
1720.561150	95.432	175.0632
1733.029045	95.410	174.5232
1745.587288	95.380	174.0171
1758.236533	95.345	173.5552
1770.977440	95.306	173.1461
1783.810673	95.266	172.7926
1796.736900	95.227	172.4885
1809.756796	95.189	172.2218
1822.871040	95.154	171.9819
1836.080315	95.121	171.7635
1849.385310	95.088	171.5660
1862.786718	95.057	171.3907
1876.285239	95.029	171.2399
1889.881575	95.003	171.1168
1903.576436	94.982	171.0242
1917.370535	94.967	170.9642
1931.264593	94.960	170.9361
1945.259332	94.962	170.9352
1959.355483	94.975	170.9489
1973.553781	94.996	170.9598
1987.854965	95.026	170.9528
2002.259781	95.060	170.9201
2016.768981	95.097	170.8604
2031.383320	95.135	170.7767
2046.103561	95.173	170.6746
2060.930471	95.212	170.5599
2075.864823	95.250	170.4371
2090.907395	95.289	170.3087
2106.058972	95.327	170.1776
2121.320344	95.364	170.0477
2136.692305	95.401	169.9238
2152.175658	95.439	169.8087
2167.771210	95.479	169.6982
2183.479774	95.522	169.5798
2199.302169	95.568	169.4373
2215.239219	95.615	169.2591
2231.291755	95.661	169.0423
2247.460615	95.704	168.7917
2263.746641	95.743	168.5179
2280.150683	95.777	168.2354
2296.673595	95.808	167.9597
2313.316238	95.836	167.7038
2330.079481	95.864	167.4736
2346.964198	95.893	167.2645
2363.971268	95.926	167.0648
2381.101578	95.961	166.8619
2398.356022	95.999	166.6468
2415.735498	96.038	166.4139
2433.240913	96.079	166.1603
2450.873180	96.119	165.8839
2468.633217	96.158	165.5828
2486.521951	96.196	165.2582
2504.540314	96.230	164.9158
2522.689246	96.261	164.5669
2540.969692	96.288	164.2243
2559.382606	96.314	163.8950
2577.928947	96.339	163.5778
2596.609683	96.365	163.2672
2615.425787	96.391	162.9581
2634.378241	96.416	162.6491
2653.468031	96.440	162.3423
2672.696154	96.463	162.0438
2692.063613	96.486	161.7607
2711.571415	96.511	161.4969
2731.220579	96.539	161.2479
2751.012130	96.572	161.0021
2770.947098	96.609	160.7467
2791.026522	96.649	160.4717
2811.251451	96.692	160.1712
2831.622938	96.737	159.8419
2852.142045	96.783	159.4819
2872.809842	96.828	159.0911
2893.627406	96.873	158.6736
2914.595823	96.917	158.2370
2935.716186	96.961	157.7871
2956.989596	97.006	157.3225
2978.417161	97.053	156.8346
3000.000000	97.102	156.3128
3021.739237	97.151	155.7484
3043.636005	97.200	155.1378
3065.691446	97.247	154.4836
3087.906710	97.291	153.7914
3110.282955	97.334	153.0639
3132.821347	97.376	152.2977
3155.523062	97.416	151.4855
3178.389283	97.454	150.6196
3201.421202	97.489	149.6944
3224.620020	97.519	148.7055
3247.986946	97.542	147.6508
3271.523198	97.557	146.5319
3295.230004	97.561	145.3566
3319.108599	97.553	144.1362
3343.160228	97.534	142.8799
3367.386145	97.502	141.5938
3391.787613	97.457	140.2837
3416.365904	97.398	138.9595
3441.122300	97.322	137.6379
3466.058091	97.229	136.3431
3491.174576	97.121	135.1003
3516.473066	96.998	133.9281
3541.954880	96.865	132.8353
3567.621345	96.722	131.8227
3593.473800	96.573	130.8858
3619.513592	96.417	130.0158
3645.742080	96.257	129.2026
3672.160630	96.091	128.4400
3698.770620	95.918	127.7270
3725.573436	95.740	127.0638
3752.570477	95.555	126.4467
3779.763150	95.363	125.8684
3807.152872	95.164	125.3222
3834.741071	94.953	124.8081
3862.529185	94.728	124.3352
3890.518664	94.487	123.9185
3918.710966	94.230	123.5745
3947.107561	93.955	123.3214
3975.709929	93.660	123.1826
4004.519563	93.346	123.1880
4033.537962	93.012	123.3747
4062.766641	92.660	123.7887
4092.207123	92.292	124.4818
4121.860942	91.915	125.5003
4151.729646	91.539	126.8732
4181.814790	91.173	128.6061
4212.117944	90.828	130.6840
4242.640687	90.511	133.0779
4273.384610	90.232	135.7480
4304.351317	89.996	138.6414
4335.542421	89.809	141.6947
4366.959549	89.672	144.8387
4398.604338	89.585	148.0056
4430.478438	89.547	151.1366
4462.583511	89.552	154.1909
4494.921231	89.597	157.1453
4527.493283	89.677	159.9842
4560.301365	89.790	162.6938
4593.347189	89.933	165.2633
4626.632476	90.101	167.6893
4660.158962	90.294	169.9742
4693.928395	90.510	172.1162
4727.942535	90.749	174.1038
4762.203156	91.011	175.9142
4796.712043	91.295	177.5174
4831.470996	91.596	178.8841
4866.481826	91.909	179.9929
4901.746360	92.229	-179.1700
4937.266434	92.551	-178.6140
4973.043902	92.867	-178.3429
5009.080628	93.170	-178.3491
5045.378492	93.453	-178.6115
5081.939384	93.712	-179.1006
5118.765212	93.941	-179.7844
5155.857894	94.139	179.3694
5193.219366	94.302	178.3921
5230.851574	94.428	177.3184
5268.756481	94.515	176.1883
5306.936062	94.562	175.0445
5345.392309	94.569	173.9269
5384.127225	94.537	172.8729
5423.142830	94.466	171.9213
5462.441159	94.360	171.1116
5502.024259	94.222	170.4796
5541.894195	94.057	170.0532
5582.053045	93.870	169.8490
5622.502902	93.667	169.8748
5663.245876	93.453	170.1344
5704.284090	93.233	170.6276
5745.619684	93.011	171.3478
5787.254813	92.791	172.2844
5829.191647	92.576	173.4287
5871.432373	92.367	174.7766
5913.979192	92.168	176.3260
5956.834323	91.983	178.0718
6000.000000	91.814	-179.9976
6043.478473	91.664	-177.8967
6087.272010	91.536	-175.6410
6131.382892	91.431	-173.2469
6175.813420	91.350	-170.7307
6220.565910	91.294	-168.1039
6265.642695	91.264	-165.3714
6311.046124	91.261	-162.5340
6356.778566	91.287	-159.5945
6402.842404	91.345	-156.5608
6449.240040	91.436	-153.4459
6495.973891	91.565	-150.2684
6543.046396	91.732	-147.0523
6590.460007	91.939	-143.8229
6638.217197	92.187	-140.6025
6686.320456	92.477	-137.4104
6734.772290	92.809	-134.2688
6783.575226	93.186	-131.2092
6832.731809	93.606	-128.2721
6882.244600	94.066	-125.5062
6932.116181	94.564	-122.9626
6982.349153	95.092	-120.6828
7032.946133	95.645	-118.6851
7083.909760	96.221	-116.9600
7135.242690	96.819	-115.4871
7186.947600	97.443	-114.2729
7239.027185	98.093	-113.3880
7291.484160	98.764	-112.9583
7344.321260	99.440	-113.1067
7397.541239	100.102	-113.9099
7451.146872	100.734	-115.3975
7505.140954	101.323	-117.5731
7559.526299	101.857	-120.4307
7614.305743	102.329	-123.9561
7669.482141	102.735	-128.1202
7725.058371	103.070	-132.8697
7781.037328	103.332	-138.1218
7837.421932	103.522	-143.7661
7894.215122	103.641	-149.6734
7951.419859	103.690	-155.7080
8009.039125	103.675	-161.7372
8067.075924	103.600	-167.6396
8125.533282	103.469	-173.3149
8184.414245	103.286	-178.6881
8243.721885	103.051	176.2941
8303.459292	102.764	171.6719
8363.629581	102.425	167.4803
8424.235888	102.036	163.7527
8485.281374	101.599	160.5180
8546.769221	101.118	157.7946
8608.702634	100.602	155.5878
8671.084842	100.056	153.8916
8733.919097	99.488	152.6932
8797.208675	98.907	151.9764
8860.956876	98.319	151.7229
8925.167022	97.734	151.9088
8989.842461	97.159	152.5004
9054.986566	96.602	153.4583
9120.602731	96.067	154.7421
9186.694378	95.559	156.3166
9253.264952	95.082	158.1547
9320.317925	94.639	160.2321
9387.856790	94.234	162.5211
9455.885071	93.870	164.9890
9524.406312	93.550	167.6019
9593.424086	93.276	170.3279
9662.941992	93.051	173.1398
9732.963653	92.876	176.0070
9803.492719	92.755	178.8867
9874.532869	92.687	-178.2764
9946.087805	92.670	-175.5420
10018.161257	92.699	-172.9576
10090.756983	92.767	-170.5435
10163.878768	92.870	-168.2867
10237.530423	93.006	-166.1431
10311.715789	93.183	-164.0586
10386.438732	93.415	-162.0162
10461.703149	93.721	-160.0847
10537.512962	94.110	-158.4334
10613.872125	94.582	-157.2892
10690.784618	95.117	-156.8720
10768.254450	95.688	-157.3467
10846.285661	96.260	-158.8055
10924.882318	96.800	-161.2720
11004.048518	97.274	-164.7097
11083.788390	97.651	-169.0249
11164.106090	97.902	-174.0656
11245.005805	98.007	-179.6210
11326.491752	97.955	174.5628
11408.568180	97.743	168.7511
11491.239368	97.384	163.1817
11574.509626	96.892	158.0344
11658.383294	96.292	153.4202
11742.864745	95.604	149.3848
11827.958384	94.852	145.9195
11913.668646	94.055	142.9754
12000.000000	93.226	140.4807
12086.956947	92.374	138.3619
12174.544019	91.503	136.5612
12262.765784	90.610	135.0439
12351.626840	89.693	133.7968
12441.131819	88.748	132.8250
12531.285389	87.773	132.1512
12622.092249	86.764	131.8118
12713.557132	85.721	131.8485
12805.684808	84.648	132.2973
12898.480079	83.547	133.1855
12991.947783	82.423	134.5342
13086.092792	81.281	136.3592
13180.920015	80.128	138.6680
13276.434395	78.967	141.4588
13372.640911	77.805	144.7259
13469.544580	76.645	148.4674
13567.150452	75.492	152.6847
13665.463617	74.349	157.3802
13764.489200	73.220	162.5603
13864.232362	72.107	168.2430
13964.698305	71.015	174.4596
14065.892266	69.950	-178.7463
14167.819519	68.918	-171.3145
14270.485380	67.931	-163.1590
14373.895200	67.005	-154.1799
14478.054370	66.163	-144.2979
14582.968320	65.433	-133.4979
14688.642520	64.852	-121.8789
14795.082478	64.452	-109.7054
14902.293745	64.260	-97.4099
15010.281908	64.286	-85.5062
15119.052599	64.520	-74.4657
15228.611486	64.935	-64.6530
15338.964283	65.488	-56.3227
15450.116741	66.129	-49.6218
15562.074656	66.798	-44.5786
15674.843864	67.438	-41.0913
15788.430244	67.996	-38.9281
15902.839718	68.433	-37.7455
16018.078250	68.726	-37.1277
16134.151848	68.876	-36.6426
16251.066563	68.899	-35.8961
16368.828491	68.829	-34.5752
16487.443769	68.713	-32.4771
16606.918584	68.600	-29.5302
16727.259161	68.543	-25.7987
16848.471777	68.587	-21.4752
16970.562748	68.765	-16.8665
17093.538442	69.096	-12.3648
17217.405268	69.574	-8.3954
17342.169684	70.172	-5.3539
17467.838194	70.843	-3.5472
17594.417350	71.530	-3.1547
17721.913751	72.170	-4.2201
17850.334044	72.703	-6.6584
17979.684923	73.076	-10.2611
18109.973131	73.245	-14.7063
18241.205462	73.186	-19.5919
18373.388756	72.896	-24.4959
18506.529905	72.391	-29.0489
18640.635849	71.705	-32.9917
18775.713581	70.878	-36.1973
18911.770141	69.949	-38.6600
19048.812624	68.953	-40.4664
19186.848172	67.911	-41.7530
19325.883983	66.839	-42.6546
19465.927305	65.748	-43.2624
19606.985439	64.666	-43.6132
19749.065738	63.657	-43.7223
19892.175609	62.838	-43.6481
20036.322514	62.367	-43.5340
