* Measurement data measured by REW V5.31.3
* Source: EXCL: Microphone (USB Sound Device        ), no input selected, R, volume: 0.390
* Format: 256k Log Swept Sine, 1 sweep at -15.0 dBFS with no timing reference
* Dated: May 4, 2025 11:49:18 PM
* REW Settings:
*  C-weighting compensation: Off
*  Target level: 75.0 dB
* Note: NFAcous NA20 R
* Measurement: R L NF Acous NA20
* Smoothing: 1/12 octave
* Frequency Step: 96 ppo
* Start Frequency: 0.36621094 Hz
*
* Freq(Hz) SPL(dB) Phase(degrees)
0.366211 94.081 159.1217
0.368865 94.076 159.0998
0.371538 94.067 159.0670
0.374230 94.057 159.0258
0.376942 94.045 158.9783
0.379673 94.033 158.9262
0.382424 94.020 158.8703
0.385196 94.006 158.8115
0.387987 93.993 158.7499
0.390798 93.979 158.6859
0.393630 93.965 158.6194
0.396483 93.951 158.5506
0.399356 93.937 158.4795
0.402250 93.922 158.4060
0.405165 93.908 158.3301
0.408101 93.893 158.2518
0.411058 93.879 158.1712
0.414037 93.864 158.0880
0.417037 93.849 158.0024
0.420059 93.834 157.9144
0.423103 93.819 157.8238
0.426169 93.804 157.7307
0.429257 93.789 157.6350
0.432368 93.773 157.5368
0.435501 93.758 157.4360
0.438656 93.742 157.3325
0.441835 93.726 157.2265
0.445037 93.711 157.1177
0.448262 93.695 157.0063
0.451510 93.679 156.8922
0.454782 93.662 156.7754
0.458077 93.646 156.6559
0.461397 93.630 156.5336
0.464740 93.613 156.4085
0.468108 93.596 156.2807
0.471500 93.580 156.1500
0.474917 93.563 156.0166
0.478358 93.546 155.8803
0.481825 93.529 155.7412
0.485316 93.511 155.5992
0.488833 93.494 155.4544
0.492375 93.476 155.3067
0.495943 93.459 155.1562
0.499537 93.441 155.0027
0.503157 93.423 154.8464
0.506803 93.405 154.6872
0.510475 93.387 154.5251
0.514175 93.369 154.3601
0.517900 93.350 154.1922
0.521653 93.332 154.0214
0.525434 93.313 153.8477
0.529241 93.294 153.6712
0.533076 93.275 153.4918
0.536939 93.256 153.3096
0.540830 93.237 153.1245
0.544749 93.217 152.9365
0.548696 93.198 152.7458
0.552673 93.178 152.5523
0.556677 93.158 152.3560
0.560711 93.138 152.1570
0.564774 93.118 151.9552
0.568867 93.098 151.7509
0.572989 93.078 151.5438
0.577141 93.057 151.3342
0.581324 93.036 151.1220
0.585536 93.016 150.9074
0.589779 92.995 150.6902
0.594053 92.973 150.4707
0.598358 92.952 150.2489
0.602694 92.931 150.0247
0.607061 92.909 149.7984
0.611460 92.887 149.5700
0.615891 92.865 149.3395
0.620354 92.843 149.1070
0.624849 92.821 148.8727
0.629377 92.799 148.6366
0.633938 92.776 148.3988
0.638532 92.753 148.1595
0.643159 92.730 147.9187
0.647819 92.707 147.6767
0.652514 92.684 147.4334
0.657242 92.661 147.1891
0.662005 92.637 146.9438
0.666802 92.613 146.6978
0.671634 92.590 146.4512
0.676501 92.565 146.2042
0.681403 92.541 145.9570
0.686341 92.517 145.7097
0.691314 92.492 145.4624
0.696324 92.467 145.2155
0.701370 92.442 144.9691
0.706452 92.416 144.7233
0.711571 92.390 144.4781
0.716728 92.364 144.2336
0.721921 92.336 143.9896
0.727153 92.307 143.7455
0.732422 92.276 143.5008
0.737729 92.242 143.2544
0.743075 92.207 143.0055
0.748460 92.171 142.7532
0.753883 92.133 142.4969
0.759346 92.094 142.2360
0.764849 92.054 141.9703
0.770391 92.014 141.6996
0.775974 91.973 141.4237
0.781597 91.932 141.1425
0.787261 91.890 140.8560
0.792966 91.847 140.5641
0.798712 91.804 140.2667
0.804500 91.761 139.9638
0.810329 91.717 139.6553
0.816201 91.672 139.3412
0.822116 91.626 139.0215
0.828073 91.580 138.6962
0.834074 91.533 138.3651
0.840118 91.486 138.0284
0.846206 91.437 137.6860
0.852338 91.388 137.3379
0.858514 91.338 136.9841
0.864735 91.287 136.6246
0.871001 91.236 136.2594
0.877313 91.183 135.8885
0.883670 91.130 135.5121
0.890074 91.075 135.1301
0.896524 91.020 134.7427
0.903020 90.964 134.3498
0.909564 90.906 133.9516
0.916155 90.847 133.5482
0.922794 90.788 133.1397
0.929481 90.727 132.7262
0.936216 90.664 132.3080
0.943000 90.601 131.8851
0.949834 90.536 131.4578
0.956717 90.470 131.0263
0.963649 90.402 130.5908
0.970632 90.333 130.1516
0.977666 90.263 129.7091
0.984750 90.191 129.2635
0.991886 90.117 128.8152
0.999074 90.041 128.3646
1.006314 89.964 127.9121
1.013606 89.885 127.4582
1.020951 89.805 127.0034
1.028349 89.722 126.5482
1.035801 89.637 126.0933
1.043307 89.551 125.6392
1.050867 89.462 125.1866
1.058482 89.371 124.7362
1.066152 89.279 124.2885
1.073878 89.184 123.8443
1.081660 89.087 123.4040
1.089498 88.988 122.9679
1.097393 88.888 122.5359
1.105345 88.787 122.1077
1.113355 88.686 121.6829
1.121423 88.584 121.2608
1.129549 88.482 120.8409
1.137734 88.379 120.4227
1.145979 88.277 120.0058
1.154283 88.175 119.5897
1.162647 88.073 119.1741
1.171072 87.969 118.7588
1.179558 87.865 118.3432
1.188106 87.761 117.9273
1.196715 87.654 117.5104
1.205387 87.546 117.0924
1.214122 87.437 116.6729
1.222920 87.325 116.2513
1.231782 87.211 115.8274
1.240708 87.093 115.4007
1.249699 86.973 114.9707
1.258754 86.849 114.5370
1.267876 86.722 114.0990
1.277063 86.590 113.6563
1.286318 86.453 113.2082
1.295639 86.311 112.7542
1.305027 86.164 112.2936
1.314484 86.011 111.8259
1.324009 85.851 111.3503
1.333604 85.685 110.8661
1.343268 85.511 110.3727
1.353002 85.329 109.8692
1.362806 85.139 109.3549
1.372681 84.940 108.8289
1.382628 84.732 108.2905
1.392647 84.514 107.7388
1.402739 84.284 107.1730
1.412904 84.044 106.5926
1.423142 83.791 105.9968
1.433455 83.524 105.3855
1.443843 83.242 104.7584
1.454305 82.944 104.1160
1.464844 82.626 103.4590
1.475459 82.285 102.7882
1.486150 81.920 102.1044
1.496920 81.528 101.4079
1.507767 81.108 100.6983
1.518693 80.659 99.9748
1.529698 80.182 99.2357
1.540783 79.679 98.4791
1.551948 79.151 97.7026
1.563194 78.599 96.9031
1.574521 78.026 96.0774
1.585931 77.434 95.2214
1.597423 76.826 94.3303
1.608999 76.204 93.3987
1.620658 75.570 92.4201
1.632402 74.929 91.3868
1.644232 74.283 90.2896
1.656146 73.636 89.1174
1.668147 72.991 87.8569
1.680235 72.353 86.4917
1.692411 71.725 85.0018
1.704675 71.112 83.3625
1.717028 70.519 81.5428
1.729470 69.951 79.5040
1.742003 69.415 77.1971
1.754626 68.915 74.5596
1.767341 68.459 71.5125
1.780147 68.052 67.9549
1.793047 67.703 63.7598
1.806040 67.417 58.7693
1.819128 67.201 52.7945
1.832310 67.058 45.6257
1.845587 66.993 37.0676
1.858961 67.004 27.0253
1.872432 67.091 15.6473
1.886001 67.250 3.4506
1.899667 67.477 -8.7408
1.913433 67.766 -20.1005
1.927299 68.113 -30.1079
1.941265 68.511 -38.6181
1.955332 68.953 -45.7369
1.969501 69.434 -51.6724
1.983773 69.947 -56.6428
1.998148 70.485 -60.8390
2.012627 71.042 -64.4148
2.027212 71.611 -67.4902
2.041902 72.187 -70.1578
2.056698 72.761 -72.4884
2.071602 73.329 -74.5368
2.086614 73.884 -76.3457
2.101734 74.419 -77.9487
2.116964 74.930 -79.3730
2.132304 75.412 -80.6412
2.147756 75.860 -81.7734
2.163320 76.272 -82.7888
2.178996 76.648 -83.7066
2.194786 76.989 -84.5471
2.210690 77.299 -85.3308
2.226710 77.581 -86.0761
2.242845 77.841 -86.7971
2.259098 78.080 -87.5027
2.275468 78.302 -88.1976
2.291957 78.508 -88.8834
2.308566 78.700 -89.5596
2.325295 78.878 -90.2243
2.342145 79.044 -90.8748
2.359117 79.198 -91.5078
2.376212 79.341 -92.1198
2.393431 79.475 -92.7070
2.410775 79.601 -93.2651
2.428244 79.718 -93.7901
2.445840 79.829 -94.2776
2.463564 79.934 -94.7233
2.481416 80.034 -95.1234
2.499397 80.130 -95.4744
2.517509 80.221 -95.7741
2.535752 80.309 -96.0217
2.554127 80.391 -96.2187
2.572635 80.467 -96.3685
2.591277 80.536 -96.4762
2.610055 80.596 -96.5462
2.628968 80.646 -96.5823
2.648019 80.686 -96.5865
2.667208 80.717 -96.5598
2.686535 80.739 -96.5018
2.706003 80.754 -96.4117
2.725612 80.763 -96.2882
2.745363 80.766 -96.1296
2.765257 80.766 -95.9340
2.785295 80.765 -95.6993
2.805478 80.762 -95.4237
2.825808 80.762 -95.1049
2.846285 80.763 -94.7408
2.866910 80.769 -94.3294
2.887685 80.780 -93.8684
2.908611 80.795 -93.3555
2.929688 80.816 -92.7883
2.950917 80.841 -92.1648
2.972301 80.869 -91.4837
2.993839 80.900 -90.7454
3.015534 80.934 -89.9518
3.037386 80.969 -89.1066
3.059396 81.007 -88.2146
3.081565 81.047 -87.2819
3.103896 81.091 -86.3156
3.126388 81.140 -85.3232
3.149043 81.194 -84.3131
3.171862 81.254 -83.2936
3.194847 81.320 -82.2729
3.217998 81.395 -81.2585
3.241317 81.479 -80.2562
3.264805 81.572 -79.2701
3.288463 81.676 -78.3012
3.312293 81.791 -77.3486
3.336295 81.917 -76.4107
3.360471 82.054 -75.4872
3.384822 82.201 -74.5802
3.409350 82.358 -73.6942
3.434056 82.523 -72.8350
3.458940 82.694 -72.0090
3.484005 82.871 -71.2233
3.509252 83.051 -70.4840
3.534681 83.233 -69.7971
3.560295 83.416 -69.1675
3.586094 83.599 -68.5990
3.612081 83.780 -68.0938
3.638255 83.960 -67.6525
3.664620 84.138 -67.2738
3.691175 84.315 -66.9547
3.717923 84.492 -66.6912
3.744864 84.668 -66.4790
3.772001 84.844 -66.3140
3.799335 85.019 -66.1925
3.826866 85.193 -66.1109
3.854597 85.365 -66.0661
3.882529 85.534 -66.0553
3.910664 85.700 -66.0763
3.939002 85.861 -66.1272
3.967546 86.017 -66.2070
3.996296 86.168 -66.3152
4.025255 86.313 -66.4522
4.054423 86.452 -66.6184
4.083804 86.585 -66.8139
4.113396 86.712 -67.0373
4.143204 86.834 -67.2861
4.173227 86.951 -67.5568
4.203468 87.062 -67.8450
4.233928 87.168 -68.1463
4.264609 87.269 -68.4565
4.295512 87.365 -68.7717
4.326639 87.456 -69.0893
4.357992 87.542 -69.4079
4.389572 87.622 -69.7274
4.421380 87.697 -70.0493
4.453419 87.766 -70.3748
4.485691 87.829 -70.7043
4.518196 87.887 -71.0370
4.550936 87.939 -71.3704
4.583914 87.987 -71.7010
4.617131 88.031 -72.0248
4.650589 88.070 -72.3377
4.684289 88.106 -72.6359
4.718233 88.139 -72.9165
4.752424 88.169 -73.1778
4.786862 88.195 -73.4194
4.821549 88.218 -73.6420
4.856488 88.237 -73.8465
4.891680 88.253 -74.0335
4.927127 88.267 -74.2033
4.962831 88.279 -74.3554
4.998794 88.289 -74.4894
5.035017 88.300 -74.6042
5.071503 88.310 -74.6985
5.108253 88.321 -74.7712
5.145270 88.333 -74.8213
5.182555 88.345 -74.8486
5.220110 88.359 -74.8540
5.257937 88.373 -74.8397
5.296038 88.389 -74.8089
5.334415 88.406 -74.7653
5.373071 88.426 -74.7129
5.412006 88.448 -74.6551
5.451224 88.474 -74.5946
5.490725 88.504 -74.5327
5.530514 88.537 -74.4703
5.570590 88.574 -74.4081
5.610957 88.615 -74.3479
5.651616 88.659 -74.2927
5.692570 88.706 -74.2467
5.733821 88.756 -74.2146
5.775370 88.809 -74.2006
5.817221 88.864 -74.2086
5.859375 88.922 -74.2406
5.901834 88.981 -74.2979
5.944602 89.043 -74.3805
5.987679 89.107 -74.4885
6.031068 89.173 -74.6222
6.074771 89.239 -74.7825
6.118792 89.305 -74.9703
6.163131 89.371 -75.1868
6.207792 89.436 -75.4329
6.252776 89.500 -75.7090
6.298086 89.563 -76.0149
6.343725 89.624 -76.3489
6.389694 89.684 -76.7089
6.435996 89.742 -77.0919
6.482634 89.798 -77.4953
6.529610 89.851 -77.9168
6.576926 89.901 -78.3548
6.624585 89.949 -78.8086
6.672590 89.994 -79.2772
6.720942 90.035 -79.7591
6.769645 90.074 -80.2516
6.818700 90.111 -80.7515
6.868111 90.144 -81.2552
6.917881 90.176 -81.7598
6.968010 90.205 -82.2633
7.018504 90.232 -82.7646
7.069362 90.257 -83.2629
7.120590 90.280 -83.7572
7.172189 90.302 -84.2458
7.224161 90.324 -84.7270
7.276511 90.345 -85.1988
7.329239 90.366 -85.6598
7.382350 90.387 -86.1094
7.435845 90.409 -86.5478
7.489729 90.432 -86.9757
7.544002 90.457 -87.3940
7.598669 90.483 -87.8038
7.653732 90.511 -88.2059
7.709194 90.542 -88.6008
7.765058 90.576 -88.9894
7.821327 90.612 -89.3730
7.878004 90.652 -89.7535
7.935091 90.694 -90.1334
7.992592 90.740 -90.5151
8.050510 90.788 -90.9004
8.108847 90.840 -91.2907
8.167607 90.895 -91.6870
8.226793 90.952 -92.0903
8.286408 91.012 -92.5019
8.346454 91.074 -92.9231
8.406936 91.138 -93.3548
8.467856 91.204 -93.7977
8.529218 91.270 -94.2515
8.591024 91.338 -94.7157
8.653278 91.407 -95.1893
8.715983 91.476 -95.6714
8.779143 91.545 -96.1611
8.842760 91.614 -96.6574
8.906839 91.683 -97.1591
8.971381 91.751 -97.6643
9.036392 91.819 -98.1710
9.101873 91.885 -98.6772
9.167829 91.952 -99.1809
9.234263 92.017 -99.6808
9.301178 92.081 -100.1756
9.368578 92.145 -100.6635
9.436467 92.208 -101.1430
9.504847 92.271 -101.6128
9.573723 92.333 -102.0718
9.643099 92.395 -102.5193
9.712976 92.457 -102.9551
9.783361 92.519 -103.3789
9.854255 92.581 -103.7907
9.925663 92.644 -104.1904
9.997588 92.707 -104.5784
10.070035 92.770 -104.9552
10.143007 92.833 -105.3218
10.216507 92.897 -105.6789
10.290540 92.962 -106.0274
10.365109 93.027 -106.3680
10.440219 93.092 -106.7015
10.515873 93.158 -107.0287
10.592076 93.224 -107.3505
10.668830 93.289 -107.6674
10.746141 93.355 -107.9801
10.824012 93.420 -108.2887
10.902447 93.485 -108.5936
10.981451 93.549 -108.8949
11.061027 93.612 -109.1928
11.141180 93.675 -109.4873
11.221913 93.736 -109.7783
11.303232 93.797 -110.0657
11.385140 93.857 -110.3496
11.467641 93.915 -110.6298
11.550741 93.973 -110.9065
11.634442 94.029 -111.1797
11.718750 94.084 -111.4496
11.803669 94.138 -111.7164
11.889203 94.191 -111.9804
11.975357 94.242 -112.2420
12.062136 94.293 -112.5015
12.149543 94.342 -112.7595
12.237583 94.389 -113.0161
12.326262 94.436 -113.2719
12.415583 94.481 -113.5272
12.505552 94.525 -113.7821
12.596172 94.567 -114.0370
12.687449 94.608 -114.2918
12.779387 94.647 -114.5466
12.871992 94.685 -114.8015
12.965268 94.721 -115.0563
13.059220 94.756 -115.3111
13.153852 94.789 -115.5659
13.249170 94.821 -115.8206
13.345179 94.852 -116.0755
13.441884 94.882 -116.3309
13.539289 94.911 -116.5872
13.637401 94.939 -116.8449
13.736223 94.967 -117.1048
13.835761 94.994 -117.3678
13.936021 95.020 -117.6348
14.037007 95.046 -117.9067
14.138725 95.072 -118.1846
14.241180 95.097 -118.4693
14.344377 95.122 -118.7617
14.448323 95.147 -119.0625
14.553021 95.171 -119.3719
14.658478 95.194 -119.6902
14.764700 95.217 -120.0173
14.871691 95.239 -120.3528
14.979457 95.260 -120.6963
15.088005 95.281 -121.0470
15.197339 95.301 -121.4039
15.307465 95.321 -121.7663
15.418389 95.340 -122.1332
15.530117 95.358 -122.5038
15.642655 95.377 -122.8773
15.756008 95.396 -123.2532
15.870182 95.415 -123.6311
15.985184 95.434 -124.0109
16.101019 95.454 -124.3925
16.217694 95.475 -124.7761
16.335214 95.496 -125.1618
16.453586 95.518 -125.5498
16.572815 95.542 -125.9402
16.692909 95.566 -126.3331
16.813872 95.590 -126.7283
16.935713 95.616 -127.1255
17.058436 95.642 -127.5241
17.182048 95.669 -127.9234
17.306556 95.696 -128.3226
17.431967 95.723 -128.7208
17.558286 95.751 -129.1171
17.685521 95.779 -129.5104
17.813677 95.808 -129.8999
17.942762 95.836 -130.2850
18.072783 95.865 -130.6651
18.203746 95.895 -131.0397
18.335658 95.924 -131.4085
18.468526 95.954 -131.7715
18.602356 95.984 -132.1284
18.737156 96.014 -132.4793
18.872934 96.044 -132.8241
19.009695 96.074 -133.1628
19.147447 96.103 -133.4953
19.286197 96.132 -133.8216
19.425953 96.161 -134.1417
19.566721 96.189 -134.4556
19.708510 96.216 -134.7634
19.851326 96.243 -135.0652
19.995177 96.269 -135.3613
20.140070 96.294 -135.6520
20.286013 96.318 -135.9380
20.433014 96.341 -136.2196
20.581080 96.364 -136.4976
20.730219 96.385 -136.7723
20.880439 96.405 -137.0444
21.031747 96.424 -137.3145
21.184152 96.442 -137.5829
21.337661 96.458 -137.8502
21.492282 96.474 -138.1169
21.648024 96.488 -138.3833
21.804895 96.501 -138.6502
21.962902 96.513 -138.9182
22.122054 96.524 -139.1879
22.282360 96.535 -139.4600
22.443827 96.544 -139.7352
22.606464 96.552 -140.0141
22.770280 96.560 -140.2973
22.935283 96.567 -140.5851
23.101481 96.574 -140.8777
23.268884 96.580 -141.1751
23.437500 96.585 -141.4773
23.607338 96.590 -141.7841
23.778406 96.594 -142.0952
23.950714 96.599 -142.4106
24.124271 96.603 -142.7299
24.299086 96.608 -143.0529
24.475167 96.612 -143.3795
24.652524 96.617 -143.7094
24.831166 96.622 -144.0424
25.011103 96.628 -144.3781
25.192344 96.634 -144.7159
25.374898 96.641 -145.0554
25.558775 96.648 -145.3957
25.743984 96.655 -145.7361
25.930536 96.663 -146.0757
26.118439 96.671 -146.4137
26.307704 96.680 -146.7490
26.498341 96.689 -147.0810
26.690359 96.697 -147.4085
26.883768 96.707 -147.7309
27.078579 96.716 -148.0475
27.274801 96.725 -148.3577
27.472446 96.735 -148.6611
27.671522 96.744 -148.9576
27.872042 96.754 -149.2475
28.074014 96.763 -149.5311
28.277450 96.773 -149.8089
28.482360 96.782 -150.0817
28.688755 96.791 -150.3502
28.896645 96.799 -150.6148
29.106042 96.807 -150.8763
29.316957 96.814 -151.1350
29.529400 96.820 -151.3914
29.743382 96.825 -151.6459
29.958915 96.830 -151.8990
30.176009 96.834 -152.1512
30.394677 96.837 -152.4033
30.614929 96.839 -152.6559
30.836778 96.840 -152.9098
31.060234 96.841 -153.1654
31.285309 96.841 -153.4234
31.512015 96.840 -153.6842
31.740364 96.839 -153.9480
31.970368 96.837 -154.2151
32.202039 96.835 -154.4857
32.435388 96.833 -154.7601
32.670428 96.831 -155.0383
32.907171 96.829 -155.3203
33.145630 96.827 -155.6059
33.385817 96.824 -155.8948
33.627745 96.822 -156.1866
33.871425 96.820 -156.4805
34.116871 96.818 -156.7761
34.364096 96.816 -157.0726
34.613113 96.814 -157.3690
34.863934 96.812 -157.6647
35.116572 96.810 -157.9587
35.371041 96.808 -158.2501
35.627354 96.806 -158.5380
35.885525 96.804 -158.8218
36.145566 96.801 -159.1011
36.407492 96.799 -159.3757
36.671316 96.796 -159.6459
36.937051 96.793 -159.9120
37.204712 96.790 -160.1744
37.474313 96.786 -160.4336
37.745867 96.782 -160.6897
38.019389 96.778 -160.9431
38.294893 96.773 -161.1938
38.572394 96.767 -161.4421
38.851905 96.761 -161.6884
39.133442 96.754 -161.9332
39.417019 96.747 -162.1768
39.702651 96.739 -162.4199
39.990353 96.731 -162.6630
40.280140 96.723 -162.9063
40.572026 96.714 -163.1501
40.866028 96.705 -163.3945
41.162160 96.696 -163.6393
41.460438 96.687 -163.8844
41.760877 96.678 -164.1299
42.063494 96.669 -164.3753
42.368303 96.660 -164.6205
42.675322 96.651 -164.8650
42.984565 96.641 -165.1084
43.296048 96.632 -165.3501
43.609789 96.622 -165.5897
43.925804 96.613 -165.8270
44.244108 96.604 -166.0617
44.564719 96.594 -166.2943
44.887654 96.585 -166.5250
45.212928 96.575 -166.7541
45.540560 96.565 -166.9819
45.870565 96.554 -167.2083
46.202962 96.544 -167.4332
46.537768 96.532 -167.6563
46.875000 96.521 -167.8774
47.214676 96.509 -168.0966
47.556813 96.496 -168.3141
47.901429 96.484 -168.5304
48.248542 96.471 -168.7458
48.598171 96.458 -168.9608
48.950334 96.445 -169.1755
49.305048 96.432 -169.3896
49.662333 96.419 -169.6029
50.022206 96.405 -169.8150
50.384688 96.391 -170.0255
50.749796 96.377 -170.2341
51.117550 96.363 -170.4403
51.487969 96.348 -170.6436
51.861072 96.333 -170.8434
52.236879 96.319 -171.0394
52.615409 96.304 -171.2318
52.996681 96.289 -171.4211
53.380717 96.275 -171.6082
53.767536 96.260 -171.7941
54.157158 96.246 -171.9794
54.549603 96.232 -172.1645
54.944892 96.218 -172.3497
55.343045 96.203 -172.5351
55.744084 96.189 -172.7215
56.148028 96.175 -172.9095
56.554900 96.161 -173.0999
56.964720 96.147 -173.2934
57.377510 96.133 -173.4900
57.793291 96.119 -173.6892
58.212085 96.104 -173.8902
58.633914 96.089 -174.0915
59.058799 96.072 -174.2916
59.486764 96.056 -174.4891
59.917829 96.038 -174.6832
60.352019 96.020 -174.8736
60.789354 96.002 -175.0604
61.229859 95.983 -175.2441
61.673556 95.964 -175.4250
62.120468 95.944 -175.6031
62.570618 95.924 -175.7786
63.024031 95.904 -175.9517
63.480729 95.884 -176.1228
63.940736 95.863 -176.2923
64.404077 95.842 -176.4605
64.870776 95.821 -176.6274
65.340856 95.800 -176.7929
65.814343 95.779 -176.9568
66.291261 95.758 -177.1191
66.771635 95.737 -177.2797
67.255489 95.716 -177.4385
67.742850 95.695 -177.5951
68.233743 95.673 -177.7491
68.728193 95.651 -177.9000
69.226226 95.630 -178.0479
69.727867 95.608 -178.1933
70.233144 95.586 -178.3367
70.742083 95.564 -178.4788
71.254709 95.541 -178.6200
71.771050 95.519 -178.7603
72.291132 95.496 -178.8991
72.814984 95.474 -179.0363
73.342631 95.451 -179.1717
73.874102 95.429 -179.3053
74.409424 95.406 -179.4375
74.948626 95.384 -179.5682
75.491734 95.362 -179.6977
76.038779 95.340 -179.8259
76.589787 95.318 -179.9531
77.144788 95.296 179.9201
77.703811 95.275 179.7928
78.266885 95.254 179.6637
78.834039 95.233 179.5315
79.405303 95.211 179.3951
79.980706 95.190 179.2535
80.560280 95.168 179.1064
81.144053 95.146 178.9542
81.732056 95.122 178.7975
82.324320 95.097 178.6382
82.920876 95.071 178.4782
83.521755 95.043 178.3198
84.126988 95.013 178.1658
84.736607 94.982 178.0187
85.350643 94.949 177.8806
85.969129 94.916 177.7527
86.592097 94.881 177.6353
87.219579 94.847 177.5277
87.851608 94.812 177.4290
88.488217 94.778 177.3377
89.129439 94.744 177.2526
89.775308 94.710 177.1724
90.425856 94.677 177.0960
91.081119 94.644 177.0226
91.741131 94.612 176.9512
92.405925 94.580 176.8814
93.075536 94.548 176.8127
93.750000 94.516 176.7447
94.429351 94.485 176.6774
95.113625 94.453 176.6111
95.802858 94.421 176.5463
96.497085 94.389 176.4832
97.196342 94.357 176.4227
97.900667 94.324 176.3654
98.610096 94.291 176.3122
99.324665 94.258 176.2638
100.044413 94.224 176.2209
100.769376 94.190 176.1840
101.499592 94.156 176.1526
102.235100 94.123 176.1255
102.975938 94.090 176.1005
103.722144 94.057 176.0752
104.473757 94.025 176.0479
105.230817 93.994 176.0176
105.993363 93.962 175.9844
106.761435 93.931 175.9490
107.535072 93.900 175.9119
108.314315 93.869 175.8737
109.099206 93.838 175.8342
109.889783 93.806 175.7933
110.686090 93.773 175.7505
111.488167 93.739 175.7055
112.296056 93.703 175.6583
113.109800 93.666 175.6099
113.929440 93.626 175.5621
114.755020 93.585 175.5187
115.586582 93.541 175.4842
116.424170 93.496 175.4633
117.267827 93.451 175.4596
118.117598 93.406 175.4747
118.973527 93.362 175.5081
119.835658 93.321 175.5575
120.704037 93.282 175.6174
121.578708 93.246 175.6805
122.459718 93.212 175.7415
123.347111 93.179 175.7984
124.240935 93.146 175.8518
125.141236 93.113 175.9028
126.048061 93.079 175.9515
126.961458 93.045 175.9973
127.881473 93.010 176.0391
128.808154 92.975 176.0770
129.741551 92.939 176.1120
130.681712 92.903 176.1457
131.628686 92.867 176.1793
132.582521 92.830 176.2135
133.543269 92.792 176.2491
134.510979 92.754 176.2869
135.485701 92.714 176.3278
136.467486 92.674 176.3729
137.456386 92.634 176.4229
138.452451 92.593 176.4783
139.455735 92.551 176.5385
140.466288 92.510 176.6022
141.484165 92.469 176.6683
142.509418 92.427 176.7357
143.542100 92.385 176.8041
144.582265 92.343 176.8738
145.629968 92.300 176.9456
146.685262 92.256 177.0208
147.748204 92.212 177.1006
148.818849 92.166 177.1873
149.897251 92.119 177.2828
150.983469 92.071 177.3897
152.077557 92.023 177.5100
153.179574 91.974 177.6455
154.289576 91.925 177.7967
155.407622 91.877 177.9619
156.533770 91.830 178.1377
157.668078 91.784 178.3196
158.810606 91.739 178.5045
159.961413 91.694 178.6912
161.120559 91.648 178.8813
162.288105 91.602 179.0781
163.464112 91.556 179.2858
164.648640 91.509 179.5097
165.841752 91.463 179.7547
167.043510 91.419 -179.9749
168.253976 91.377 -179.6772
169.473213 91.339 -179.3526
170.701286 91.306 -179.0048
171.938258 91.279 -178.6408
173.184194 91.259 -178.2737
174.439158 91.247 -177.9234
175.703216 91.241 -177.6104
176.976434 91.239 -177.3489
178.258878 91.238 -177.1440
179.550615 91.236 -176.9926
180.851713 91.231 -176.8871
182.162239 91.221 -176.8183
183.482262 91.206 -176.7762
184.811850 91.185 -176.7506
186.151073 91.158 -176.7316
187.500000 91.127 -176.7103
188.858702 91.092 -176.6795
190.227250 91.053 -176.6343
191.605715 91.011 -176.5721
192.994169 90.967 -176.4919
194.392685 90.921 -176.3939
195.801334 90.874 -176.2794
197.220191 90.826 -176.1493
198.649330 90.778 -176.0037
200.088825 90.731 -175.8423
201.538751 90.683 -175.6657
202.999184 90.637 -175.4765
204.470200 90.592 -175.2789
205.951875 90.548 -175.0775
207.444287 90.505 -174.8758
208.947514 90.462 -174.6752
210.461634 90.418 -174.4748
211.986726 90.372 -174.2718
213.522869 90.326 -174.0620
215.070144 90.278 -173.8407
216.628631 90.229 -173.6038
218.198411 90.181 -173.3496
219.779567 90.134 -173.0807
221.372180 90.089 -172.8024
222.976334 90.046 -172.5211
224.592112 90.004 -172.2415
226.219600 89.962 -171.9657
227.858880 89.921 -171.6934
229.510039 89.880 -171.4230
231.173164 89.838 -171.1528
232.848340 89.796 -170.8811
234.535655 89.754 -170.6076
236.235197 89.712 -170.3327
237.947054 89.669 -170.0570
239.671317 89.626 -169.7803
241.408074 89.582 -169.5011
243.157416 89.537 -169.2169
244.919435 89.491 -168.9248
246.694223 89.443 -168.6215
248.481871 89.395 -168.3038
250.282473 89.346 -167.9691
252.096123 89.299 -167.6161
253.922915 89.252 -167.2468
255.762945 89.209 -166.8675
257.616309 89.168 -166.4881
259.483103 89.130 -166.1184
261.363424 89.092 -165.7626
263.257372 89.053 -165.4183
265.165043 89.013 -165.0781
267.086538 88.970 -164.7329
269.021957 88.926 -164.3754
270.971401 88.881 -164.0015
272.934972 88.836 -163.6102
274.912771 88.792 -163.2032
276.904902 88.749 -162.7828
278.911469 88.708 -162.3504
280.932577 88.669 -161.9080
282.968330 88.633 -161.4587
285.018835 88.599 -161.0083
287.084199 88.568 -160.5645
289.164530 88.540 -160.1346
291.259935 88.512 -159.7216
293.370525 88.484 -159.3228
295.496408 88.454 -158.9318
297.637697 88.424 -158.5423
299.794503 88.393 -158.1516
301.966937 88.362 -157.7610
304.155114 88.331 -157.3734
306.359147 88.300 -156.9923
308.579152 88.269 -156.6198
310.815244 88.236 -156.2561
313.067539 88.202 -155.8992
315.336156 88.166 -155.5443
317.621211 88.127 -155.1842
319.922826 88.086 -154.8116
322.241118 88.044 -154.4223
324.576210 88.002 -154.0159
326.928223 87.959 -153.5949
329.297280 87.917 -153.1626
331.683504 87.876 -152.7227
334.087019 87.836 -152.2783
336.507952 87.796 -151.8318
338.946427 87.756 -151.3840
341.402572 87.715 -150.9341
343.876516 87.675 -150.4798
346.368387 87.634 -150.0190
348.878315 87.593 -149.5507
351.406431 87.553 -149.0748
353.952867 87.512 -148.5919
356.517756 87.473 -148.1029
359.101230 87.433 -147.6086
361.703426 87.394 -147.1101
364.324478 87.355 -146.6081
366.964523 87.315 -146.1028
369.623699 87.276 -145.5937
372.302145 87.237 -145.0797
375.000000 87.198 -144.5603
377.717405 87.159 -144.0356
380.454501 87.120 -143.5062
383.211431 87.082 -142.9724
385.988339 87.044 -142.4342
388.785369 87.006 -141.8911
391.602668 86.969 -141.3426
394.440383 86.931 -140.7881
397.298660 86.894 -140.2278
400.177650 86.858 -139.6624
403.077502 86.822 -139.0938
405.998368 86.786 -138.5234
408.940400 86.750 -137.9518
411.903750 86.714 -137.3776
414.888575 86.677 -136.7980
417.895028 86.639 -136.2096
420.923268 86.602 -135.6095
423.973452 86.565 -134.9967
427.045738 86.529 -134.3725
430.140287 86.495 -133.7409
433.257261 86.463 -133.1067
436.396822 86.432 -132.4733
439.559133 86.402 -131.8411
442.744360 86.374 -131.2101
445.952668 86.346 -130.5823
449.184225 86.320 -129.9624
452.439199 86.294 -129.3566
455.717760 86.268 -128.7681
459.020079 86.240 -128.1927
462.346327 86.209 -127.6196
465.696680 86.175 -127.0366
469.071310 86.138 -126.4356
472.470394 86.100 -125.8149
475.894109 86.063 -125.1776
479.342634 86.026 -124.5300
482.816148 85.989 -123.8782
486.314833 85.952 -123.2239
489.838871 85.914 -122.5622
493.388445 85.876 -121.8845
496.963741 85.838 -121.1865
500.564945 85.801 -120.4717
504.192245 85.766 -119.7483
507.845830 85.733 -119.0242
511.525890 85.700 -118.3031
515.232618 85.667 -117.5841
518.966206 85.633 -116.8636
522.726849 85.598 -116.1367
526.514743 85.563 -115.3987
530.330086 85.528 -114.6474
534.173076 85.494 -113.8846
538.043915 85.462 -113.1146
541.942803 85.430 -112.3392
545.869944 85.399 -111.5578
549.825542 85.368 -110.7699
553.809805 85.339 -109.9774
557.822939 85.310 -109.1835
561.865154 85.282 -108.3904
565.936660 85.254 -107.5976
570.037671 85.225 -106.8021
574.168399 85.196 -106.0003
578.329060 85.166 -105.1901
582.519870 85.136 -104.3715
586.741049 85.106 -103.5443
590.992817 85.076 -102.7059
595.275394 85.046 -101.8536
599.589005 85.017 -100.9886
603.933874 84.988 -100.1152
608.310228 84.961 -99.2377
612.718295 84.934 -98.3573
617.158304 84.906 -97.4712
621.630488 84.878 -96.5733
626.135079 84.850 -95.6569
630.672311 84.823 -94.7196
635.242423 84.798 -93.7650
639.845651 84.775 -92.7994
644.482237 84.753 -91.8254
649.152421 84.735 -90.8423
653.856447 84.718 -89.8514
658.594560 84.705 -88.8598
663.367008 84.694 -87.8781
668.174039 84.685 -86.9141
673.015903 84.675 -85.9670
677.892854 84.663 -85.0281
682.805145 84.649 -84.0874
687.753032 84.633 -83.1374
692.736774 84.616 -82.1725
697.756631 84.598 -81.1882
702.812863 84.580 -80.1831
707.905735 84.562 -79.1598
713.035511 84.546 -78.1226
718.202461 84.530 -77.0743
723.406852 84.515 -76.0150
728.648956 84.501 -74.9426
733.929047 84.488 -73.8552
739.247399 84.476 -72.7520
744.604290 84.465 -71.6325
750.000000 84.456 -70.4968
755.434809 84.448 -69.3446
760.909001 84.442 -68.1758
766.422861 84.438 -66.9901
771.976677 84.436 -65.7882
777.570739 84.437 -64.5709
783.205337 84.440 -63.3388
788.880766 84.446 -62.0912
794.597321 84.454 -60.8254
800.355301 84.467 -59.5398
806.155005 84.484 -58.2366
811.996736 84.508 -56.9229
817.880799 84.537 -55.6091
823.807501 84.573 -54.3067
829.777150 84.613 -53.0255
835.790057 84.656 -51.7684
841.846536 84.700 -50.5291
847.946903 84.746 -49.2976
854.091476 84.793 -48.0676
860.280575 84.843 -46.8375
866.514523 84.894 -45.6071
872.793644 84.949 -44.3760
879.118267 85.008 -43.1473
885.488720 85.070 -41.9276
891.905336 85.136 -40.7233
898.368450 85.205 -39.5367
904.878398 85.277 -38.3673
911.435520 85.351 -37.2155
918.040157 85.427 -36.0843
924.692655 85.506 -34.9774
931.393359 85.587 -33.8985
938.142619 85.669 -32.8509
944.940787 85.751 -31.8351
951.788218 85.833 -30.8482
958.685268 85.913 -29.8853
965.632296 85.991 -28.9412
972.629666 86.068 -28.0112
979.677741 86.143 -27.0924
986.776890 86.216 -26.1838
993.927482 86.287 -25.2820
1001.129891 86.356 -24.3810
1008.384491 86.425 -23.4750
1015.691660 86.493 -22.5631
1023.051781 86.563 -21.6487
1030.465236 86.635 -20.7381
1037.932411 86.709 -19.8420
1045.453698 86.783 -18.9720
1053.029486 86.857 -18.1328
1060.660172 86.928 -17.3198
1068.346153 86.996 -16.5235
1076.087829 87.061 -15.7337
1083.885605 87.124 -14.9435
1091.739887 87.185 -14.1508
1099.651084 87.244 -13.3558
1107.619609 87.302 -12.5592
1115.645878 87.360 -11.7620
1123.730308 87.416 -10.9659
1131.873321 87.473 -10.1738
1140.075341 87.528 -9.3901
1148.336797 87.584 -8.6202
1156.658119 87.637 -7.8701
1165.039741 87.688 -7.1433
1173.482099 87.733 -6.4381
1181.985634 87.772 -5.7447
1190.550789 87.802 -5.0445
1199.178011 87.824 -4.3112
1207.867749 87.839 -3.5178
1216.620457 87.851 -2.6490
1225.436590 87.865 -1.7077
1234.316609 87.883 -0.7089
1243.260976 87.906 0.3326
1252.270157 87.937 1.4062
1261.344623 87.975 2.4965
1270.484846 88.020 3.5811
1279.691303 88.071 4.6407
1288.964474 88.126 5.6671
1298.304842 88.182 6.6610
1307.712894 88.237 7.6282
1317.189120 88.291 8.5751
1326.734016 88.343 9.5083
1336.348077 88.393 10.4353
1346.031806 88.440 11.3633
1355.785708 88.485 12.2993
1365.610290 88.528 13.2494
1375.506065 88.570 14.2195
1385.473549 88.612 15.2155
1395.513261 88.656 16.2386
1405.625726 88.702 17.2829
1415.811469 88.753 18.3356
1426.071023 88.808 19.3810
1436.404921 88.864 20.4091
1446.813703 88.921 21.4195
1457.297912 88.978 22.4180
1467.858093 89.033 23.4115
1478.494798 89.087 24.4047
1489.208581 89.141 25.4009
1500.000000 89.193 26.4032
1510.869618 89.245 27.4148
1521.818002 89.297 28.4387
1532.845723 89.350 29.4775
1543.953355 89.404 30.5335
1555.141477 89.460 31.6073
1566.410674 89.519 32.6942
1577.761531 89.583 33.7827
1589.194642 89.650 34.8577
1600.710601 89.719 35.9095
1612.310010 89.789 36.9375
1623.993473 89.858 37.9474
1635.761599 89.926 38.9472
1647.615002 89.993 39.9435
1659.554299 90.058 40.9413
1671.580114 90.123 41.9443
1683.693072 90.187 42.9532
1695.893807 90.252 43.9656
1708.182952 90.317 44.9789
1720.561150 90.382 45.9933
1733.029045 90.445 47.0122
1745.587288 90.509 48.0415
1758.236533 90.572 49.0884
1770.977440 90.636 50.1587
1783.810673 90.704 51.2516
1796.736900 90.775 52.3569
1809.756796 90.852 53.4593
1822.871040 90.931 54.5471
1836.080315 91.013 55.6163
1849.385310 91.096 56.6683
1862.786718 91.178 57.7069
1876.285239 91.261 58.7370
1889.881575 91.343 59.7646
1903.576436 91.425 60.7961
1917.370535 91.508 61.8370
1931.264593 91.593 62.8907
1945.259332 91.682 63.9549
1959.355483 91.776 65.0190
1973.553781 91.875 66.0667
1987.854965 91.977 67.0852
2002.259781 92.081 68.0686
2016.768981 92.186 69.0175
2031.383320 92.291 69.9355
2046.103561 92.395 70.8274
2060.930471 92.497 71.6973
2075.864823 92.599 72.5472
2090.907395 92.699 73.3782
2106.058972 92.796 74.1932
2121.320344 92.892 74.9983
2136.692305 92.985 75.8028
2152.175658 93.076 76.6154
2167.771210 93.168 77.4385
2183.479774 93.262 78.2644
2199.302169 93.359 79.0804
2215.239219 93.457 79.8759
2231.291755 93.555 80.6457
2247.460615 93.653 81.3898
2263.746641 93.748 82.1118
2280.150683 93.842 82.8186
2296.673595 93.934 83.5182
2313.316238 94.025 84.2168
2330.079481 94.116 84.9150
2346.964198 94.209 85.6047
2363.971268 94.304 86.2728
2381.101578 94.399 86.9089
2398.356022 94.493 87.5086
2415.735498 94.585 88.0728
2433.240913 94.674 88.6051
2450.873180 94.759 89.1096
2468.633217 94.840 89.5891
2486.521951 94.916 90.0478
2504.540314 94.987 90.4928
2522.689246 95.052 90.9348
2540.969692 95.113 91.3837
2559.382606 95.171 91.8424
2577.928947 95.228 92.3050
2596.609683 95.283 92.7622
2615.425787 95.335 93.2070
2634.378241 95.385 93.6372
2653.468031 95.430 94.0563
2672.696154 95.470 94.4725
2692.063613 95.505 94.8963
2711.571415 95.537 95.3351
2731.220579 95.566 95.7882
2751.012130 95.594 96.2479
2770.947098 95.621 96.7057
2791.026522 95.645 97.1562
2811.251451 95.666 97.5984
2831.622938 95.683 98.0338
2852.142045 95.695 98.4653
2872.809842 95.702 98.8974
2893.627406 95.702 99.3387
2914.595823 95.696 99.8016
2935.716186 95.685 100.2976
2956.989596 95.670 100.8308
2978.417161 95.653 101.3986
3000.000000 95.634 101.9961
3021.739237 95.612 102.6205
3043.636005 95.587 103.2738
3065.691446 95.560 103.9632
3087.906710 95.530 104.6978
3110.282955 95.500 105.4824
3132.821347 95.472 106.3131
3155.523062 95.445 107.1807
3178.389283 95.422 108.0751
3201.421202 95.400 108.9889
3224.620020 95.380 109.9165
3247.986946 95.361 110.8547
3271.523198 95.343 111.8047
3295.230004 95.323 112.7736
3319.108599 95.304 113.7710
3343.160228 95.286 114.8013
3367.386145 95.270 115.8611
3391.787613 95.256 116.9425
3416.365904 95.245 118.0388
3441.122300 95.236 119.1489
3466.058091 95.227 120.2790
3491.174576 95.221 121.4364
3516.473066 95.217 122.6233
3541.954880 95.217 123.8351
3567.621345 95.221 125.0639
3593.473800 95.231 126.3014
3619.513592 95.244 127.5401
3645.742080 95.260 128.7753
3672.160630 95.279 130.0088
3698.770620 95.299 131.2491
3725.573436 95.320 132.5045
3752.570477 95.345 133.7777
3779.763150 95.374 135.0664
3807.152872 95.406 136.3677
3834.741071 95.442 137.6833
3862.529185 95.482 139.0199
3890.518664 95.528 140.3818
3918.710966 95.582 141.7653
3947.107561 95.646 143.1575
3975.709929 95.720 144.5404
4004.519563 95.804 145.8932
4033.537962 95.897 147.1975
4062.766641 95.996 148.4432
4092.207123 96.100 149.6303
4121.860942 96.207 150.7626
4151.729646 96.317 151.8416
4181.814790 96.428 152.8669
4212.117944 96.541 153.8416
4242.640687 96.653 154.7749
4273.384610 96.766 155.6788
4304.351317 96.881 156.5596
4335.542421 97.000 157.4146
4366.959549 97.125 158.2326
4398.604338 97.254 158.9967
4430.478438 97.389 159.6887
4462.583511 97.526 160.2964
4494.921231 97.666 160.8128
4527.493283 97.806 161.2319
4560.301365 97.946 161.5456
4593.347189 98.083 161.7472
4626.632476 98.215 161.8359
4660.158962 98.341 161.8164
4693.928395 98.461 161.6931
4727.942535 98.573 161.4655
4762.203156 98.677 161.1276
4796.712043 98.772 160.6691
4831.470996 98.855 160.0813
4866.481826 98.922 159.3631
4901.746360 98.970 158.5208
4937.266434 98.996 157.5648
4973.043902 98.996 156.5106
5009.080628 98.965 155.3829
5045.378492 98.900 154.2203
5081.939384 98.797 153.0742
5118.765212 98.653 152.0087
5155.857894 98.469 151.1019
5193.219366 98.246 150.4488
5230.851574 97.990 150.1637
5268.756481 97.716 150.3662
5306.936062 97.450 151.1305
5345.392309 97.225 152.4008
5384.127225 97.070 153.9335
5423.142830 96.988 155.3623
5462.441159 96.955 156.3840
5502.024259 96.932 156.9034
5541.894195 96.883 157.0220
5582.053045 96.793 156.9324
5622.502902 96.659 156.8231
5663.245876 96.486 156.8310
5704.284090 96.285 157.0330
5745.619684 96.067 157.4549
5787.254813 95.840 158.0916
5829.191647 95.610 158.9262
5871.432373 95.381 159.9417
5913.979192 95.156 161.1235
5956.834323 94.938 162.4568
6000.000000 94.730 163.9235
6043.478473 94.533 165.5049
6087.272010 94.348 167.1828
6131.382892 94.177 168.9385
6175.813420 94.018 170.7543
6220.565910 93.872 172.6185
6265.642695 93.737 174.5274
6311.046124 93.612 176.4835
6356.778566 93.499 178.4896
6402.842404 93.398 -179.4545
6449.240040 93.309 -177.3511
6495.973891 93.234 -175.2054
6543.046396 93.174 -173.0260
6590.460007 93.128 -170.8212
6638.217197 93.096 -168.5945
6686.320456 93.079 -166.3444
6734.772290 93.078 -164.0672
6783.575226 93.094 -161.7627
6832.731809 93.129 -159.4350
6882.244600 93.185 -157.0942
6932.116181 93.264 -154.7574
6982.349153 93.367 -152.4442
7032.946133 93.494 -150.1719
7083.909760 93.646 -147.9526
7135.242690 93.823 -145.7972
7186.947600 94.026 -143.7190
7239.027185 94.258 -141.7363
7291.484160 94.518 -139.8755
7344.321260 94.809 -138.1718
7397.541239 95.130 -136.6652
7451.146872 95.479 -135.3958
7505.140954 95.854 -134.4042
7559.526299 96.254 -133.7356
7614.305743 96.673 -133.4418
7669.482141 97.108 -133.5822
7725.058371 97.549 -134.2216
7781.037328 97.985 -135.4211
7837.421932 98.401 -137.2255
7894.215122 98.779 -139.6525
7951.419859 99.103 -142.6868
8009.039125 99.356 -146.2766
8067.075924 99.522 -150.3311
8125.533282 99.591 -154.7242
8184.414245 99.554 -159.2994
8243.721885 99.409 -163.8788
8303.459292 99.157 -168.2776
8363.629581 98.807 -172.3238
8424.235888 98.370 -175.8747
8485.281374 97.862 -178.8301
8546.769221 97.302 178.8614
8608.702634 96.708 177.2070
8671.084842 96.096 176.1812
8733.919097 95.481 175.7383
8797.208675 94.875 175.8237
8860.956876 94.289 176.3796
8925.167022 93.731 177.3447
8989.842461 93.207 178.6533
9054.986566 92.721 -179.7595
9120.602731 92.277 -177.9509
9186.694378 91.873 -175.9653
9253.264952 91.511 -173.8336
9320.317925 91.190 -171.5798
9387.856790 90.912 -169.2298
9455.885071 90.677 -166.8129
9524.406312 90.487 -164.3583
9593.424086 90.341 -161.8909
9662.941992 90.239 -159.4294
9732.963653 90.185 -156.9941
9803.492719 90.179 -154.6151
9874.532869 90.225 -152.3332
9946.087805 90.323 -150.1956
10018.161257 90.475 -148.2497
10090.756983 90.679 -146.5447
10163.878768 90.938 -145.1409
10237.530423 91.250 -144.1165
10311.715789 91.610 -143.5640
10386.438732 92.010 -143.5801
10461.703149 92.435 -144.2528
10537.512962 92.869 -145.6548
10613.872125 93.288 -147.8385
10690.784618 93.668 -150.8245
10768.254450 93.977 -154.5874
10846.285661 94.188 -159.0421
10924.882318 94.275 -164.0397
11004.048518 94.218 -169.3768
11083.788390 94.007 -174.8151
11164.106090 93.641 179.8933
11245.005805 93.127 174.9813
11326.491752 92.481 170.6465
11408.568180 91.723 167.0382
11491.239368 90.879 164.2527
11574.509626 89.974 162.3372
11658.383294 89.036 161.3003
11742.864745 88.090 161.1176
11827.958384 87.162 161.7240
11913.668646 86.279 162.9963
12000.000000 85.461 164.7481
12086.956947 84.717 166.7694
12174.544019 84.045 168.8975
12262.765784 83.430 171.0620
12351.626840 82.861 173.2647
12441.131819 82.328 175.5325
12531.285389 81.825 177.8887
12622.092249 81.352 -179.6520
12713.557132 80.908 -177.0820
12805.684808 80.494 -174.4025
12898.480079 80.113 -171.6219
12991.947783 79.766 -168.7520
13086.092792 79.456 -165.8075
13180.920015 79.185 -162.8121
13276.434395 78.954 -159.7974
13372.640911 78.762 -156.7914
13469.544580 78.609 -153.8058
13567.150452 78.494 -150.8416
13665.463617 78.419 -147.9001
13764.489200 78.386 -144.9875
13864.232362 78.399 -142.1134
13964.698305 78.460 -139.2938
14065.892266 78.575 -136.5548
14167.819519 78.748 -133.9299
14270.485380 78.984 -131.4570
14373.895200 79.286 -129.1840
14478.054370 79.661 -127.1741
14582.968320 80.110 -125.5048
14688.642520 80.634 -124.2623
14795.082478 81.231 -123.5432
14902.293745 81.893 -123.4536
15010.281908 82.607 -124.1012
15119.052599 83.355 -125.5846
15228.611486 84.111 -127.9849
15338.964283 84.847 -131.3536
15450.116741 85.529 -135.6983
15562.074656 86.123 -140.9695
15674.843864 86.596 -147.0555
15788.430244 86.923 -153.7817
15902.839718 87.087 -160.9197
16018.078250 87.082 -168.2101
16134.151848 86.916 -175.3995
16251.066563 86.613 177.7232
16368.828491 86.202 171.3008
16487.443769 85.721 165.3942
16606.918584 85.210 159.9769
16727.259161 84.707 154.9420
16848.471777 84.241 150.1198
16970.562748 83.829 145.3011
17093.538442 83.470 140.2727
17217.405268 83.142 134.8610
17342.169684 82.809 128.9696
17467.838194 82.425 122.6050
17594.417350 81.944 115.8832
17721.913751 81.331 109.0112
17850.334044 80.566 102.2413
17979.684923 79.645 95.8186
18109.973131 78.581 89.9375
18241.205462 77.393 84.7184
18373.388756 76.105 80.2143
18506.529905 74.735 76.4511
18640.635849 73.297 73.4906
18775.713581 71.797 71.5045
18911.770141 70.237 70.8250
19048.812624 68.634 71.8925
19186.848172 67.031 75.0039
19325.883983 65.503 79.9277
19465.927305 64.142 85.7819
19606.985439 63.021 91.4581
19749.065738 62.182 96.1474
19892.175609 61.633 99.4380
20036.322514 61.363 101.1337
