* Measurement data measured by REW V5.31
* Source: EXCL: Microphone (USB Sound Device        ), MICROPHONE (Master Volume), L, volume: 0.250
* Format: 256k Log Swept Sine, 1 sweep at -4.0 dBFS with no timing reference
* Dated: Jul 17, 2024 1:01:50 AM
* REW Settings:
*  C-weighting compensation: Off
*  Target level: 75.0 dB
* Note: NiceHCK F1 Pro R
* Measurement: R NiceHCK F1 Pro
* Smoothing: 1/12 octave
* Frequency Step: 96 ppo
* Start Frequency: 0.36621094 Hz
*
* Freq(Hz) SPL(dB) Phase(degrees)
0.366211 78.171 -159.2291
0.368865 78.182 -159.2468
0.371538 78.199 -159.2730
0.374230 78.219 -159.3054
0.376942 78.242 -159.3420
0.379673 78.267 -159.3813
0.382424 78.293 -159.4222
0.385196 78.319 -159.4644
0.387987 78.346 -159.5073
0.390798 78.373 -159.5508
0.393630 78.401 -159.5948
0.396483 78.428 -159.6392
0.399356 78.456 -159.6841
0.402250 78.485 -159.7295
0.405165 78.513 -159.7753
0.408101 78.541 -159.8215
0.411058 78.570 -159.8681
0.414037 78.599 -159.9153
0.417037 78.628 -159.9629
0.420059 78.658 -160.0110
0.423103 78.687 -160.0596
0.426169 78.717 -160.1087
0.429257 78.747 -160.1583
0.432368 78.777 -160.2085
0.435501 78.808 -160.2592
0.438656 78.838 -160.3105
0.441835 78.869 -160.3624
0.445037 78.900 -160.4149
0.448262 78.932 -160.4679
0.451510 78.963 -160.5217
0.454782 78.995 -160.5760
0.458077 79.027 -160.6311
0.461397 79.059 -160.6868
0.464740 79.092 -160.7432
0.468108 79.125 -160.8004
0.471500 79.158 -160.8583
0.474917 79.191 -160.9169
0.478358 79.224 -160.9764
0.481825 79.258 -161.0366
0.485316 79.292 -161.0977
0.488833 79.326 -161.1597
0.492375 79.361 -161.2225
0.495943 79.395 -161.2862
0.499537 79.430 -161.3508
0.503157 79.465 -161.4165
0.506803 79.501 -161.4830
0.510475 79.537 -161.5506
0.514175 79.573 -161.6193
0.517900 79.609 -161.6890
0.521653 79.645 -161.7598
0.525434 79.682 -161.8318
0.529241 79.719 -161.9049
0.533076 79.756 -161.9792
0.536939 79.794 -162.0547
0.540830 79.832 -162.1315
0.544749 79.870 -162.2097
0.548696 79.908 -162.2891
0.552673 79.947 -162.3700
0.556677 79.986 -162.4522
0.560711 80.025 -162.5360
0.564774 80.064 -162.6212
0.568867 80.104 -162.7080
0.572989 80.144 -162.7964
0.577141 80.185 -162.8865
0.581324 80.225 -162.9782
0.585536 80.266 -163.0717
0.589779 80.308 -163.1670
0.594053 80.349 -163.2641
0.598358 80.391 -163.3632
0.602694 80.433 -163.4642
0.607061 80.476 -163.5672
0.611460 80.518 -163.6724
0.615891 80.561 -163.7796
0.620354 80.605 -163.8891
0.624849 80.649 -164.0009
0.629377 80.693 -164.1151
0.633938 80.737 -164.2316
0.638532 80.782 -164.3507
0.643159 80.827 -164.4723
0.647819 80.872 -164.5966
0.652514 80.918 -164.7237
0.657242 80.964 -164.8536
0.662005 81.010 -164.9864
0.666802 81.056 -165.1223
0.671634 81.103 -165.2612
0.676501 81.151 -165.4034
0.681403 81.198 -165.5489
0.686341 81.246 -165.6978
0.691314 81.295 -165.8503
0.696324 81.343 -166.0064
0.701370 81.392 -166.1664
0.706452 81.441 -166.3302
0.711571 81.490 -166.4980
0.716728 81.539 -166.6701
0.721921 81.587 -166.8463
0.727153 81.635 -167.0270
0.732422 81.681 -167.2120
0.737729 81.726 -167.4016
0.743075 81.769 -167.5956
0.748460 81.811 -167.7940
0.753883 81.853 -167.9968
0.759346 81.894 -168.2039
0.764849 81.934 -168.4153
0.770391 81.975 -168.6310
0.775974 82.015 -168.8507
0.781597 82.055 -169.0745
0.787261 82.095 -169.3023
0.792966 82.135 -169.5341
0.798712 82.175 -169.7696
0.804500 82.214 -170.0090
0.810329 82.254 -170.2520
0.816201 82.293 -170.4987
0.822116 82.332 -170.7489
0.828073 82.371 -171.0025
0.834074 82.410 -171.2596
0.840118 82.449 -171.5200
0.846206 82.488 -171.7836
0.852338 82.527 -172.0504
0.858514 82.565 -172.3203
0.864735 82.603 -172.5933
0.871001 82.642 -172.8692
0.877313 82.680 -173.1479
0.883670 82.717 -173.4296
0.890074 82.755 -173.7139
0.896524 82.793 -174.0010
0.903020 82.830 -174.2907
0.909564 82.868 -174.5831
0.916155 82.905 -174.8779
0.922794 82.942 -175.1752
0.929481 82.979 -175.4749
0.936216 83.015 -175.7770
0.943000 83.052 -176.0815
0.949834 83.088 -176.3883
0.956717 83.124 -176.6973
0.963649 83.160 -177.0086
0.970632 83.196 -177.3220
0.977666 83.232 -177.6377
0.984750 83.268 -177.9556
0.991886 83.303 -178.2756
0.999074 83.338 -178.5978
1.006314 83.373 -178.9222
1.013606 83.408 -179.2487
1.020951 83.443 -179.5775
1.028349 83.478 -179.9084
1.035801 83.512 179.7583
1.043307 83.547 179.4228
1.050867 83.581 179.0848
1.058482 83.615 178.7443
1.066152 83.649 178.4010
1.073878 83.683 178.0547
1.081660 83.716 177.7049
1.089498 83.749 177.3510
1.097393 83.782 176.9921
1.105345 83.815 176.6272
1.113355 83.848 176.2555
1.121423 83.880 175.8761
1.129549 83.912 175.4885
1.137734 83.943 175.0925
1.145979 83.974 174.6880
1.154283 84.004 174.2751
1.162647 84.034 173.8539
1.171072 84.064 173.4245
1.179558 84.093 172.9873
1.188106 84.122 172.5425
1.196715 84.150 172.0903
1.205387 84.178 171.6311
1.214122 84.205 171.1652
1.222920 84.232 170.6929
1.231782 84.259 170.2145
1.240708 84.285 169.7305
1.249699 84.310 169.2411
1.258754 84.335 168.7468
1.267876 84.360 168.2479
1.277063 84.384 167.7448
1.286318 84.408 167.2380
1.295639 84.431 166.7280
1.305027 84.454 166.2151
1.314484 84.476 165.7000
1.324009 84.498 165.1829
1.333604 84.519 164.6644
1.343268 84.540 164.1451
1.353002 84.561 163.6255
1.362806 84.581 163.1060
1.372681 84.601 162.5873
1.382628 84.620 162.0699
1.392647 84.639 161.5544
1.402739 84.658 161.0411
1.412904 84.676 160.5306
1.423142 84.693 160.0232
1.433455 84.710 159.5189
1.443843 84.727 159.0176
1.454305 84.744 158.5185
1.464844 84.759 158.0204
1.475459 84.774 157.5220
1.486150 84.789 157.0216
1.496920 84.803 156.5178
1.507767 84.816 156.0097
1.518693 84.828 155.4968
1.529698 84.840 154.9787
1.540783 84.850 154.4554
1.551948 84.860 153.9271
1.563194 84.870 153.3939
1.574521 84.878 152.8560
1.585931 84.886 152.3138
1.597423 84.893 151.7675
1.608999 84.899 151.2176
1.620658 84.904 150.6644
1.632402 84.909 150.1083
1.644232 84.913 149.5499
1.656146 84.916 148.9895
1.668147 84.918 148.4277
1.680235 84.920 147.8651
1.692411 84.921 147.3022
1.704675 84.922 146.7396
1.717028 84.921 146.1779
1.729470 84.920 145.6178
1.742003 84.919 145.0600
1.754626 84.917 144.5051
1.767341 84.914 143.9537
1.780147 84.911 143.4062
1.793047 84.907 142.8632
1.806040 84.902 142.3243
1.819128 84.896 141.7893
1.832310 84.890 141.2572
1.845587 84.883 140.7267
1.858961 84.875 140.1964
1.872432 84.866 139.6651
1.886001 84.855 139.1320
1.899667 84.844 138.5966
1.913433 84.831 138.0588
1.927299 84.817 137.5187
1.941265 84.802 136.9764
1.955332 84.786 136.4324
1.969501 84.769 135.8871
1.983773 84.752 135.3411
1.998148 84.733 134.7950
2.012627 84.714 134.2495
2.027212 84.694 133.7053
2.041902 84.673 133.1636
2.056698 84.652 132.6251
2.071602 84.631 132.0911
2.086614 84.609 131.5625
2.101734 84.587 131.0407
2.116964 84.564 130.5269
2.132304 84.542 130.0225
2.147756 84.519 129.5286
2.163320 84.497 129.0463
2.178996 84.474 128.5766
2.194786 84.451 128.1198
2.210690 84.427 127.6761
2.226710 84.402 127.2450
2.242845 84.377 126.8260
2.259098 84.351 126.4189
2.275468 84.323 126.0228
2.291957 84.295 125.6377
2.308566 84.267 125.2630
2.325295 84.237 124.8987
2.342145 84.208 124.5444
2.359117 84.178 124.2001
2.376212 84.149 123.8657
2.393431 84.120 123.5411
2.410775 84.092 123.2264
2.428244 84.064 122.9216
2.445840 84.038 122.6270
2.463564 84.013 122.3426
2.481416 83.991 122.0689
2.499397 83.970 121.8066
2.517509 83.951 121.5565
2.535752 83.935 121.3200
2.554127 83.921 121.0989
2.572635 83.909 120.8953
2.591277 83.899 120.7111
2.610055 83.891 120.5477
2.628968 83.885 120.4056
2.648019 83.880 120.2844
2.667208 83.877 120.1830
2.686535 83.877 120.0998
2.706003 83.878 120.0325
2.725612 83.882 119.9789
2.745363 83.888 119.9363
2.765257 83.896 119.9022
2.785295 83.908 119.8735
2.805478 83.923 119.8475
2.825808 83.941 119.8215
2.846285 83.962 119.7931
2.866910 83.988 119.7604
2.887685 84.017 119.7223
2.908611 84.051 119.6790
2.929688 84.089 119.6318
2.950917 84.132 119.5830
2.972301 84.180 119.5351
2.993839 84.233 119.4895
3.015534 84.291 119.4462
3.037386 84.353 119.4044
3.059396 84.420 119.3619
3.081565 84.490 119.3165
3.103896 84.564 119.2650
3.126388 84.641 119.2043
3.149043 84.722 119.1313
3.171862 84.805 119.0428
3.194847 84.890 118.9360
3.217998 84.977 118.8082
3.241317 85.066 118.6576
3.264805 85.156 118.4831
3.288463 85.249 118.2848
3.312293 85.344 118.0639
3.336295 85.441 117.8221
3.360471 85.541 117.5612
3.384822 85.644 117.2826
3.409350 85.749 116.9872
3.434056 85.857 116.6753
3.458940 85.966 116.3470
3.484005 86.077 116.0019
3.509252 86.189 115.6396
3.534681 86.301 115.2594
3.560295 86.412 114.8604
3.586094 86.523 114.4418
3.612081 86.633 114.0025
3.638255 86.742 113.5416
3.664620 86.850 113.0583
3.691175 86.957 112.5525
3.717923 87.062 112.0244
3.744864 87.168 111.4753
3.772001 87.272 110.9072
3.799335 87.375 110.3221
3.826866 87.478 109.7227
3.854597 87.579 109.1114
3.882529 87.679 108.4902
3.910664 87.778 107.8613
3.939002 87.874 107.2259
3.967546 87.968 106.5846
3.996296 88.060 105.9374
4.025255 88.150 105.2831
4.054423 88.237 104.6203
4.083804 88.322 103.9478
4.113396 88.404 103.2652
4.143204 88.484 102.5737
4.173227 88.561 101.8752
4.203468 88.636 101.1724
4.233928 88.709 100.4684
4.264609 88.780 99.7662
4.295512 88.848 99.0687
4.326639 88.915 98.3780
4.357992 88.979 97.6951
4.389572 89.040 97.0199
4.421380 89.099 96.3513
4.453419 89.156 95.6882
4.485691 89.210 95.0294
4.518196 89.262 94.3754
4.550936 89.311 93.7272
4.583914 89.359 93.0867
4.617131 89.405 92.4562
4.650589 89.449 91.8385
4.684289 89.492 91.2357
4.718233 89.534 90.6498
4.752424 89.575 90.0818
4.786862 89.615 89.5319
4.821549 89.654 88.9996
4.856488 89.691 88.4840
4.891680 89.728 87.9844
4.927127 89.763 87.5003
4.962831 89.799 87.0316
4.998794 89.835 86.5783
5.035017 89.871 86.1409
5.071503 89.908 85.7200
5.108253 89.946 85.3163
5.145270 89.985 84.9305
5.182555 90.025 84.5627
5.220110 90.066 84.2121
5.257937 90.109 83.8774
5.296038 90.153 83.5566
5.334415 90.198 83.2472
5.373071 90.246 82.9469
5.412006 90.295 82.6535
5.451224 90.346 82.3657
5.490725 90.400 82.0827
5.530514 90.456 81.8044
5.570590 90.514 81.5305
5.610957 90.575 81.2602
5.651616 90.638 80.9917
5.692570 90.703 80.7228
5.733821 90.770 80.4507
5.775370 90.838 80.1729
5.817221 90.907 79.8874
5.859375 90.978 79.5927
5.901834 91.050 79.2885
5.944602 91.123 78.9748
5.987679 91.197 78.6516
6.031068 91.272 78.3190
6.074771 91.347 77.9764
6.118792 91.422 77.6234
6.163131 91.497 77.2590
6.207792 91.571 76.8828
6.252776 91.644 76.4945
6.298086 91.716 76.0941
6.343725 91.787 75.6827
6.389694 91.856 75.2615
6.435996 91.924 74.8323
6.482634 91.990 74.3966
6.529610 92.054 73.9558
6.576926 92.116 73.5107
6.624585 92.176 73.0618
6.672590 92.233 72.6095
6.720942 92.288 72.1549
6.769645 92.341 71.6996
6.818700 92.391 71.2457
6.868111 92.440 70.7953
6.917881 92.486 70.3502
6.968010 92.530 69.9117
7.018504 92.571 69.4803
7.069362 92.611 69.0564
7.120590 92.649 68.6406
7.172189 92.686 68.2336
7.224161 92.721 67.8365
7.276511 92.756 67.4503
7.329239 92.789 67.0756
7.382350 92.822 66.7126
7.435845 92.854 66.3611
7.489729 92.886 66.0203
7.544002 92.918 65.6893
7.598669 92.951 65.3672
7.653732 92.983 65.0531
7.709194 93.017 64.7465
7.765058 93.051 64.4465
7.821327 93.085 64.1520
7.878004 93.121 63.8616
7.935091 93.157 63.5732
7.992592 93.195 63.2852
8.050510 93.233 62.9958
8.108847 93.272 62.7039
8.167607 93.311 62.4088
8.226793 93.351 62.1095
8.286408 93.392 61.8048
8.346454 93.432 61.4938
8.406936 93.473 61.1755
8.467856 93.513 60.8494
8.529218 93.553 60.5152
8.591024 93.593 60.1733
8.653278 93.631 59.8241
8.715983 93.669 59.4680
8.779143 93.706 59.1056
8.842760 93.741 58.7373
8.906839 93.775 58.3638
8.971381 93.807 57.9863
9.036392 93.838 57.6058
9.101873 93.867 57.2238
9.167829 93.895 56.8413
9.234263 93.922 56.4592
9.301178 93.947 56.0782
9.368578 93.970 55.6993
9.436467 93.993 55.3231
9.504847 94.015 54.9505
9.573723 94.036 54.5819
9.643099 94.055 54.2174
9.712976 94.073 53.8570
9.783361 94.090 53.5004
9.854255 94.105 53.1472
9.925663 94.117 52.7971
9.997588 94.128 52.4494
10.070035 94.136 52.1034
10.143007 94.143 51.7583
10.216507 94.149 51.4130
10.290540 94.154 51.0667
10.365109 94.158 50.7188
10.440219 94.161 50.3684
10.515873 94.164 50.0152
10.592076 94.167 49.6585
10.668830 94.169 49.2980
10.746141 94.172 48.9336
10.824012 94.174 48.5654
10.902447 94.176 48.1937
10.981451 94.177 47.8188
11.061027 94.179 47.4413
11.141180 94.179 47.0615
11.221913 94.180 46.6802
11.303232 94.179 46.2981
11.385140 94.179 45.9159
11.467641 94.178 45.5342
11.550741 94.177 45.1534
11.634442 94.176 44.7740
11.718750 94.175 44.3962
11.803669 94.174 44.0204
11.889203 94.174 43.6464
11.975357 94.175 43.2740
12.062136 94.176 42.9033
12.149543 94.177 42.5337
12.237583 94.180 42.1651
12.326262 94.182 41.7971
12.415583 94.186 41.4294
12.505552 94.189 41.0616
12.596172 94.193 40.6938
12.687449 94.196 40.3259
12.779387 94.200 39.9580
12.871992 94.203 39.5903
12.965268 94.207 39.2232
13.059220 94.210 38.8571
13.153852 94.213 38.4927
13.249170 94.216 38.1305
13.345179 94.220 37.7710
13.441884 94.223 37.4148
13.539289 94.226 37.0622
13.637401 94.230 36.7136
13.736223 94.234 36.3691
13.835761 94.238 36.0287
13.936021 94.242 35.6921
14.037007 94.246 35.3591
14.138725 94.251 35.0291
14.241180 94.256 34.7017
14.344377 94.260 34.3761
14.448323 94.265 34.0519
14.553021 94.270 33.7286
14.658478 94.275 33.4059
14.764700 94.279 33.0835
14.871691 94.283 32.7614
14.979457 94.287 32.4397
15.088005 94.291 32.1188
15.197339 94.294 31.7992
15.307465 94.296 31.4812
15.418389 94.298 31.1656
15.530117 94.299 30.8528
15.642655 94.300 30.5434
15.756008 94.300 30.2375
15.870182 94.299 29.9356
15.985184 94.298 29.6374
16.101019 94.296 29.3427
16.217694 94.295 29.0512
16.335214 94.293 28.7623
16.453586 94.291 28.4753
16.572815 94.289 28.1895
16.692909 94.288 27.9042
16.813872 94.286 27.6185
16.935713 94.285 27.3322
17.058436 94.284 27.0446
17.182048 94.282 26.7553
17.306556 94.281 26.4642
17.431967 94.279 26.1712
17.558286 94.277 25.8762
17.685521 94.275 25.5794
17.813677 94.271 25.2808
17.942762 94.268 24.9805
18.072783 94.264 24.6786
18.203746 94.259 24.3755
18.335658 94.254 24.0713
18.468526 94.249 23.7661
18.602356 94.243 23.4604
18.737156 94.237 23.1545
18.872934 94.231 22.8489
19.009695 94.225 22.5439
19.147447 94.218 22.2400
19.286197 94.212 21.9375
19.425953 94.206 21.6367
19.566721 94.200 21.3375
19.708510 94.195 21.0400
19.851326 94.189 20.7438
19.995177 94.184 20.4485
20.140070 94.180 20.1534
20.286013 94.176 19.8579
20.433014 94.172 19.5616
20.581080 94.169 19.2639
20.730219 94.167 18.9648
20.880439 94.164 18.6642
21.031747 94.162 18.3625
21.184152 94.159 18.0604
21.337661 94.157 17.7583
21.492282 94.155 17.4572
21.648024 94.154 17.1577
21.804895 94.152 16.8602
21.962902 94.150 16.5652
22.122054 94.148 16.2727
22.282360 94.146 15.9825
22.443827 94.145 15.6945
22.606464 94.143 15.4083
22.770280 94.141 15.1237
22.935283 94.139 14.8408
23.101481 94.136 14.5597
23.268884 94.133 14.2806
23.437500 94.130 14.0042
23.607338 94.125 13.7307
23.778406 94.121 13.4606
23.950714 94.115 13.1941
24.124271 94.109 12.9310
24.299086 94.103 12.6709
24.475167 94.096 12.4131
24.652524 94.090 12.1570
24.831166 94.083 11.9017
25.011103 94.075 11.6465
25.192344 94.068 11.3912
25.374898 94.060 11.1356
25.558775 94.051 10.8798
25.743984 94.042 10.6240
25.930536 94.032 10.3688
26.118439 94.022 10.1144
26.307704 94.011 9.8608
26.498341 94.000 9.6080
26.690359 93.990 9.3555
26.883768 93.979 9.1029
27.078579 93.968 8.8496
27.274801 93.957 8.5952
27.472446 93.946 8.3391
27.671522 93.935 8.0814
27.872042 93.924 7.8219
28.074014 93.913 7.5610
28.277450 93.902 7.2991
28.482360 93.891 7.0365
28.688755 93.879 6.7739
28.896645 93.868 6.5117
29.106042 93.856 6.2505
29.316957 93.845 5.9904
29.529400 93.834 5.7317
29.743382 93.823 5.4746
29.958915 93.812 5.2190
30.176009 93.802 4.9646
30.394677 93.792 4.7115
30.614929 93.782 4.4593
30.836778 93.773 4.2080
31.060234 93.763 3.9575
31.285309 93.753 3.7081
31.512015 93.744 3.4600
31.740364 93.733 3.2134
31.970368 93.723 2.9685
32.202039 93.712 2.7255
32.435388 93.701 2.4843
32.670428 93.690 2.2449
32.907171 93.678 2.0070
33.145630 93.666 1.7704
33.385817 93.654 1.5349
33.627745 93.641 1.3004
33.871425 93.628 1.0665
34.116871 93.615 0.8331
34.364096 93.601 0.6000
34.613113 93.587 0.3669
34.863934 93.572 0.1338
35.116572 93.558 -0.0995
35.371041 93.542 -0.3328
35.627354 93.526 -0.5656
35.885525 93.510 -0.7977
36.145566 93.494 -1.0287
36.407492 93.477 -1.2583
36.671316 93.461 -1.4865
36.937051 93.444 -1.7131
37.204712 93.428 -1.9384
37.474313 93.411 -2.1625
37.745867 93.395 -2.3855
38.019389 93.379 -2.6072
38.294893 93.363 -2.8274
38.572394 93.347 -3.0461
38.851905 93.331 -3.2632
39.133442 93.315 -3.4787
39.417019 93.300 -3.6930
39.702651 93.285 -3.9064
39.990353 93.269 -4.1194
40.280140 93.254 -4.3323
40.572026 93.239 -4.5453
40.866028 93.223 -4.7583
41.162160 93.207 -4.9709
41.460438 93.191 -5.1827
41.760877 93.174 -5.3934
42.063494 93.157 -5.6030
42.368303 93.139 -5.8114
42.675322 93.121 -6.0192
42.984565 93.103 -6.2269
43.296048 93.085 -6.4352
43.609789 93.066 -6.6443
43.925804 93.047 -6.8542
44.244108 93.027 -7.0648
44.564719 93.007 -7.2753
44.887654 92.987 -7.4849
45.212928 92.966 -7.6927
45.540560 92.945 -7.8983
45.870565 92.924 -8.1014
46.202962 92.902 -8.3022
46.537768 92.881 -8.5012
46.875000 92.860 -8.6984
47.214676 92.839 -8.8936
47.556813 92.818 -9.0863
47.901429 92.797 -9.2761
48.248542 92.776 -9.4628
48.598171 92.756 -9.6465
48.950334 92.735 -9.8281
49.305048 92.715 -10.0084
49.662333 92.695 -10.1878
50.022206 92.675 -10.3663
50.384688 92.654 -10.5439
50.749796 92.633 -10.7202
51.117550 92.612 -10.8956
51.487969 92.592 -11.0707
51.861072 92.570 -11.2463
52.236879 92.549 -11.4230
52.615409 92.527 -11.6001
52.996681 92.505 -11.7765
53.380717 92.482 -11.9504
53.767536 92.459 -12.1201
54.157158 92.436 -12.2849
54.549603 92.413 -12.4451
54.944892 92.391 -12.6028
55.343045 92.370 -12.7604
55.744084 92.349 -12.9204
56.148028 92.329 -13.0846
56.554900 92.309 -13.2538
56.964720 92.289 -13.4280
57.377510 92.268 -13.6057
57.793291 92.247 -13.7849
58.212085 92.224 -13.9628
58.633914 92.201 -14.1369
59.058799 92.178 -14.3057
59.486764 92.154 -14.4695
59.917829 92.131 -14.6295
60.352019 92.108 -14.7870
60.789354 92.085 -14.9425
61.229859 92.062 -15.0959
61.673556 92.038 -15.2472
62.120468 92.015 -15.3966
62.570618 91.991 -15.5450
63.024031 91.967 -15.6935
63.480729 91.942 -15.8422
63.940736 91.917 -15.9907
64.404077 91.891 -16.1384
64.870776 91.864 -16.2848
65.340856 91.836 -16.4294
65.814343 91.807 -16.5717
66.291261 91.778 -16.7119
66.771635 91.749 -16.8512
67.255489 91.721 -16.9916
67.742850 91.692 -17.1351
68.233743 91.664 -17.2822
68.728193 91.635 -17.4316
69.226226 91.606 -17.5806
69.727867 91.577 -17.7267
70.233144 91.549 -17.8687
70.742083 91.521 -18.0062
71.254709 91.494 -18.1401
71.771050 91.467 -18.2714
72.291132 91.440 -18.4005
72.814984 91.414 -18.5277
73.342631 91.388 -18.6532
73.874102 91.361 -18.7780
74.409424 91.334 -18.9039
74.948626 91.306 -19.0310
75.491734 91.277 -19.1562
76.038779 91.246 -19.2750
76.589787 91.215 -19.3854
77.144788 91.185 -19.4910
77.703811 91.156 -19.5978
78.266885 91.128 -19.7098
78.834039 91.100 -19.8273
79.405303 91.073 -19.9496
79.980706 91.047 -20.0775
80.560280 91.022 -20.2141
81.144053 90.997 -20.3630
81.732056 90.971 -20.5261
82.324320 90.943 -20.7003
82.920876 90.911 -20.8760
83.521755 90.876 -21.0397
84.126988 90.837 -21.1812
84.736607 90.798 -21.2977
85.350643 90.759 -21.3932
85.969129 90.720 -21.4732
86.592097 90.682 -21.5417
87.219579 90.644 -21.6016
87.851608 90.607 -21.6541
88.488217 90.570 -21.7001
89.129439 90.534 -21.7413
89.775308 90.500 -21.7805
90.425856 90.466 -21.8213
91.081119 90.433 -21.8663
91.741131 90.400 -21.9163
92.405925 90.367 -21.9705
93.075536 90.333 -22.0273
93.750000 90.299 -22.0846
94.429351 90.265 -22.1403
95.113625 90.231 -22.1931
95.802858 90.197 -22.2435
96.497085 90.164 -22.2932
97.196342 90.131 -22.3433
97.900667 90.099 -22.3942
98.610096 90.066 -22.4444
99.324665 90.032 -22.4902
100.044413 89.998 -22.5261
100.769376 89.963 -22.5479
101.499592 89.929 -22.5562
102.235100 89.895 -22.5558
102.975938 89.863 -22.5542
103.722144 89.831 -22.5576
104.473757 89.799 -22.5681
105.230817 89.765 -22.5840
105.993363 89.732 -22.6024
106.761435 89.697 -22.6211
107.535072 89.662 -22.6388
108.314315 89.628 -22.6556
109.099206 89.594 -22.6721
109.889783 89.560 -22.6896
110.686090 89.528 -22.7084
111.488167 89.496 -22.7269
112.296056 89.464 -22.7408
113.109800 89.433 -22.7440
113.929440 89.402 -22.7300
114.755020 89.371 -22.6935
115.586582 89.342 -22.6312
116.424170 89.313 -22.5437
117.267827 89.287 -22.4374
118.117598 89.263 -22.3265
118.973527 89.240 -22.2324
119.835658 89.218 -22.1761
120.704037 89.192 -22.1643
121.578708 89.162 -22.1855
122.459718 89.128 -22.2230
123.347111 89.092 -22.2656
124.240935 89.057 -22.3094
125.141236 89.023 -22.3531
126.048061 88.990 -22.3945
126.961458 88.959 -22.4294
127.881473 88.929 -22.4538
128.808154 88.899 -22.4670
129.741551 88.868 -22.4711
130.681712 88.836 -22.4695
131.628686 88.803 -22.4658
132.582521 88.770 -22.4617
133.543269 88.736 -22.4568
134.510979 88.703 -22.4487
135.485701 88.671 -22.4359
136.467486 88.639 -22.4178
137.456386 88.609 -22.3948
138.452451 88.579 -22.3661
139.455735 88.548 -22.3311
140.466288 88.517 -22.2905
141.484165 88.486 -22.2473
142.509418 88.454 -22.2056
143.542100 88.423 -22.1688
144.582265 88.393 -22.1390
145.629968 88.363 -22.1158
146.685262 88.334 -22.0963
147.748204 88.304 -22.0762
148.818849 88.274 -22.0524
149.897251 88.242 -22.0232
150.983469 88.208 -21.9877
152.077557 88.171 -21.9440
153.179574 88.132 -21.8893
154.289576 88.092 -21.8230
155.407622 88.053 -21.7478
156.533770 88.015 -21.6685
157.668078 87.980 -21.5895
158.810606 87.946 -21.5137
159.961413 87.914 -21.4414
161.120559 87.882 -21.3729
162.288105 87.849 -21.3077
163.464112 87.816 -21.2455
164.648640 87.781 -21.1868
165.841752 87.745 -21.1329
167.043510 87.710 -21.0831
168.253976 87.673 -21.0334
169.473213 87.637 -20.9774
170.701286 87.600 -20.9100
171.938258 87.565 -20.8292
173.184194 87.530 -20.7371
174.439158 87.495 -20.6373
175.703216 87.462 -20.5337
176.976434 87.429 -20.4291
178.258878 87.396 -20.3248
179.550615 87.364 -20.2218
180.851713 87.333 -20.1206
182.162239 87.301 -20.0211
183.482262 87.269 -19.9233
184.811850 87.237 -19.8271
186.151073 87.205 -19.7318
187.500000 87.172 -19.6362
188.858702 87.139 -19.5391
190.227250 87.106 -19.4390
191.605715 87.073 -19.3351
192.994169 87.040 -19.2269
194.392685 87.007 -19.1141
195.801334 86.974 -18.9958
197.220191 86.942 -18.8712
198.649330 86.910 -18.7393
200.088825 86.878 -18.5994
201.538751 86.848 -18.4523
202.999184 86.818 -18.3003
204.470200 86.790 -18.1471
205.951875 86.762 -17.9970
207.444287 86.736 -17.8529
208.947514 86.708 -17.7153
210.461634 86.680 -17.5825
211.986726 86.651 -17.4505
213.522869 86.620 -17.3145
215.070144 86.588 -17.1692
216.628631 86.555 -17.0104
218.198411 86.522 -16.8368
219.779567 86.491 -16.6507
221.372180 86.461 -16.4580
222.976334 86.434 -16.2653
224.592112 86.407 -16.0776
226.219600 86.381 -15.8973
227.858880 86.356 -15.7243
229.510039 86.330 -15.5563
231.173164 86.303 -15.3907
232.848340 86.277 -15.2260
234.535655 86.250 -15.0622
236.235197 86.224 -14.9008
237.947054 86.198 -14.7426
239.671317 86.171 -14.5873
241.408074 86.143 -14.4333
243.157416 86.114 -14.2778
244.919435 86.084 -14.1177
246.694223 86.053 -13.9495
248.481871 86.021 -13.7697
250.282473 85.990 -13.5741
252.096123 85.960 -13.3608
253.922915 85.931 -13.1317
255.762945 85.905 -12.8934
257.616309 85.882 -12.6567
259.483103 85.862 -12.4320
261.363424 85.842 -12.2242
263.257372 85.822 -12.0312
265.165043 85.800 -11.8458
267.086538 85.777 -11.6598
269.021957 85.754 -11.4665
270.971401 85.729 -11.2621
272.934972 85.706 -11.0457
274.912771 85.683 -10.8188
276.904902 85.662 -10.5844
278.911469 85.643 -10.3447
280.932577 85.626 -10.1031
282.968330 85.611 -9.8636
285.018835 85.598 -9.6322
287.084199 85.587 -9.4158
289.164530 85.577 -9.2205
291.259935 85.565 -9.0468
293.370525 85.552 -8.8891
295.496408 85.536 -8.7369
297.637697 85.517 -8.5803
299.794503 85.496 -8.4135
301.966937 85.474 -8.2351
304.155114 85.451 -8.0469
306.359147 85.428 -7.8519
308.579152 85.405 -7.6532
310.815244 85.382 -7.4537
313.067539 85.358 -7.2546
315.336156 85.335 -7.0542
317.621211 85.310 -6.8478
319.922826 85.286 -6.6306
322.241118 85.261 -6.4006
324.576210 85.238 -6.1593
326.928223 85.215 -5.9103
329.297280 85.194 -5.6573
331.683504 85.174 -5.4033
334.087019 85.155 -5.1506
336.507952 85.136 -4.9012
338.946427 85.118 -4.6560
341.402572 85.099 -4.4139
343.876516 85.079 -4.1724
346.368387 85.059 -3.9287
348.878315 85.038 -3.6810
351.406431 85.018 -3.4294
353.952867 84.998 -3.1741
356.517756 84.978 -2.9160
359.101230 84.959 -2.6558
361.703426 84.940 -2.3938
364.324478 84.921 -2.1302
366.964523 84.902 -1.8650
369.623699 84.884 -1.5975
372.302145 84.866 -1.3274
375.000000 84.848 -1.0543
377.717405 84.830 -0.7781
380.454501 84.813 -0.4991
383.211431 84.796 -0.2177
385.988339 84.780 0.0663
388.785369 84.764 0.3530
391.602668 84.749 0.6422
394.440383 84.734 0.9336
397.298660 84.719 1.2266
400.177650 84.705 1.5198
403.077502 84.692 1.8126
405.998368 84.679 2.1039
408.940400 84.666 2.3938
411.903750 84.653 2.6838
414.888575 84.639 2.9767
417.895028 84.625 3.2758
420.923268 84.611 3.5835
423.973452 84.598 3.9006
427.045738 84.586 4.2260
430.140287 84.576 4.5554
433.257261 84.568 4.8842
436.396822 84.561 5.2094
439.559133 84.555 5.5309
442.744360 84.550 5.8489
445.952668 84.547 6.1613
449.184225 84.544 6.4628
452.439199 84.542 6.7472
455.717760 84.540 7.0110
459.020079 84.535 7.2584
462.346327 84.528 7.5004
465.696680 84.517 7.7489
469.071310 84.505 8.0116
472.470394 84.492 8.2900
475.894109 84.480 8.5815
479.342634 84.468 8.8806
482.816148 84.457 9.1813
486.314833 84.445 9.4816
489.838871 84.433 9.7859
493.388445 84.420 10.1022
496.963741 84.408 10.4347
500.564945 84.397 10.7799
504.192245 84.387 11.1300
507.845830 84.379 11.4775
511.525890 84.371 11.8194
515.232618 84.364 12.1566
518.966206 84.356 12.4926
522.726849 84.348 12.8319
526.514743 84.340 13.1791
530.330086 84.332 13.5363
534.173076 84.325 13.9014
538.043915 84.320 14.2695
541.942803 84.315 14.6383
545.869944 84.312 15.0084
549.825542 84.309 15.3809
553.809805 84.307 15.7543
557.822939 84.306 16.1254
561.865154 84.305 16.4921
565.936660 84.305 16.8546
570.037671 84.303 17.2157
574.168399 84.302 17.5793
578.329060 84.300 17.9479
582.519870 84.299 18.3215
586.741049 84.297 18.6997
590.992817 84.296 19.0846
595.275394 84.294 19.4784
599.589005 84.294 19.8809
603.933874 84.295 20.2881
608.310228 84.297 20.6960
612.718295 84.299 21.1027
617.158304 84.302 21.5099
621.630488 84.304 21.9234
626.135079 84.307 22.3490
630.672311 84.310 22.7886
635.242423 84.316 23.2377
639.845651 84.324 23.6902
644.482237 84.334 24.1443
649.152421 84.346 24.6012
653.856447 84.361 25.0599
658.594560 84.379 25.5142
663.367008 84.399 25.9542
668.174039 84.421 26.3721
673.015903 84.442 26.7676
677.892854 84.461 27.1479
682.805145 84.478 27.5218
687.753032 84.494 27.8962
692.736774 84.508 28.2768
697.756631 84.521 28.6683
702.812863 84.534 29.0728
707.905735 84.547 29.4880
713.035511 84.562 29.9095
718.202461 84.578 30.3336
723.406852 84.594 30.7590
728.648956 84.611 31.1859
733.929047 84.628 31.6150
739.247399 84.646 32.0475
744.604290 84.664 32.4844
750.000000 84.683 32.9266
755.434809 84.703 33.3744
760.909001 84.723 33.8268
766.422861 84.745 34.2830
771.976677 84.768 34.7417
777.570739 84.791 35.2020
783.205337 84.816 35.6637
788.880766 84.842 36.1278
794.597321 84.870 36.5974
800.355301 84.899 37.0753
806.155005 84.931 37.5602
811.996736 84.966 38.0462
817.880799 85.005 38.5244
823.807501 85.047 38.9852
829.777150 85.090 39.4204
835.790057 85.133 39.8279
841.846536 85.175 40.2143
847.946903 85.215 40.5901
854.091476 85.252 40.9639
860.280575 85.288 41.3399
866.514523 85.323 41.7216
872.793644 85.358 42.1124
879.118267 85.393 42.5124
885.488720 85.429 42.9174
891.905336 85.466 43.3236
898.368450 85.504 43.7305
904.878398 85.543 44.1406
911.435520 85.582 44.5550
918.040157 85.623 44.9721
924.692655 85.665 45.3891
931.393359 85.709 45.8026
938.142619 85.754 46.2087
944.940787 85.801 46.6057
951.788218 85.847 46.9948
958.685268 85.894 47.3790
965.632296 85.941 47.7613
972.629666 85.989 48.1444
979.677741 86.037 48.5296
986.776890 86.085 48.9168
993.927482 86.134 49.3077
1001.129891 86.184 49.7062
1008.384491 86.234 50.1158
1015.691660 86.287 50.5359
1023.051781 86.344 50.9623
1030.465236 86.404 51.3880
1037.932411 86.468 51.8022
1045.453698 86.534 52.1937
1053.029486 86.603 52.5577
1060.660172 86.670 52.8987
1068.346153 86.737 53.2255
1076.087829 86.803 53.5474
1083.885605 86.868 53.8700
1091.739887 86.934 54.1946
1099.651084 87.000 54.5197
1107.619609 87.068 54.8434
1115.645878 87.137 55.1638
1123.730308 87.207 55.4787
1131.873321 87.278 55.7863
1140.075341 87.351 56.0851
1148.336797 87.424 56.3746
1156.658119 87.498 56.6549
1165.039741 87.572 56.9281
1173.482099 87.647 57.1971
1181.985634 87.723 57.4634
1190.550789 87.802 57.7234
1199.178011 87.883 57.9683
1207.867749 87.967 58.1884
1216.620457 88.050 58.3795
1225.436590 88.132 58.5463
1234.316609 88.211 58.6979
1243.260976 88.288 58.8433
1252.270157 88.362 58.9897
1261.344623 88.435 59.1407
1270.484846 88.507 59.2966
1279.691303 88.578 59.4579
1288.964474 88.650 59.6253
1298.304842 88.722 59.7974
1307.712894 88.796 59.9711
1317.189120 88.870 60.1421
1326.734016 88.946 60.3073
1336.348077 89.023 60.4667
1346.031806 89.101 60.6227
1355.785708 89.179 60.7791
1365.610290 89.260 60.9404
1375.506065 89.342 61.1118
1385.473549 89.426 61.2985
1395.513261 89.514 61.5013
1405.625726 89.607 61.7146
1415.811469 89.705 61.9259
1426.071023 89.807 62.1203
1436.404921 89.912 62.2884
1446.813703 90.018 62.4294
1457.297912 90.123 62.5485
1467.858093 90.227 62.6516
1478.494798 90.330 62.7431
1489.208581 90.430 62.8260
1500.000000 90.529 62.9031
1510.869618 90.624 62.9774
1521.818002 90.716 63.0512
1532.845723 90.805 63.1266
1543.953355 90.892 63.2048
1555.141477 90.978 63.2858
1566.410674 91.064 63.3647
1577.761531 91.154 63.4303
1589.194642 91.246 63.4683
1600.710601 91.339 63.4689
1612.310010 91.433 63.4310
1623.993473 91.525 63.3595
1635.761599 91.616 63.2614
1647.615002 91.705 63.1428
1659.554299 91.793 63.0083
1671.580114 91.880 62.8608
1683.693072 91.967 62.7006
1695.893807 92.053 62.5253
1708.182952 92.139 62.3325
1720.561150 92.223 62.1220
1733.029045 92.304 61.8965
1745.587288 92.384 61.6606
1758.236533 92.461 61.4201
1770.977440 92.537 61.1797
1783.810673 92.614 60.9378
1796.736900 92.694 60.6848
1809.756796 92.776 60.4066
1822.871040 92.859 60.0923
1836.080315 92.942 59.7384
1849.385310 93.025 59.3465
1862.786718 93.105 58.9202
1876.285239 93.184 58.4643
1889.881575 93.261 57.9842
1903.576436 93.338 57.4850
1917.370535 93.417 56.9704
1931.264593 93.497 56.4417
1945.259332 93.581 55.8951
1959.355483 93.669 55.3200
1973.553781 93.757 54.7019
1987.854965 93.845 54.0303
2002.259781 93.928 53.3034
2016.768981 94.004 52.5273
2031.383320 94.071 51.7133
2046.103561 94.127 50.8754
2060.930471 94.174 50.0278
2075.864823 94.210 49.1833
2090.907395 94.235 48.3535
2106.058972 94.251 47.5507
2121.320344 94.257 46.7896
2136.692305 94.254 46.0867
2152.175658 94.245 45.4576
2167.771210 94.233 44.9106
2183.479774 94.222 44.4427
2199.302169 94.216 44.0412
2215.239219 94.216 43.6901
2231.291755 94.224 43.3715
2247.460615 94.242 43.0652
2263.746641 94.269 42.7493
2280.150683 94.306 42.4013
2296.673595 94.350 42.0009
2313.316238 94.400 41.5316
2330.079481 94.453 40.9805
2346.964198 94.506 40.3376
2363.971268 94.555 39.5986
2381.101578 94.595 38.7696
2398.356022 94.624 37.8669
2415.735498 94.640 36.9131
2433.240913 94.641 35.9328
2450.873180 94.628 34.9482
2468.633217 94.602 33.9768
2486.521951 94.564 33.0328
2504.540314 94.515 32.1292
2522.689246 94.457 31.2791
2540.969692 94.392 30.4926
2559.382606 94.324 29.7711
2577.928947 94.255 29.1045
2596.609683 94.187 28.4767
2615.425787 94.120 27.8716
2634.378241 94.052 27.2765
2653.468031 93.983 26.6853
2672.696154 93.911 26.0989
2692.063613 93.834 25.5236
2711.571415 93.754 24.9661
2731.220579 93.671 24.4279
2751.012130 93.584 23.9052
2770.947098 93.495 23.3937
2791.026522 93.400 22.8925
2811.251451 93.300 22.4052
2831.622938 93.193 21.9392
2852.142045 93.078 21.5039
2872.809842 92.955 21.1112
2893.627406 92.824 20.7775
2914.595823 92.685 20.5234
2935.716186 92.540 20.3682
2956.989596 92.394 20.3216
2978.417161 92.249 20.3832
3000.000000 92.109 20.5449
3021.739237 91.976 20.7942
3043.636005 91.853 21.1179
3065.691446 91.740 21.5037
3087.906710 91.638 21.9390
3110.282955 91.550 22.4070
3132.821347 91.476 22.8854
3155.523062 91.414 23.3511
3178.389283 91.363 23.7855
3201.421202 91.320 24.1777
3224.620020 91.282 24.5222
3247.986946 91.248 24.8179
3271.523198 91.215 25.0688
3295.230004 91.181 25.2848
3319.108599 91.146 25.4785
3343.160228 91.109 25.6578
3367.386145 91.072 25.8240
3391.787613 91.034 25.9752
3416.365904 90.994 26.1113
3441.122300 90.951 26.2383
3466.058091 90.905 26.3685
3491.174576 90.855 26.5161
3516.473066 90.803 26.6894
3541.954880 90.749 26.8899
3567.621345 90.696 27.1151
3593.473800 90.642 27.3611
3619.513592 90.588 27.6238
3645.742080 90.533 27.9009
3672.160630 90.477 28.1960
3698.770620 90.418 28.5191
3725.573436 90.358 28.8810
3752.570477 90.297 29.2875
3779.763150 90.237 29.7384
3807.152872 90.178 30.2321
3834.741071 90.120 30.7699
3862.529185 90.065 31.3568
3890.518664 90.014 31.9956
3918.710966 89.969 32.6805
3947.107561 89.933 33.3973
3975.709929 89.907 34.1276
4004.519563 89.890 34.8518
4033.537962 89.882 35.5539
4062.766641 89.879 36.2267
4092.207123 89.879 36.8739
4121.860942 89.882 37.5035
4151.729646 89.887 38.1224
4181.814790 89.894 38.7348
4212.117944 89.902 39.3465
4242.640687 89.911 39.9669
4273.384610 89.922 40.6061
4304.351317 89.937 41.2672
4335.542421 89.958 41.9444
4366.959549 89.985 42.6253
4398.604338 90.019 43.2943
4430.478438 90.059 43.9382
4462.583511 90.103 44.5526
4494.921231 90.151 45.1408
4527.493283 90.202 45.7077
4560.301365 90.256 46.2548
4593.347189 90.313 46.7827
4626.632476 90.373 47.2962
4660.158962 90.436 47.8033
4693.928395 90.504 48.3090
4727.942535 90.580 48.8101
4762.203156 90.664 49.2940
4796.712043 90.757 49.7404
4831.470996 90.860 50.1282
4866.481826 90.970 50.4424
4901.746360 91.085 50.6740
4937.266434 91.202 50.8156
4973.043902 91.320 50.8608
5009.080628 91.436 50.8093
5045.378492 91.547 50.6675
5081.939384 91.651 50.4451
5118.765212 91.747 50.1487
5155.857894 91.835 49.7799
5193.219366 91.912 49.3357
5230.851574 91.976 48.8160
5268.756481 92.021 48.2319
5306.936062 92.043 47.6074
5345.392309 92.039 46.9795
5384.127225 92.004 46.4014
5423.142830 91.940 45.9459
5462.441159 91.849 45.6986
5502.024259 91.741 45.7420
5541.894195 91.632 46.1306
5582.053045 91.543 46.8658
5622.502902 91.491 47.8820
5663.245876 91.492 49.0558
5704.284090 91.547 50.2322
5745.619684 91.651 51.2640
5787.254813 91.789 52.0486
5829.191647 91.945 52.5473
5871.432373 92.102 52.7780
5913.979192 92.251 52.7940
5956.834323 92.386 52.6586
6000.000000 92.507 52.4279
6043.478473 92.617 52.1431
6087.272010 92.716 51.8281
6131.382892 92.809 51.4903
6175.813420 92.896 51.1266
6220.565910 92.976 50.7344
6265.642695 93.050 50.3174
6311.046124 93.116 49.8865
6356.778566 93.174 49.4551
6402.842404 93.226 49.0351
6449.240040 93.272 48.6354
6495.973891 93.315 48.2614
6543.046396 93.355 47.9134
6590.460007 93.395 47.5897
6638.217197 93.433 47.2913
6686.320456 93.471 47.0230
6734.772290 93.510 46.7918
6783.575226 93.552 46.6035
6832.731809 93.597 46.4616
6882.244600 93.647 46.3664
6932.116181 93.706 46.3123
6982.349153 93.774 46.2894
7032.946133 93.854 46.2857
7083.909760 93.949 46.2886
7135.242690 94.060 46.2819
7186.947600 94.191 46.2437
7239.027185 94.344 46.1465
7291.484160 94.519 45.9570
7344.321260 94.717 45.6365
7397.541239 94.935 45.1461
7451.146872 95.170 44.4508
7505.140954 95.421 43.5197
7559.526299 95.682 42.3232
7614.305743 95.950 40.8325
7669.482141 96.219 39.0173
7725.058371 96.484 36.8465
7781.037328 96.734 34.2938
7837.421932 96.960 31.3469
7894.215122 97.149 28.0137
7951.419859 97.292 24.3250
8009.039125 97.377 20.3343
8067.075924 97.395 16.1160
8125.533282 97.342 11.7607
8184.414245 97.213 7.3716
8243.721885 97.005 3.0614
8303.459292 96.722 -1.0529
8363.629581 96.368 -4.8602
8424.235888 95.952 -8.2657
8485.281374 95.488 -11.2028
8546.769221 94.991 -13.6407
8608.702634 94.476 -15.5844
8671.084842 93.957 -17.0642
8733.919097 93.446 -18.1255
8797.208675 92.951 -18.8182
8860.956876 92.479 -19.1920
8925.167022 92.036 -19.2974
8989.842461 91.626 -19.1874
9054.986566 91.251 -18.9146
9120.602731 90.913 -18.5270
9186.694378 90.613 -18.0663
9253.264952 90.348 -17.5692
9320.317925 90.121 -17.0735
9387.856790 89.930 -16.6240
9455.885071 89.773 -16.2686
9524.406312 89.647 -16.0517
9593.424086 89.544 -16.0049
9662.941992 89.459 -16.1426
9732.963653 89.385 -16.4664
9803.492719 89.318 -16.9742
9874.532869 89.253 -17.6640
9946.087805 89.186 -18.5357
10018.161257 89.112 -19.5867
10090.756983 89.026 -20.8097
10163.878768 88.923 -22.1946
10237.530423 88.798 -23.7300
10311.715789 88.646 -25.4009
10386.438732 88.461 -27.1829
10461.703149 88.236 -29.0364
10537.512962 87.967 -30.9070
10613.872125 87.648 -32.7322
10690.784618 87.281 -34.4442
10768.254450 86.864 -35.9734
10846.285661 86.402 -37.2476
10924.882318 85.899 -38.1955
11004.048518 85.364 -38.7585
11083.788390 84.811 -38.9017
11164.106090 84.250 -38.6178
11245.005805 83.695 -37.9203
11326.491752 83.156 -36.8344
11408.568180 82.643 -35.3936
11491.239368 82.163 -33.6411
11574.509626 81.724 -31.6309
11658.383294 81.332 -29.4219
11742.864745 80.988 -27.0740
11827.958384 80.696 -24.6505
11913.668646 80.454 -22.2220
12000.000000 80.261 -19.8636
12086.956947 80.110 -17.6411
12174.544019 79.990 -15.5988
12262.765784 79.892 -13.7537
12351.626840 79.804 -12.0969
12441.131819 79.716 -10.5920
12531.285389 79.621 -9.1748
12622.092249 79.514 -7.7621
12713.557132 79.398 -6.2687
12805.684808 79.280 -4.6258
12898.480079 79.168 -2.7888
12991.947783 79.076 -0.7397
13086.092792 79.015 1.5100
13180.920015 78.997 3.9152
13276.434395 79.031 6.4037
13372.640911 79.119 8.8943
13469.544580 79.262 11.3131
13567.150452 79.459 13.5988
13665.463617 79.707 15.7030
13764.489200 80.004 17.5886
13864.232362 80.348 19.2225
13964.698305 80.740 20.5605
14065.892266 81.177 21.5382
14167.819519 81.652 22.0796
14270.485380 82.154 22.1153
14373.895200 82.667 21.5988
14478.054370 83.174 20.5183
14582.968320 83.659 18.9059
14688.642520 84.110 16.8337
14795.082478 84.522 14.3965
14902.293745 84.900 11.6894
15010.281908 85.252 8.7882
15119.052599 85.596 5.7323
15228.611486 85.947 2.5105
15338.964283 86.319 -0.9418
15450.116741 86.715 -4.7274
15562.074656 87.128 -8.9634
15674.843864 87.541 -13.7543
15788.430244 87.927 -19.1707
15902.839718 88.259 -25.2344
16018.078250 88.507 -31.9143
16134.151848 88.647 -39.1290
16251.066563 88.655 -46.7509
16368.828491 88.514 -54.6105
16487.443769 88.214 -62.5084
16606.918584 87.753 -70.2369
16727.259161 87.140 -77.6040
16848.471777 86.390 -84.4537
16970.562748 85.522 -90.6801
17093.538442 84.562 -96.2303
17217.405268 83.533 -101.0957
17342.169684 82.458 -105.3026
17467.838194 81.355 -108.9034
17594.417350 80.240 -111.9669
17721.913751 79.122 -114.5673
17850.334044 78.005 -116.7771
17979.684923 76.887 -118.6542
18109.973131 75.761 -120.2238
18241.205462 74.614 -121.4600
18373.388756 73.435 -122.2700
18506.529905 72.210 -122.4855
18640.635849 70.935 -121.8741
18775.713581 69.617 -120.1776
18911.770141 68.276 -117.1784
19048.812624 66.948 -112.7947
19186.848172 65.677 -107.1759
19325.883983 64.511 -100.7276
19465.927305 63.487 -94.0269
19606.985439 62.634 -87.6745
19749.065738 61.970 -82.2106
19892.175609 61.513 -78.1349
20036.322514 61.280 -75.9261
