* Measurement data measured by REW V5.31.3
* Source: EXCL: Microphone (USB Sound Device        ), MICROPHONE (Master Volume), R, volume: 0.390
* Format: 256k Log Swept Sine, 1 sweep at -12.0 dBFS with no timing reference
* Dated: Jul 10, 2025 12:00:18 AM
* REW Settings:
*  C-weighting compensation: Off
*  Target level: 75.0 dB
* Note: Plunge Dynamic L
* Measurement: L Jul 10
* Smoothing: 1/12 octave
* Frequency Step: 96 ppo
* Start Frequency: 0.36621094 Hz
*
* Freq(Hz) SPL(dB) Phase(degrees)
0.366211 93.194 160.3750
0.368865 93.188 160.3546
0.371538 93.179 160.3240
0.374230 93.168 160.2856
0.376942 93.156 160.2413
0.379673 93.143 160.1926
0.382424 93.129 160.1404
0.385196 93.115 160.0854
0.387987 93.101 160.0279
0.390798 93.087 159.9681
0.393630 93.072 159.9060
0.396483 93.057 159.8417
0.399356 93.043 159.7752
0.402250 93.028 159.7064
0.405165 93.013 159.6355
0.408101 92.997 159.5622
0.411058 92.982 159.4867
0.414037 92.967 159.4090
0.417037 92.951 159.3288
0.420059 92.936 159.2464
0.423103 92.920 159.1616
0.426169 92.904 159.0744
0.429257 92.888 158.9849
0.432368 92.872 158.8929
0.435501 92.856 158.7984
0.438656 92.840 158.7016
0.441835 92.823 158.6022
0.445037 92.807 158.5004
0.448262 92.790 158.3960
0.451510 92.773 158.2891
0.454782 92.756 158.1796
0.458077 92.739 158.0676
0.461397 92.722 157.9530
0.464740 92.705 157.8358
0.468108 92.687 157.7160
0.471500 92.670 157.5935
0.474917 92.652 157.4684
0.478358 92.634 157.3407
0.481825 92.617 157.2103
0.485316 92.599 157.0772
0.488833 92.580 156.9414
0.492375 92.562 156.8030
0.495943 92.544 156.6618
0.499537 92.525 156.5179
0.503157 92.506 156.3714
0.506803 92.488 156.2221
0.510475 92.469 156.0701
0.514175 92.449 155.9153
0.517900 92.430 155.7579
0.521653 92.411 155.5977
0.525434 92.391 155.4348
0.529241 92.372 155.2693
0.533076 92.352 155.1010
0.536939 92.332 154.9300
0.540830 92.312 154.7564
0.544749 92.292 154.5801
0.548696 92.271 154.4012
0.552673 92.251 154.2197
0.556677 92.230 154.0356
0.560711 92.209 153.8488
0.564774 92.188 153.6596
0.568867 92.167 153.4678
0.572989 92.146 153.2736
0.577141 92.124 153.0769
0.581324 92.103 152.8779
0.585536 92.081 152.6765
0.589779 92.059 152.4727
0.594053 92.037 152.2668
0.598358 92.015 152.0586
0.602694 91.992 151.8483
0.607061 91.970 151.6359
0.611460 91.947 151.4216
0.615891 91.924 151.2053
0.620354 91.901 150.9872
0.624849 91.878 150.7673
0.629377 91.854 150.5458
0.633938 91.831 150.3227
0.638532 91.807 150.0982
0.643159 91.783 149.8723
0.647819 91.759 149.6452
0.652514 91.735 149.4170
0.657242 91.711 149.1878
0.662005 91.686 148.9578
0.666802 91.661 148.7271
0.671634 91.636 148.4958
0.676501 91.611 148.2642
0.681403 91.586 148.0324
0.686341 91.560 147.8006
0.691314 91.534 147.5689
0.696324 91.508 147.3376
0.701370 91.482 147.1067
0.706452 91.455 146.8765
0.711571 91.428 146.6470
0.716728 91.400 146.4181
0.721921 91.371 146.1898
0.727153 91.340 145.9615
0.732422 91.308 145.7325
0.737729 91.273 145.5022
0.743075 91.236 145.2693
0.748460 91.197 145.0334
0.753883 91.158 144.7935
0.759346 91.117 144.5494
0.764849 91.075 144.3007
0.770391 91.033 144.0472
0.775974 90.990 143.7888
0.781597 90.947 143.5254
0.787261 90.903 143.2569
0.792966 90.859 142.9832
0.798712 90.814 142.7043
0.804500 90.768 142.4202
0.810329 90.722 142.1307
0.816201 90.676 141.8360
0.822116 90.628 141.5358
0.828073 90.580 141.2302
0.834074 90.532 140.9191
0.840118 90.482 140.6026
0.846206 90.432 140.2807
0.852338 90.381 139.9532
0.858514 90.329 139.6202
0.864735 90.276 139.2818
0.871001 90.222 138.9379
0.877313 90.168 138.5885
0.883670 90.112 138.2337
0.890074 90.055 137.8735
0.896524 89.997 137.5079
0.903020 89.938 137.1371
0.909564 89.877 136.7611
0.916155 89.816 136.3800
0.922794 89.753 135.9939
0.929481 89.688 135.6028
0.936216 89.622 135.2071
0.943000 89.555 134.8067
0.949834 89.486 134.4020
0.956717 89.415 133.9930
0.963649 89.343 133.5800
0.970632 89.269 133.1633
0.977666 89.194 132.7432
0.984750 89.116 132.3198
0.991886 89.036 131.8937
0.999074 88.955 131.4651
1.006314 88.871 131.0345
1.013606 88.785 130.6022
1.020951 88.696 130.1689
1.028349 88.606 129.7349
1.035801 88.513 129.3009
1.043307 88.417 128.8674
1.050867 88.319 128.4352
1.058482 88.218 128.0048
1.066152 88.114 127.5769
1.073878 88.008 127.1521
1.081660 87.898 126.7308
1.089498 87.786 126.3134
1.097393 87.671 125.8998
1.105345 87.553 125.4897
1.113355 87.432 125.0827
1.121423 87.309 124.6782
1.129549 87.183 124.2756
1.137734 87.055 123.8744
1.145979 86.924 123.4743
1.154283 86.790 123.0747
1.162647 86.654 122.6755
1.171072 86.515 122.2762
1.179558 86.374 121.8765
1.188106 86.229 121.4760
1.196715 86.082 121.0745
1.205387 85.932 120.6714
1.214122 85.778 120.2665
1.222920 85.622 119.8592
1.231782 85.462 119.4491
1.240708 85.299 119.0357
1.249699 85.132 118.6186
1.258754 84.963 118.1971
1.267876 84.789 117.7706
1.277063 84.612 117.3385
1.286318 84.431 116.9002
1.295639 84.247 116.4549
1.305027 84.058 116.0018
1.314484 83.865 115.5401
1.324009 83.669 115.0688
1.333604 83.468 114.5871
1.343268 83.262 114.0938
1.353002 83.053 113.5878
1.362806 82.838 113.0680
1.372681 82.619 112.5331
1.382628 82.395 111.9816
1.392647 82.167 111.4123
1.402739 81.933 110.8236
1.412904 81.693 110.2139
1.423142 81.448 109.5819
1.433455 81.195 108.9261
1.443843 80.936 108.2454
1.454305 80.667 107.5388
1.464844 80.387 106.8056
1.475459 80.093 106.0452
1.486150 79.783 105.2565
1.496920 79.455 104.4376
1.507767 79.107 103.5855
1.518693 78.741 102.6963
1.529698 78.355 101.7645
1.540783 77.951 100.7834
1.551948 77.530 99.7449
1.563194 77.094 98.6386
1.574521 76.645 97.4521
1.585931 76.184 96.1699
1.597423 75.713 94.7725
1.608999 75.236 93.2353
1.620658 74.754 91.5268
1.632402 74.270 89.6061
1.644232 73.786 87.4196
1.656146 73.306 84.8956
1.668147 72.832 81.9377
1.680235 72.368 78.4143
1.692411 71.918 74.1455
1.704675 71.484 68.8868
1.717028 71.072 62.3179
1.729470 70.685 54.0600
1.742003 70.328 43.7760
1.754626 70.006 31.4324
1.767341 69.724 17.6591
1.780147 69.487 3.7816
1.793047 69.301 -8.8215
1.806040 69.172 -19.4231
1.819128 69.104 -27.9983
1.832310 69.102 -34.8722
1.845587 69.168 -40.4338
1.858961 69.304 -45.0145
1.872432 69.508 -48.8635
1.886001 69.778 -52.1598
1.899667 70.110 -55.0301
1.913433 70.499 -57.5650
1.927299 70.939 -59.8300
1.941265 71.425 -61.8735
1.955332 71.951 -63.7318
1.969501 72.510 -65.4327
1.983773 73.097 -66.9978
1.998148 73.705 -68.4441
2.012627 74.328 -69.7850
2.027212 74.959 -71.0314
2.041902 75.592 -72.1919
2.056698 76.222 -73.2737
2.071602 76.841 -74.2827
2.086614 77.444 -75.2238
2.101734 78.026 -76.1012
2.116964 78.580 -76.9189
2.132304 79.102 -77.6807
2.147756 79.588 -78.3907
2.163320 80.035 -79.0541
2.178996 80.443 -79.6770
2.194786 80.813 -80.2672
2.210690 81.147 -80.8330
2.226710 81.450 -81.3827
2.242845 81.724 -81.9224
2.259098 81.974 -82.4561
2.275468 82.201 -82.9856
2.291957 82.408 -83.5115
2.308566 82.596 -84.0331
2.325295 82.768 -84.5492
2.342145 82.924 -85.0582
2.359117 83.066 -85.5581
2.376212 83.196 -86.0472
2.393431 83.316 -86.5232
2.410775 83.427 -86.9841
2.428244 83.531 -87.4276
2.445840 83.631 -87.8517
2.463564 83.727 -88.2543
2.481416 83.823 -88.6334
2.499397 83.918 -88.9876
2.517509 84.015 -89.3159
2.535752 84.114 -89.6183
2.554127 84.214 -89.8956
2.572635 84.314 -90.1500
2.591277 84.414 -90.3843
2.610055 84.510 -90.6013
2.628968 84.603 -90.8032
2.648019 84.691 -90.9917
2.667208 84.773 -91.1676
2.686535 84.852 -91.3315
2.706003 84.925 -91.4836
2.725612 84.995 -91.6236
2.745363 85.062 -91.7514
2.765257 85.125 -91.8666
2.785295 85.187 -91.9687
2.805478 85.248 -92.0572
2.825808 85.308 -92.1315
2.846285 85.367 -92.1909
2.866910 85.428 -92.2346
2.887685 85.489 -92.2620
2.908611 85.551 -92.2720
2.929688 85.615 -92.2641
2.950917 85.678 -92.2377
2.972301 85.742 -92.1925
2.993839 85.805 -92.1290
3.015534 85.867 -92.0481
3.037386 85.929 -91.9513
3.059396 85.991 -91.8401
3.081565 86.052 -91.7166
3.103896 86.113 -91.5828
3.126388 86.174 -91.4407
3.149043 86.236 -91.2925
3.171862 86.299 -91.1402
3.194847 86.363 -90.9857
3.217998 86.429 -90.8306
3.241317 86.497 -90.6759
3.264805 86.567 -90.5217
3.288463 86.639 -90.3676
3.312293 86.714 -90.2121
3.336295 86.792 -90.0540
3.360471 86.872 -89.8926
3.384822 86.953 -89.7284
3.409350 87.037 -89.5626
3.434056 87.123 -89.3976
3.458940 87.210 -89.2362
3.484005 87.298 -89.0813
3.509252 87.387 -88.9361
3.534681 87.477 -88.8039
3.560295 87.567 -88.6874
3.586094 87.658 -88.5892
3.612081 87.749 -88.5112
3.638255 87.841 -88.4545
3.664620 87.933 -88.4190
3.691175 88.026 -88.4040
3.717923 88.119 -88.4083
3.744864 88.213 -88.4306
3.772001 88.307 -88.4701
3.799335 88.402 -88.5261
3.826866 88.496 -88.5985
3.854597 88.590 -88.6873
3.882529 88.684 -88.7924
3.910664 88.776 -88.9142
3.939002 88.866 -89.0532
3.967546 88.955 -89.2097
3.996296 89.041 -89.3846
4.025255 89.126 -89.5782
4.054423 89.208 -89.7912
4.083804 89.287 -90.0236
4.113396 89.365 -90.2747
4.143204 89.441 -90.5433
4.173227 89.514 -90.8279
4.203468 89.585 -91.1264
4.233928 89.654 -91.4371
4.264609 89.719 -91.7579
4.295512 89.783 -92.0874
4.326639 89.843 -92.4245
4.357992 89.900 -92.7689
4.389572 89.954 -93.1210
4.421380 90.004 -93.4816
4.453419 90.051 -93.8516
4.485691 90.094 -94.2310
4.518196 90.135 -94.6191
4.550936 90.171 -95.0141
4.583914 90.205 -95.4135
4.617131 90.236 -95.8147
4.650589 90.264 -96.2151
4.684289 90.289 -96.6123
4.718233 90.312 -97.0046
4.752424 90.331 -97.3912
4.786862 90.348 -97.7723
4.821549 90.362 -98.1486
4.856488 90.372 -98.5205
4.891680 90.380 -98.8881
4.927127 90.386 -99.2507
4.962831 90.389 -99.6073
4.998794 90.391 -99.9565
5.035017 90.391 -100.2965
5.071503 90.390 -100.6258
5.108253 90.388 -100.9433
5.145270 90.385 -101.2482
5.182555 90.381 -101.5403
5.220110 90.376 -101.8201
5.257937 90.370 -102.0885
5.296038 90.364 -102.3467
5.334415 90.358 -102.5958
5.373071 90.352 -102.8368
5.412006 90.347 -103.0706
5.451224 90.343 -103.2974
5.490725 90.341 -103.5175
5.530514 90.340 -103.7305
5.570590 90.341 -103.9369
5.610957 90.343 -104.1375
5.651616 90.346 -104.3343
5.692570 90.351 -104.5299
5.733821 90.358 -104.7269
5.775370 90.367 -104.9281
5.817221 90.378 -105.1357
5.859375 90.391 -105.3509
5.901834 90.407 -105.5745
5.944602 90.424 -105.8068
5.987679 90.444 -106.0486
6.031068 90.465 -106.3011
6.074771 90.488 -106.5660
6.118792 90.512 -106.8453
6.163131 90.537 -107.1409
6.207792 90.564 -107.4543
6.252776 90.590 -107.7864
6.298086 90.618 -108.1373
6.343725 90.646 -108.5065
6.389694 90.675 -108.8935
6.435996 90.703 -109.2973
6.482634 90.731 -109.7173
6.529610 90.759 -110.1530
6.576926 90.786 -110.6043
6.624585 90.812 -111.0709
6.672590 90.836 -111.5525
6.720942 90.860 -112.0479
6.769645 90.882 -112.5553
6.818700 90.903 -113.0723
6.868111 90.923 -113.5965
6.917881 90.941 -114.1260
6.968010 90.958 -114.6595
7.018504 90.973 -115.1960
7.069362 90.987 -115.7348
7.120590 90.999 -116.2743
7.172189 91.010 -116.8125
7.224161 91.020 -117.3473
7.276511 91.030 -117.8764
7.329239 91.039 -118.3983
7.382350 91.048 -118.9119
7.435845 91.056 -119.4169
7.489729 91.064 -119.9128
7.544002 91.073 -120.3992
7.598669 91.082 -120.8755
7.653732 91.092 -121.3412
7.709194 91.104 -121.7959
7.765058 91.117 -122.2394
7.821327 91.131 -122.6723
7.878004 91.147 -123.0956
7.935091 91.165 -123.5104
7.992592 91.185 -123.9180
8.050510 91.208 -124.3194
8.108847 91.232 -124.7153
8.167607 91.259 -125.1066
8.226793 91.289 -125.4942
8.286408 91.320 -125.8798
8.346454 91.354 -126.2647
8.406936 91.389 -126.6502
8.467856 91.426 -127.0372
8.529218 91.465 -127.4261
8.591024 91.505 -127.8172
8.653278 91.546 -128.2107
8.715983 91.588 -128.6067
8.779143 91.630 -129.0052
8.842760 91.673 -129.4063
8.906839 91.716 -129.8093
8.971381 91.759 -130.2133
9.036392 91.802 -130.6173
9.101873 91.844 -131.0199
9.167829 91.885 -131.4202
9.234263 91.926 -131.8171
9.301178 91.965 -132.2096
9.368578 92.004 -132.5963
9.436467 92.042 -132.9759
9.504847 92.079 -133.3470
9.573723 92.115 -133.7087
9.643099 92.151 -134.0602
9.712976 92.185 -134.4010
9.783361 92.219 -134.7306
9.854255 92.253 -135.0485
9.925663 92.286 -135.3546
9.997588 92.319 -135.6488
10.070035 92.352 -135.9316
10.143007 92.384 -136.2035
10.216507 92.416 -136.4651
10.290540 92.449 -136.7171
10.365109 92.481 -136.9601
10.440219 92.514 -137.1951
10.515873 92.546 -137.4230
10.592076 92.578 -137.6447
10.668830 92.610 -137.8610
10.746141 92.641 -138.0726
10.824012 92.672 -138.2800
10.902447 92.703 -138.4838
10.981451 92.732 -138.6845
11.061027 92.761 -138.8823
11.141180 92.789 -139.0775
11.221913 92.816 -139.2700
11.303232 92.842 -139.4598
11.385140 92.867 -139.6471
11.467641 92.890 -139.8317
11.550741 92.912 -140.0136
11.634442 92.934 -140.1929
11.718750 92.953 -140.3696
11.803669 92.972 -140.5439
11.889203 92.989 -140.7158
11.975357 93.006 -140.8859
12.062136 93.021 -141.0545
12.149543 93.035 -141.2220
12.237583 93.048 -141.3889
12.326262 93.060 -141.5557
12.415583 93.071 -141.7230
12.505552 93.081 -141.8913
12.596172 93.090 -142.0609
12.687449 93.098 -142.2323
12.779387 93.104 -142.4058
12.871992 93.110 -142.5815
12.965268 93.114 -142.7596
13.059220 93.117 -142.9402
13.153852 93.120 -143.1232
13.249170 93.121 -143.3085
13.345179 93.121 -143.4964
13.441884 93.121 -143.6868
13.539289 93.120 -143.8799
13.637401 93.119 -144.0760
13.736223 93.117 -144.2754
13.835761 93.115 -144.4788
13.936021 93.113 -144.6868
14.037007 93.111 -144.9001
14.138725 93.109 -145.1196
14.241180 93.107 -145.3462
14.344377 93.106 -145.5807
14.448323 93.104 -145.8237
14.553021 93.103 -146.0757
14.658478 93.103 -146.3372
14.764700 93.102 -146.6080
14.871691 93.101 -146.8879
14.979457 93.100 -147.1764
15.088005 93.099 -147.4725
15.197339 93.098 -147.7753
15.307465 93.097 -148.0833
15.418389 93.096 -148.3951
15.530117 93.095 -148.7094
15.642655 93.094 -149.0248
15.756008 93.093 -149.3400
15.870182 93.093 -149.6539
15.985184 93.094 -149.9658
16.101019 93.096 -150.2751
16.217694 93.099 -150.5816
16.335214 93.103 -150.8853
16.453586 93.109 -151.1863
16.572815 93.116 -151.4850
16.692909 93.125 -151.7818
16.813872 93.135 -152.0770
16.935713 93.147 -152.3707
17.058436 93.160 -152.6631
17.182048 93.174 -152.9539
17.306556 93.189 -153.2427
17.431967 93.204 -153.5289
17.558286 93.220 -153.8115
17.685521 93.236 -154.0897
17.813677 93.252 -154.3623
17.942762 93.269 -154.6283
18.072783 93.285 -154.8865
18.203746 93.301 -155.1362
18.335658 93.317 -155.3766
18.468526 93.333 -155.6073
18.602356 93.349 -155.8280
18.737156 93.365 -156.0388
18.872934 93.381 -156.2398
19.009695 93.396 -156.4316
19.147447 93.411 -156.6147
19.286197 93.426 -156.7901
19.425953 93.441 -156.9586
19.566721 93.455 -157.1211
19.708510 93.469 -157.2785
19.851326 93.481 -157.4319
19.995177 93.493 -157.5820
20.140070 93.504 -157.7294
20.286013 93.514 -157.8747
20.433014 93.522 -158.0182
20.581080 93.529 -158.1601
20.730219 93.534 -158.3004
20.880439 93.538 -158.4392
21.031747 93.540 -158.5763
21.184152 93.541 -158.7119
21.337661 93.540 -158.8460
21.492282 93.539 -158.9793
21.648024 93.536 -159.1124
21.804895 93.533 -159.2466
21.962902 93.530 -159.3831
22.122054 93.526 -159.5233
22.282360 93.521 -159.6690
22.443827 93.517 -159.8214
22.606464 93.512 -159.9817
22.770280 93.507 -160.1505
22.935283 93.502 -160.3281
23.101481 93.496 -160.5142
23.268884 93.490 -160.7079
23.437500 93.483 -160.9083
23.607338 93.476 -161.1140
23.778406 93.470 -161.3240
23.950714 93.463 -161.5371
24.124271 93.457 -161.7527
24.299086 93.452 -161.9702
24.475167 93.448 -162.1895
24.652524 93.445 -162.4107
24.831166 93.443 -162.6338
25.011103 93.442 -162.8590
25.192344 93.443 -163.0860
25.374898 93.445 -163.3143
25.558775 93.447 -163.5432
25.743984 93.451 -163.7715
25.930536 93.455 -163.9980
26.118439 93.460 -164.2215
26.307704 93.465 -164.4407
26.498341 93.471 -164.6545
26.690359 93.477 -164.8622
26.883768 93.484 -165.0631
27.078579 93.491 -165.2570
27.274801 93.498 -165.4437
27.472446 93.505 -165.6235
27.671522 93.512 -165.7965
27.872042 93.519 -165.9630
28.074014 93.526 -166.1234
28.277450 93.532 -166.2780
28.482360 93.538 -166.4272
28.688755 93.542 -166.5713
28.896645 93.546 -166.7106
29.106042 93.549 -166.8457
29.316957 93.551 -166.9771
29.529400 93.552 -167.1055
29.743382 93.552 -167.2318
29.958915 93.552 -167.3572
30.176009 93.551 -167.4827
30.394677 93.549 -167.6097
30.614929 93.546 -167.7392
30.836778 93.543 -167.8721
31.060234 93.540 -168.0093
31.285309 93.536 -168.1512
31.512015 93.532 -168.2981
31.740364 93.527 -168.4504
31.970368 93.522 -168.6081
32.202039 93.517 -168.7715
32.435388 93.513 -168.9402
32.670428 93.508 -169.1142
32.907171 93.503 -169.2927
33.145630 93.499 -169.4751
33.385817 93.495 -169.6603
33.627745 93.491 -169.8472
33.871425 93.488 -170.0349
34.116871 93.485 -170.2225
34.364096 93.483 -170.4092
34.613113 93.481 -170.5945
34.863934 93.480 -170.7776
35.116572 93.478 -170.9577
35.371041 93.478 -171.1339
35.627354 93.477 -171.3053
35.885525 93.476 -171.4714
36.145566 93.476 -171.6318
36.407492 93.476 -171.7868
36.671316 93.476 -171.9372
36.937051 93.476 -172.0843
37.204712 93.476 -172.2292
37.474313 93.475 -172.3728
37.745867 93.475 -172.5160
38.019389 93.473 -172.6587
38.294893 93.471 -172.8009
38.572394 93.468 -172.9424
38.851905 93.464 -173.0827
39.133442 93.459 -173.2219
39.417019 93.454 -173.3601
39.702651 93.449 -173.4977
39.990353 93.443 -173.6351
40.280140 93.438 -173.7730
40.572026 93.432 -173.9119
40.866028 93.426 -174.0521
41.162160 93.421 -174.1938
41.460438 93.415 -174.3369
41.760877 93.410 -174.4812
42.063494 93.405 -174.6265
42.368303 93.401 -174.7725
42.675322 93.396 -174.9190
42.984565 93.392 -175.0659
43.296048 93.388 -175.2131
43.609789 93.384 -175.3601
43.925804 93.380 -175.5064
44.244108 93.376 -175.6515
44.564719 93.372 -175.7950
44.887654 93.367 -175.9367
45.212928 93.363 -176.0765
45.540560 93.358 -176.2146
45.870565 93.353 -176.3515
46.202962 93.348 -176.4873
46.537768 93.343 -176.6222
46.875000 93.338 -176.7563
47.214676 93.332 -176.8900
47.556813 93.327 -177.0236
47.901429 93.321 -177.1574
48.248542 93.316 -177.2917
48.598171 93.310 -177.4266
48.950334 93.305 -177.5620
49.305048 93.299 -177.6973
49.662333 93.293 -177.8322
50.022206 93.288 -177.9662
50.384688 93.282 -178.0991
50.749796 93.277 -178.2307
51.117550 93.271 -178.3606
51.487969 93.265 -178.4883
51.861072 93.259 -178.6132
52.236879 93.253 -178.7351
52.615409 93.248 -178.8542
52.996681 93.242 -178.9714
53.380717 93.236 -179.0879
53.767536 93.231 -179.2046
54.157158 93.225 -179.3221
54.549603 93.220 -179.4406
54.944892 93.214 -179.5604
55.343045 93.209 -179.6817
55.744084 93.205 -179.8052
56.148028 93.200 -179.9319
56.554900 93.196 179.9372
56.964720 93.193 179.8014
57.377510 93.189 179.6604
57.793291 93.186 179.5144
58.212085 93.181 179.3647
58.633914 93.177 179.2133
59.058799 93.171 179.0629
59.486764 93.165 178.9159
59.917829 93.158 178.7737
60.352019 93.151 178.6367
60.789354 93.143 178.5038
61.229859 93.135 178.3736
61.673556 93.128 178.2449
62.120468 93.119 178.1168
62.570618 93.111 177.9888
63.024031 93.102 177.8608
63.480729 93.093 177.7324
63.940736 93.084 177.6031
64.404077 93.074 177.4730
64.870776 93.064 177.3423
65.340856 93.055 177.2117
65.814343 93.045 177.0818
66.291261 93.036 176.9528
66.771635 93.027 176.8248
67.255489 93.018 176.6978
67.742850 93.009 176.5718
68.233743 93.000 176.4474
68.728193 92.991 176.3250
69.226226 92.982 176.2047
69.727867 92.973 176.0861
70.233144 92.964 175.9688
70.742083 92.956 175.8520
71.254709 92.947 175.7346
71.771050 92.938 175.6159
72.291132 92.929 175.4958
72.814984 92.919 175.3747
73.342631 92.910 175.2536
73.874102 92.900 175.1326
74.409424 92.891 175.0114
74.948626 92.882 174.8896
75.491734 92.873 174.7672
76.038779 92.864 174.6445
76.589787 92.856 174.5217
77.144788 92.848 174.3981
77.703811 92.840 174.2729
78.266885 92.833 174.1445
78.834039 92.826 174.0116
79.405303 92.819 173.8729
79.980706 92.812 173.7280
80.560280 92.804 173.5768
81.144053 92.795 173.4193
81.732056 92.785 173.2560
82.324320 92.773 173.0882
82.920876 92.760 172.9175
83.521755 92.746 172.7461
84.126988 92.729 172.5767
84.736607 92.711 172.4117
85.350643 92.692 172.2528
85.969129 92.672 172.1011
86.592097 92.652 171.9571
87.219579 92.631 171.8215
87.851608 92.610 171.6953
88.488217 92.589 171.5789
89.129439 92.569 171.4717
89.775308 92.549 171.3725
90.425856 92.530 171.2791
91.081119 92.511 171.1896
91.741131 92.492 171.1020
92.405925 92.474 171.0145
93.075536 92.455 170.9257
93.750000 92.436 170.8348
94.429351 92.417 170.7415
95.113625 92.398 170.6456
95.802858 92.378 170.5469
96.497085 92.358 170.4469
97.196342 92.337 170.3490
97.900667 92.316 170.2570
98.610096 92.296 170.1736
99.324665 92.276 170.1002
100.044413 92.257 170.0367
100.769376 92.239 169.9822
101.499592 92.222 169.9350
102.235100 92.207 169.8922
102.975938 92.193 169.8497
103.722144 92.181 169.8034
104.473757 92.170 169.7497
105.230817 92.160 169.6862
105.993363 92.150 169.6117
106.761435 92.141 169.5261
107.535072 92.132 169.4294
108.314315 92.122 169.3218
109.099206 92.112 169.2042
109.889783 92.100 169.0781
110.686090 92.087 168.9453
111.488167 92.073 168.8077
112.296056 92.057 168.6672
113.109800 92.039 168.5263
113.929440 92.018 168.3883
114.755020 91.995 168.2579
115.586582 91.971 168.1401
116.424170 91.944 168.0394
117.267827 91.918 167.9576
118.117598 91.891 167.8924
118.973527 91.867 167.8381
119.835658 91.843 167.7871
120.704037 91.822 167.7336
121.578708 91.801 167.6751
122.459718 91.781 167.6112
123.347111 91.761 167.5422
124.240935 91.742 167.4686
125.141236 91.723 167.3913
126.048061 91.705 167.3114
126.961458 91.686 167.2303
127.881473 91.666 167.1487
128.808154 91.647 167.0668
129.741551 91.627 166.9845
130.681712 91.607 166.9015
131.628686 91.586 166.8177
132.582521 91.565 166.7332
133.543269 91.543 166.6478
134.510979 91.521 166.5623
135.485701 91.498 166.4772
136.467486 91.474 166.3938
137.456386 91.449 166.3130
138.452451 91.425 166.2355
139.455735 91.399 166.1616
140.466288 91.374 166.0909
141.484165 91.348 166.0229
142.509418 91.321 165.9571
143.542100 91.294 165.8936
144.582265 91.267 165.8324
145.629968 91.239 165.7740
146.685262 91.211 165.7186
147.748204 91.182 165.6670
148.818849 91.153 165.6207
149.897251 91.123 165.5822
150.983469 91.093 165.5543
152.077557 91.062 165.5399
153.179574 91.031 165.5411
154.289576 91.002 165.5578
155.407622 90.974 165.5869
156.533770 90.949 165.6226
157.668078 90.926 165.6577
158.810606 90.906 165.6865
159.961413 90.887 165.7054
161.120559 90.870 165.7134
162.288105 90.853 165.7108
163.464112 90.835 165.6984
164.648640 90.817 165.6774
165.841752 90.798 165.6495
167.043510 90.778 165.6172
168.253976 90.757 165.5840
169.473213 90.736 165.5533
170.701286 90.714 165.5274
171.938258 90.693 165.5051
173.184194 90.672 165.4837
174.439158 90.650 165.4598
175.703216 90.629 165.4307
176.976434 90.607 165.3952
178.258878 90.584 165.3532
179.550615 90.561 165.3061
180.851713 90.538 165.2559
182.162239 90.514 165.2047
183.482262 90.490 165.1539
184.811850 90.465 165.1038
186.151073 90.440 165.0541
187.500000 90.413 165.0045
188.858702 90.385 164.9557
190.227250 90.357 164.9091
191.605715 90.327 164.8658
192.994169 90.296 164.8275
194.392685 90.265 164.7955
195.801334 90.233 164.7707
197.220191 90.201 164.7537
198.649330 90.168 164.7448
200.088825 90.135 164.7435
201.538751 90.103 164.7486
202.999184 90.071 164.7577
204.470200 90.041 164.7668
205.951875 90.011 164.7719
207.444287 89.982 164.7701
208.947514 89.952 164.7613
210.461634 89.921 164.7476
211.986726 89.889 164.7331
213.522869 89.855 164.7232
215.070144 89.819 164.7236
216.628631 89.782 164.7385
218.198411 89.745 164.7692
219.779567 89.708 164.8127
221.372180 89.674 164.8633
222.976334 89.640 164.9147
224.592112 89.608 164.9625
226.219600 89.576 165.0057
227.858880 89.544 165.0450
229.510039 89.511 165.0822
231.173164 89.478 165.1183
232.848340 89.445 165.1543
234.535655 89.410 165.1898
236.235197 89.376 165.2243
237.947054 89.340 165.2577
239.671317 89.303 165.2911
241.408074 89.265 165.3268
243.157416 89.225 165.3677
244.919435 89.183 165.4170
246.694223 89.140 165.4781
248.481871 89.095 165.5547
250.282473 89.049 165.6503
252.096123 89.002 165.7676
253.922915 88.956 165.9066
255.762945 88.912 166.0630
257.616309 88.869 166.2295
259.483103 88.828 166.3989
261.363424 88.786 166.5698
263.257372 88.744 166.7478
265.165043 88.700 166.9437
267.086538 88.655 167.1689
269.021957 88.610 167.4330
270.971401 88.568 167.7411
272.934972 88.531 168.0923
274.912771 88.502 168.4788
276.904902 88.482 168.8870
278.911469 88.472 169.2990
280.932577 88.473 169.6942
282.968330 88.484 170.0510
285.018835 88.504 170.3488
287.084199 88.528 170.5714
289.164530 88.555 170.7103
291.259935 88.579 170.7683
293.370525 88.597 170.7594
295.496408 88.608 170.7045
297.637697 88.611 170.6251
299.794503 88.606 170.5381
301.966937 88.595 170.4550
304.155114 88.580 170.3812
306.359147 88.560 170.3182
308.579152 88.537 170.2655
310.815244 88.511 170.2223
313.067539 88.483 170.1885
315.336156 88.453 170.1660
317.621211 88.421 170.1583
319.922826 88.388 170.1686
322.241118 88.355 170.1970
324.576210 88.322 170.2393
326.928223 88.290 170.2892
329.297280 88.259 170.3400
331.683504 88.229 170.3858
334.087019 88.198 170.4227
336.507952 88.166 170.4492
338.946427 88.133 170.4666
341.402572 88.097 170.4790
343.876516 88.058 170.4922
346.368387 88.017 170.5110
348.878315 87.974 170.5383
351.406431 87.929 170.5742
353.952867 87.882 170.6163
356.517756 87.832 170.6620
359.101230 87.780 170.7104
361.703426 87.723 170.7647
364.324478 87.662 170.8340
366.964523 87.596 170.9320
369.623699 87.526 171.0740
372.302145 87.455 171.2723
375.000000 87.384 171.5324
377.717405 87.318 171.8511
380.454501 87.257 172.2172
383.211431 87.204 172.6141
385.988339 87.158 173.0248
388.785369 87.120 173.4341
391.602668 87.087 173.8320
394.440383 87.059 174.2129
397.298660 87.034 174.5749
400.177650 87.011 174.9178
403.077502 86.990 175.2416
405.998368 86.970 175.5471
408.940400 86.949 175.8356
411.903750 86.927 176.1108
414.888575 86.905 176.3773
417.895028 86.882 176.6407
420.923268 86.859 176.9061
423.973452 86.835 177.1772
427.045738 86.813 177.4551
430.140287 86.792 177.7379
433.257261 86.772 178.0215
436.396822 86.753 178.3031
439.559133 86.735 178.5818
442.744360 86.717 178.8567
445.952668 86.700 179.1249
449.184225 86.684 179.3817
452.439199 86.668 179.6217
455.717760 86.651 179.8428
459.020079 86.632 -179.9505
462.346327 86.609 -179.7471
465.696680 86.583 -179.5352
469.071310 86.555 -179.3074
472.470394 86.526 -179.0622
475.894109 86.497 -178.8028
479.342634 86.469 -178.5352
482.816148 86.440 -178.2650
486.314833 86.412 -177.9945
489.838871 86.382 -177.7192
493.388445 86.352 -177.4311
496.963741 86.322 -177.1257
500.564945 86.293 -176.8060
504.192245 86.266 -176.4797
507.845830 86.240 -176.1541
511.525890 86.215 -175.8326
515.232618 86.190 -175.5144
518.966206 86.164 -175.1961
522.726849 86.137 -174.8730
526.514743 86.110 -174.5408
530.330086 86.083 -174.1973
534.173076 86.057 -173.8449
538.043915 86.032 -173.4881
541.942803 86.008 -173.1290
545.869944 85.985 -172.7665
549.825542 85.963 -172.3996
553.809805 85.941 -172.0301
557.822939 85.920 -171.6612
561.865154 85.899 -171.2950
565.936660 85.879 -170.9305
570.037671 85.858 -170.5644
574.168399 85.836 -170.1933
578.329060 85.814 -169.8154
582.519870 85.792 -169.4313
586.741049 85.770 -169.0416
590.992817 85.748 -168.6441
595.275394 85.726 -168.2359
599.589005 85.705 -167.8175
603.933874 85.685 -167.3934
608.310228 85.666 -166.9677
612.718295 85.647 -166.5421
617.158304 85.628 -166.1145
621.630488 85.608 -165.6788
626.135079 85.589 -165.2286
630.672311 85.571 -164.7613
635.242423 85.555 -164.2807
639.845651 85.541 -163.7929
644.482237 85.529 -163.3004
649.152421 85.520 -162.8026
653.856447 85.513 -162.3010
658.594560 85.509 -161.8026
663.367008 85.508 -161.3179
668.174039 85.508 -160.8548
673.015903 85.508 -160.4128
677.892854 85.507 -159.9842
682.805145 85.503 -159.5598
687.753032 85.497 -159.1324
692.736774 85.490 -158.6967
697.756631 85.482 -158.2478
702.812863 85.474 -157.7838
707.905735 85.467 -157.3065
713.035511 85.461 -156.8204
718.202461 85.456 -156.3293
723.406852 85.451 -155.8345
728.648956 85.447 -155.3356
733.929047 85.444 -154.8316
739.247399 85.441 -154.3219
744.604290 85.440 -153.8056
750.000000 85.439 -153.2823
755.434809 85.439 -152.7517
760.909001 85.440 -152.2138
766.422861 85.442 -151.6688
771.976677 85.446 -151.1176
777.570739 85.450 -150.5609
783.205337 85.456 -149.9993
788.880766 85.464 -149.4317
794.597321 85.472 -148.8552
800.355301 85.483 -148.2670
806.155005 85.496 -147.6684
811.996736 85.514 -147.0658
817.880799 85.535 -146.4684
823.807501 85.559 -145.8864
829.777150 85.586 -145.3279
835.790057 85.613 -144.7947
841.846536 85.639 -144.2795
847.946903 85.663 -143.7709
854.091476 85.686 -143.2608
860.280575 85.708 -142.7455
866.514523 85.730 -142.2218
872.793644 85.751 -141.6867
879.118267 85.774 -141.1404
885.488720 85.798 -140.5874
891.905336 85.824 -140.0317
898.368450 85.851 -139.4736
904.878398 85.879 -138.9109
911.435520 85.908 -138.3426
918.040157 85.940 -137.7699
924.692655 85.974 -137.1956
931.393359 86.010 -136.6233
938.142619 86.048 -136.0568
944.940787 86.087 -135.4985
951.788218 86.127 -134.9475
958.685268 86.168 -134.4012
965.632296 86.210 -133.8571
972.629666 86.252 -133.3126
979.677741 86.295 -132.7672
986.776890 86.339 -132.2217
993.927482 86.384 -131.6746
1001.129891 86.431 -131.1209
1008.384491 86.479 -130.5563
1015.691660 86.530 -129.9823
1023.051781 86.586 -129.4049
1030.465236 86.645 -128.8323
1037.932411 86.709 -128.2763
1045.453698 86.776 -127.7493
1053.029486 86.845 -127.2569
1060.660172 86.913 -126.7956
1068.346153 86.980 -126.3563
1076.087829 87.045 -125.9296
1083.885605 87.109 -125.5090
1091.739887 87.173 -125.0927
1099.651084 87.236 -124.6807
1107.619609 87.298 -124.2726
1115.645878 87.360 -123.8670
1123.730308 87.422 -123.4628
1131.873321 87.484 -123.0590
1140.075341 87.546 -122.6547
1148.336797 87.608 -122.2495
1156.658119 87.671 -121.8430
1165.039741 87.734 -121.4343
1173.482099 87.799 -121.0215
1181.985634 87.865 -120.6048
1190.550789 87.935 -120.1898
1199.178011 88.008 -119.7876
1207.867749 88.084 -119.4104
1216.620457 88.159 -119.0643
1225.436590 88.234 -118.7460
1234.316609 88.305 -118.4467
1243.260976 88.375 -118.1576
1252.270157 88.441 -117.8707
1261.344623 88.506 -117.5816
1270.484846 88.570 -117.2890
1279.691303 88.632 -116.9913
1288.964474 88.694 -116.6868
1298.304842 88.757 -116.3756
1307.712894 88.819 -116.0599
1317.189120 88.882 -115.7430
1326.734016 88.945 -115.4271
1336.348077 89.008 -115.1116
1346.031806 89.070 -114.7940
1355.785708 89.131 -114.4709
1365.610290 89.192 -114.1385
1375.506065 89.253 -113.7923
1385.473549 89.315 -113.4268
1395.513261 89.379 -113.0406
1405.625726 89.446 -112.6390
1415.811469 89.519 -112.2344
1426.071023 89.595 -111.8422
1436.404921 89.674 -111.4720
1446.813703 89.754 -111.1244
1457.297912 89.834 -110.7937
1467.858093 89.914 -110.4734
1478.494798 89.992 -110.1587
1489.208581 90.071 -109.8458
1500.000000 90.148 -109.5312
1510.869618 90.226 -109.2116
1521.818002 90.304 -108.8845
1532.845723 90.383 -108.5478
1543.953355 90.464 -108.2000
1555.141477 90.547 -107.8407
1566.410674 90.634 -107.4738
1577.761531 90.726 -107.1099
1589.194642 90.822 -106.7627
1600.710601 90.921 -106.4411
1612.310010 91.021 -106.1459
1623.993473 91.121 -105.8717
1635.761599 91.221 -105.6117
1647.615002 91.320 -105.3607
1659.554299 91.420 -105.1152
1671.580114 91.520 -104.8727
1683.693072 91.621 -104.6336
1695.893807 91.723 -104.4003
1708.182952 91.826 -104.1756
1720.561150 91.930 -103.9595
1733.029045 92.034 -103.7492
1745.587288 92.138 -103.5395
1758.236533 92.242 -103.3242
1770.977440 92.348 -103.0981
1783.810673 92.458 -102.8624
1796.736900 92.573 -102.6268
1809.756796 92.693 -102.4059
1822.871040 92.816 -102.2109
1836.080315 92.943 -102.0458
1849.385310 93.070 -101.9096
1862.786718 93.199 -101.7993
1876.285239 93.328 -101.7108
1889.881575 93.457 -101.6395
1903.576436 93.587 -101.5803
1917.370535 93.718 -101.5291
1931.264593 93.852 -101.4842
1945.259332 93.989 -101.4482
1959.355483 94.131 -101.4315
1973.553781 94.278 -101.4489
1987.854965 94.428 -101.5119
2002.259781 94.580 -101.6254
2016.768981 94.731 -101.7886
2031.383320 94.882 -101.9982
2046.103561 95.032 -102.2503
2060.930471 95.181 -102.5420
2075.864823 95.328 -102.8729
2090.907395 95.474 -103.2440
2106.058972 95.617 -103.6545
2121.320344 95.758 -104.1010
2136.692305 95.896 -104.5775
2152.175658 96.032 -105.0780
2167.771210 96.167 -105.6019
2183.479774 96.302 -106.1568
2199.302169 96.438 -106.7549
2215.239219 96.573 -107.4060
2231.291755 96.705 -108.1151
2247.460615 96.833 -108.8827
2263.746641 96.956 -109.7056
2280.150683 97.072 -110.5777
2296.673595 97.182 -111.4910
2313.316238 97.286 -112.4381
2330.079481 97.384 -113.4164
2346.964198 97.478 -114.4302
2363.971268 97.567 -115.4880
2381.101578 97.651 -116.5960
2398.356022 97.726 -117.7549
2415.735498 97.792 -118.9608
2433.240913 97.847 -120.2065
2450.873180 97.892 -121.4839
2468.633217 97.926 -122.7849
2486.521951 97.947 -124.1009
2504.540314 97.956 -125.4200
2522.689246 97.952 -126.7276
2540.969692 97.937 -128.0083
2559.382606 97.912 -129.2527
2577.928947 97.879 -130.4586
2596.609683 97.838 -131.6274
2615.425787 97.790 -132.7599
2634.378241 97.734 -133.8536
2653.468031 97.671 -134.9025
2672.696154 97.601 -135.8969
2692.063613 97.524 -136.8255
2711.571415 97.443 -137.6808
2731.220579 97.361 -138.4641
2751.012130 97.280 -139.1847
2770.947098 97.200 -139.8551
2791.026522 97.121 -140.4868
2811.251451 97.044 -141.0884
2831.622938 96.967 -141.6662
2852.142045 96.890 -142.2251
2872.809842 96.812 -142.7666
2893.627406 96.731 -143.2872
2914.595823 96.647 -143.7773
2935.716186 96.560 -144.2267
2956.989596 96.472 -144.6307
2978.417161 96.383 -144.9905
3000.000000 96.295 -145.3094
3021.739237 96.206 -145.5893
3043.636005 96.116 -145.8278
3065.691446 96.026 -146.0178
3087.906710 95.937 -146.1500
3110.282955 95.850 -146.2199
3132.821347 95.768 -146.2314
3155.523062 95.692 -146.1945
3178.389283 95.622 -146.1205
3201.421202 95.559 -146.0195
3224.620020 95.503 -145.8996
3247.986946 95.452 -145.7673
3271.523198 95.406 -145.6254
3295.230004 95.365 -145.4712
3319.108599 95.328 -145.2995
3343.160228 95.297 -145.1100
3367.386145 95.272 -144.9088
3391.787613 95.255 -144.7063
3416.365904 95.244 -144.5111
3441.122300 95.238 -144.3262
3466.058091 95.236 -144.1475
3491.174576 95.240 -143.9692
3516.473066 95.250 -143.7908
3541.954880 95.267 -143.6180
3567.621345 95.291 -143.4603
3593.473800 95.323 -143.3275
3619.513592 95.361 -143.2292
3645.742080 95.404 -143.1725
3672.160630 95.452 -143.1587
3698.770620 95.503 -143.1828
3725.573436 95.557 -143.2403
3752.570477 95.615 -143.3321
3779.763150 95.678 -143.4640
3807.152872 95.744 -143.6429
3834.741071 95.813 -143.8717
3862.529185 95.884 -144.1487
3890.518664 95.959 -144.4727
3918.710966 96.038 -144.8486
3947.107561 96.121 -145.2875
3975.709929 96.207 -145.8034
4004.519563 96.297 -146.4111
4033.537962 96.387 -147.1229
4062.766641 96.474 -147.9437
4092.207123 96.556 -148.8699
4121.860942 96.631 -149.8950
4151.729646 96.699 -151.0142
4181.814790 96.757 -152.2241
4212.117944 96.805 -153.5193
4242.640687 96.839 -154.8886
4273.384610 96.860 -156.3179
4304.351317 96.868 -157.7963
4335.542421 96.864 -159.3186
4366.959549 96.847 -160.8849
4398.604338 96.817 -162.4978
4430.478438 96.772 -164.1581
4462.583511 96.709 -165.8584
4494.921231 96.627 -167.5831
4527.493283 96.523 -169.3133
4560.301365 96.398 -171.0303
4593.347189 96.250 -172.7148
4626.632476 96.079 -174.3436
4660.158962 95.885 -175.8894
4693.928395 95.671 -177.3266
4727.942535 95.439 -178.6366
4762.203156 95.192 -179.8100
4796.712043 94.934 179.1535
4831.470996 94.667 178.2491
4866.481826 94.393 177.4736
4901.746360 94.113 176.8256
4937.266434 93.828 176.3024
4973.043902 93.539 175.8989
5009.080628 93.248 175.6131
5045.378492 92.954 175.4491
5081.939384 92.658 175.4144
5118.765212 92.362 175.5142
5155.857894 92.069 175.7475
5193.219366 91.782 176.1042
5230.851574 91.502 176.5703
5268.756481 91.230 177.1327
5306.936062 90.967 177.7807
5345.392309 90.712 178.5028
5384.127225 90.466 179.2883
5423.142830 90.228 -179.8672
5462.441159 89.995 -178.9602
5502.024259 89.770 -177.9832
5541.894195 89.552 -176.9314
5582.053045 89.343 -175.8066
5622.502902 89.145 -174.6168
5663.245876 88.958 -173.3702
5704.284090 88.782 -172.0754
5745.619684 88.618 -170.7426
5787.254813 88.465 -169.3812
5829.191647 88.321 -167.9938
5871.432373 88.186 -166.5755
5913.979192 88.059 -165.1180
5956.834323 87.942 -163.6156
6000.000000 87.836 -162.0688
6043.478473 87.741 -160.4818
6087.272010 87.660 -158.8607
6131.382892 87.592 -157.2144
6175.813420 87.537 -155.5532
6220.565910 87.494 -153.8829
6265.642695 87.464 -152.2026
6311.046124 87.445 -150.5061
6356.778566 87.439 -148.7881
6402.842404 87.447 -147.0475
6449.240040 87.469 -145.2862
6495.973891 87.507 -143.5099
6543.046396 87.562 -141.7280
6590.460007 87.634 -139.9503
6638.217197 87.723 -138.1818
6686.320456 87.828 -136.4216
6734.772290 87.952 -134.6667
6783.575226 88.094 -132.9167
6832.731809 88.258 -131.1745
6882.244600 88.446 -129.4477
6932.116181 88.660 -127.7496
6982.349153 88.901 -126.0964
7032.946133 89.172 -124.5034
7083.909760 89.475 -122.9861
7135.242690 89.811 -121.5656
7186.947600 90.185 -120.2751
7239.027185 90.596 -119.1590
7291.484160 91.046 -118.2696
7344.321260 91.531 -117.6633
7397.541239 92.048 -117.3960
7451.146872 92.591 -117.5213
7505.140954 93.154 -118.0910
7559.526299 93.728 -119.1560
7614.305743 94.303 -120.7637
7669.482141 94.866 -122.9535
7725.058371 95.402 -125.7536
7781.037328 95.893 -129.1727
7837.421932 96.321 -133.1906
7894.215122 96.668 -137.7518
7951.419859 96.920 -142.7638
8009.039125 97.062 -148.0982
8067.075924 97.088 -153.5970
8125.533282 96.996 -159.0857
8184.414245 96.788 -164.3898
8243.721885 96.475 -169.3491
8303.459292 96.069 -173.8302
8363.629581 95.585 -177.7345
8424.235888 95.044 178.9995
8485.281374 94.464 176.3945
8546.769221 93.864 174.4347
8608.702634 93.264 173.0726
8671.084842 92.677 172.2426
8733.919097 92.112 171.8750
8797.208675 91.578 171.9079
8860.956876 91.077 172.2911
8925.167022 90.614 172.9798
8989.842461 90.193 173.9288
9054.986566 89.815 175.0918
9120.602731 89.481 176.4261
9186.694378 89.192 177.8962
9253.264952 88.947 179.4760
9320.317925 88.748 -178.8572
9387.856790 88.595 -177.1295
9455.885071 88.489 -175.3707
9524.406312 88.432 -173.6117
9593.424086 88.423 -171.8790
9662.941992 88.464 -170.1934
9732.963653 88.557 -168.5771
9803.492719 88.704 -167.0618
9874.532869 88.911 -165.6918
9946.087805 89.180 -164.5235
10018.161257 89.513 -163.6237
10090.756983 89.913 -163.0729
10163.878768 90.378 -162.9732
10237.530423 90.901 -163.4475
10311.715789 91.469 -164.6287
10386.438732 92.058 -166.6387
10461.703149 92.639 -169.5682
10537.512962 93.178 -173.4596
10613.872125 93.634 -178.2958
10690.784618 93.971 176.0159
10768.254450 94.152 169.6545
10846.285661 94.152 162.8853
10924.882318 93.958 156.0347
11004.048518 93.572 149.4418
11083.788390 93.010 143.4064
11164.106090 92.299 138.1531
11245.005805 91.472 133.8230
11326.491752 90.563 130.4820
11408.568180 89.606 128.1331
11491.239368 88.633 126.7278
11574.509626 87.674 126.1783
11658.383294 86.751 126.3732
11742.864745 85.882 127.1945
11827.958384 85.079 128.5269
11913.668646 84.350 130.2605
12000.000000 83.698 132.2928
12086.956947 83.121 134.5369
12174.544019 82.618 136.9254
12262.765784 82.185 139.4090
12351.626840 81.818 141.9472
12441.131819 81.515 144.5052
12531.285389 81.272 147.0558
12622.092249 81.090 149.5767
12713.557132 80.969 152.0417
12805.684808 80.909 154.4141
12898.480079 80.912 156.6498
12991.947783 80.979 158.7019
13086.092792 81.113 160.5146
13180.920015 81.315 162.0089
13276.434395 81.582 163.0803
13372.640911 81.907 163.6124
13469.544580 82.276 163.4953
13567.150452 82.668 162.6401
13665.463617 83.058 160.9918
13764.489200 83.415 158.5424
13864.232362 83.712 155.3388
13964.698305 83.919 151.4811
14065.892266 84.014 147.1156
14167.819519 83.978 142.4286
14270.485380 83.804 137.6351
14373.895200 83.490 132.9593
14478.054370 83.045 128.6111
14582.968320 82.488 124.7700
14688.642520 81.840 121.5749
14795.082478 81.129 119.1162
14902.293745 80.386 117.4310
15010.281908 79.642 116.5065
15119.052599 78.926 116.2881
15228.611486 78.268 116.6842
15338.964283 77.692 117.5709
15450.116741 77.222 118.7983
15562.074656 76.875 120.1964
15674.843864 76.666 121.5748
15788.430244 76.603 122.7209
15902.839718 76.686 123.4049
16018.078250 76.903 123.3905
16134.151848 77.229 122.4541
16251.066563 77.623 120.4103
16368.828491 78.033 117.1423
16487.443769 78.396 112.6266
16606.918584 78.649 106.9508
16727.259161 78.735 100.3279
16848.471777 78.606 93.0936
16970.562748 78.237 85.6693
17093.538442 77.625 78.4950
17217.405268 76.788 71.9611
17342.169684 75.760 66.3634
17467.838194 74.582 61.8907
17594.417350 73.300 58.6310
17721.913751 71.963 56.5811
17850.334044 70.622 55.6467
17979.684923 69.326 55.6424
18109.973131 68.122 56.2954
18241.205462 67.054 57.2571
18373.388756 66.151 58.1280
18506.529905 65.426 58.5030
18640.635849 64.859 58.0250
18775.713581 64.404 56.4397
18911.770141 63.990 53.6415
19048.812624 63.535 49.6951
19186.848172 62.961 44.8328
19325.883983 62.213 39.4265
19465.927305 61.269 33.9286
19606.985439 60.154 28.7953
19749.065738 58.957 24.4371
19892.175609 57.870 21.2229
20036.322514 57.191 19.4962
