* Measurement data measured by REW V5.31.3
* Source: EXCL: Microphone (USB Sound Device        ), MICROPHONE (Master Volume), R, volume: 0.390
* Format: 256k Log Swept Sine, 1 sweep at -12.0 dBFS with no timing reference
* Dated: Jun 11, 2025 11:55:17 PM
* REW Settings:
*  C-weighting compensation: Off
*  Target level: 75.0 dB
* Note: Punch Audio Martilo L
* Measurement: L Punch Audio Martilo
* Smoothing: 1/12 octave
* Frequency Step: 96 ppo
* Start Frequency: 0.36621094 Hz
*
* Freq(Hz) SPL(dB) Phase(degrees)
0.366211 86.824 -91.3005
0.368865 86.838 -91.3951
0.371538 86.859 -91.5363
0.374230 86.885 -91.7126
0.376942 86.914 -91.9143
0.379673 86.945 -92.1341
0.382424 86.978 -92.3674
0.385196 87.011 -92.6111
0.387987 87.045 -92.8637
0.390798 87.080 -93.1240
0.393630 87.114 -93.3916
0.396483 87.149 -93.6661
0.399356 87.185 -93.9475
0.402250 87.220 -94.2355
0.405165 87.256 -94.5302
0.408101 87.292 -94.8315
0.411058 87.329 -95.1393
0.414037 87.365 -95.4535
0.417037 87.402 -95.7742
0.420059 87.439 -96.1012
0.423103 87.477 -96.4345
0.426169 87.514 -96.7740
0.429257 87.552 -97.1196
0.432368 87.591 -97.4713
0.435501 87.629 -97.8289
0.438656 87.668 -98.1924
0.441835 87.707 -98.5617
0.445037 87.746 -98.9366
0.448262 87.786 -99.3171
0.451510 87.826 -99.7031
0.454782 87.866 -100.0944
0.458077 87.907 -100.4909
0.461397 87.948 -100.8925
0.464740 87.989 -101.2991
0.468108 88.030 -101.7105
0.471500 88.072 -102.1267
0.474917 88.114 -102.5474
0.478358 88.156 -102.9725
0.481825 88.199 -103.4019
0.485316 88.242 -103.8354
0.488833 88.285 -104.2729
0.492375 88.329 -104.7143
0.495943 88.372 -105.1594
0.499537 88.417 -105.6080
0.503157 88.461 -106.0600
0.506803 88.506 -106.5153
0.510475 88.551 -106.9736
0.514175 88.597 -107.4349
0.517900 88.642 -107.8989
0.521653 88.689 -108.3656
0.525434 88.735 -108.8348
0.529241 88.782 -109.3064
0.533076 88.829 -109.7801
0.536939 88.877 -110.2559
0.540830 88.924 -110.7336
0.544749 88.973 -111.2131
0.548696 89.021 -111.6942
0.552673 89.070 -112.1769
0.556677 89.119 -112.6610
0.560711 89.169 -113.1463
0.564774 89.219 -113.6329
0.568867 89.269 -114.1205
0.572989 89.320 -114.6090
0.577141 89.371 -115.0984
0.581324 89.422 -115.5886
0.585536 89.474 -116.0795
0.589779 89.526 -116.5709
0.594053 89.579 -117.0629
0.598358 89.632 -117.5554
0.602694 89.685 -118.0483
0.607061 89.739 -118.5416
0.611460 89.793 -119.0351
0.615891 89.847 -119.5290
0.620354 89.902 -120.0232
0.624849 89.958 -120.5176
0.629377 90.013 -121.0123
0.633938 90.069 -121.5072
0.638532 90.126 -122.0024
0.643159 90.183 -122.4979
0.647819 90.240 -122.9937
0.652514 90.298 -123.4899
0.657242 90.356 -123.9865
0.662005 90.415 -124.4835
0.666802 90.474 -124.9812
0.671634 90.533 -125.4794
0.676501 90.593 -125.9784
0.681403 90.653 -126.4783
0.686341 90.714 -126.9792
0.691314 90.775 -127.4811
0.696324 90.836 -127.9844
0.701370 90.898 -128.4892
0.706452 90.960 -128.9958
0.711571 91.022 -129.5044
0.716728 91.084 -130.0155
0.721921 91.145 -130.5296
0.727153 91.205 -131.0474
0.732422 91.264 -131.5697
0.737729 91.321 -132.0974
0.743075 91.377 -132.6311
0.748460 91.431 -133.1714
0.753883 91.484 -133.7187
0.759346 91.537 -134.2730
0.764849 91.589 -134.8342
0.770391 91.641 -135.4021
0.775974 91.692 -135.9765
0.781597 91.744 -136.5572
0.787261 91.795 -137.1437
0.792966 91.846 -137.7359
0.798712 91.897 -138.3335
0.804500 91.948 -138.9359
0.810329 91.999 -139.5431
0.816201 92.050 -140.1546
0.822116 92.100 -140.7702
0.828073 92.150 -141.3895
0.834074 92.201 -142.0122
0.840118 92.251 -142.6381
0.846206 92.301 -143.2667
0.852338 92.351 -143.8979
0.858514 92.400 -144.5314
0.864735 92.450 -145.1668
0.871001 92.499 -145.8039
0.877313 92.549 -146.4425
0.883670 92.598 -147.0823
0.890074 92.647 -147.7231
0.896524 92.696 -148.3646
0.903020 92.745 -149.0066
0.909564 92.793 -149.6490
0.916155 92.842 -150.2915
0.922794 92.890 -150.9340
0.929481 92.939 -151.5764
0.936216 92.987 -152.2184
0.943000 93.035 -152.8599
0.949834 93.084 -153.5010
0.956717 93.132 -154.1413
0.963649 93.180 -154.7810
0.970632 93.228 -155.4199
0.977666 93.276 -156.0579
0.984750 93.324 -156.6951
0.991886 93.371 -157.3315
0.999074 93.419 -157.9670
1.006314 93.467 -158.6018
1.013606 93.515 -159.2358
1.020951 93.563 -159.8691
1.028349 93.611 -160.5019
1.035801 93.659 -161.1343
1.043307 93.706 -161.7664
1.050867 93.754 -162.3986
1.058482 93.802 -163.0311
1.066152 93.851 -163.6644
1.073878 93.899 -164.2992
1.081660 93.947 -164.9363
1.089498 93.995 -165.5771
1.097393 94.043 -166.2231
1.105345 94.091 -166.8761
1.113355 94.139 -167.5380
1.121423 94.187 -168.2102
1.129549 94.235 -168.8936
1.137734 94.282 -169.5888
1.145979 94.329 -170.2958
1.154283 94.376 -171.0147
1.162647 94.422 -171.7453
1.171072 94.468 -172.4871
1.179558 94.514 -173.2399
1.188106 94.560 -174.0032
1.196715 94.605 -174.7764
1.205387 94.650 -175.5592
1.214122 94.695 -176.3509
1.222920 94.739 -177.1511
1.231782 94.783 -177.9590
1.240708 94.827 -178.7741
1.249699 94.871 -179.5958
1.258754 94.914 179.5767
1.267876 94.957 178.7439
1.277063 95.000 177.9066
1.286318 95.042 177.0656
1.295639 95.084 176.2216
1.305027 95.126 175.3752
1.314484 95.168 174.5274
1.324009 95.209 173.6788
1.333604 95.250 172.8304
1.343268 95.291 171.9827
1.353002 95.332 171.1368
1.362806 95.372 170.2933
1.372681 95.413 169.4530
1.382628 95.453 168.6168
1.392647 95.493 167.7854
1.402739 95.533 166.9594
1.412904 95.572 166.1393
1.423142 95.611 165.3254
1.433455 95.651 164.5178
1.443843 95.690 163.7158
1.454305 95.729 162.9183
1.464844 95.767 162.1232
1.475459 95.805 161.3280
1.486150 95.843 160.5304
1.496920 95.881 159.7281
1.507767 95.918 158.9198
1.518693 95.955 158.1046
1.529698 95.991 157.2821
1.540783 96.027 156.4524
1.551948 96.062 155.6155
1.563194 96.097 154.7720
1.574521 96.131 153.9220
1.585931 96.165 153.0661
1.597423 96.198 152.2048
1.608999 96.231 151.3386
1.620658 96.264 150.4681
1.632402 96.296 149.5939
1.644232 96.327 148.7166
1.656146 96.358 147.8367
1.668147 96.389 146.9550
1.680235 96.419 146.0721
1.692411 96.448 145.1886
1.704675 96.477 144.3052
1.717028 96.506 143.4227
1.729470 96.534 142.5415
1.742003 96.561 141.6625
1.754626 96.589 140.7860
1.767341 96.615 139.9126
1.780147 96.642 139.0424
1.793047 96.667 138.1752
1.806040 96.693 137.3104
1.819128 96.717 136.4465
1.832310 96.742 135.5813
1.845587 96.765 134.7122
1.858961 96.788 133.8367
1.872432 96.811 132.9527
1.886001 96.832 132.0589
1.899667 96.853 131.1547
1.913433 96.873 130.2400
1.927299 96.893 129.3152
1.941265 96.911 128.3809
1.955332 96.929 127.4380
1.969501 96.946 126.4874
1.983773 96.963 125.5303
1.998148 96.978 124.5679
2.012627 96.993 123.6014
2.027212 97.007 122.6324
2.041902 97.021 121.6623
2.056698 97.033 120.6927
2.071602 97.045 119.7252
2.086614 97.056 118.7615
2.101734 97.067 117.8033
2.116964 97.077 116.8521
2.132304 97.086 115.9093
2.147756 97.094 114.9760
2.163320 97.102 114.0526
2.178996 97.108 113.1386
2.194786 97.114 112.2326
2.210690 97.119 111.3321
2.226710 97.123 110.4343
2.242845 97.126 109.5367
2.259098 97.128 108.6374
2.275468 97.129 107.7353
2.291957 97.128 106.8299
2.308566 97.127 105.9214
2.325295 97.125 105.0101
2.342145 97.121 104.0968
2.359117 97.117 103.1825
2.376212 97.112 102.2682
2.393431 97.106 101.3555
2.410775 97.099 100.4457
2.428244 97.091 99.5405
2.445840 97.083 98.6418
2.463564 97.073 97.7514
2.481416 97.064 96.8712
2.499397 97.053 96.0031
2.517509 97.042 95.1484
2.535752 97.030 94.3084
2.554127 97.017 93.4833
2.572635 97.004 92.6724
2.591277 96.989 91.8746
2.610055 96.973 91.0882
2.628968 96.956 90.3119
2.648019 96.938 89.5444
2.667208 96.919 88.7850
2.686535 96.899 88.0332
2.706003 96.878 87.2888
2.725612 96.856 86.5519
2.745363 96.834 85.8228
2.765257 96.811 85.1020
2.785295 96.788 84.3900
2.805478 96.765 83.6879
2.825808 96.743 82.9966
2.846285 96.720 82.3174
2.866910 96.698 81.6518
2.887685 96.676 81.0013
2.908611 96.655 80.3674
2.929688 96.633 79.7516
2.950917 96.613 79.1552
2.972301 96.592 78.5786
2.993839 96.571 78.0221
3.015534 96.550 77.4851
3.037386 96.530 76.9669
3.059396 96.509 76.4664
3.081565 96.489 75.9825
3.103896 96.470 75.5140
3.126388 96.451 75.0596
3.149043 96.434 74.6181
3.171862 96.419 74.1885
3.194847 96.405 73.7699
3.217998 96.393 73.3618
3.241317 96.384 72.9644
3.264805 96.377 72.5781
3.288463 96.372 72.2047
3.312293 96.371 71.8463
3.336295 96.372 71.5047
3.360471 96.375 71.1814
3.384822 96.381 70.8763
3.409350 96.390 70.5883
3.434056 96.401 70.3154
3.458940 96.414 70.0548
3.484005 96.430 69.8033
3.509252 96.448 69.5576
3.534681 96.469 69.3141
3.560295 96.492 69.0698
3.586094 96.518 68.8217
3.612081 96.547 68.5680
3.638255 96.578 68.3078
3.664620 96.613 68.0414
3.691175 96.650 67.7703
3.717923 96.691 67.4961
3.744864 96.735 67.2199
3.772001 96.782 66.9419
3.799335 96.832 66.6614
3.826866 96.885 66.3770
3.854597 96.939 66.0869
3.882529 96.996 65.7891
3.910664 97.053 65.4811
3.939002 97.111 65.1609
3.967546 97.170 64.8266
3.996296 97.230 64.4766
4.025255 97.290 64.1100
4.054423 97.350 63.7270
4.083804 97.412 63.3281
4.113396 97.474 62.9142
4.143204 97.536 62.4867
4.173227 97.599 62.0467
4.203468 97.663 61.5953
4.233928 97.725 61.1336
4.264609 97.788 60.6621
4.295512 97.849 60.1812
4.326639 97.908 59.6910
4.357992 97.966 59.1909
4.389572 98.022 58.6801
4.421380 98.076 58.1577
4.453419 98.127 57.6231
4.485691 98.177 57.0768
4.518196 98.226 56.5201
4.550936 98.272 55.9552
4.583914 98.316 55.3848
4.617131 98.358 54.8117
4.650589 98.397 54.2385
4.684289 98.435 53.6675
4.718233 98.469 53.0998
4.752424 98.501 52.5358
4.786862 98.529 51.9748
4.821549 98.555 51.4161
4.856488 98.578 50.8593
4.891680 98.598 50.3052
4.927127 98.616 49.7554
4.962831 98.631 49.2123
4.998794 98.643 48.6787
5.035017 98.654 48.1574
5.071503 98.662 47.6509
5.108253 98.669 47.1607
5.145270 98.673 46.6876
5.182555 98.676 46.2316
5.220110 98.676 45.7923
5.257937 98.674 45.3694
5.296038 98.671 44.9629
5.334415 98.667 44.5733
5.373071 98.662 44.2014
5.412006 98.657 43.8481
5.451224 98.652 43.5148
5.490725 98.647 43.2024
5.530514 98.642 42.9116
5.570590 98.638 42.6424
5.610957 98.635 42.3939
5.651616 98.632 42.1645
5.692570 98.630 41.9521
5.733821 98.629 41.7543
5.775370 98.630 41.5692
5.817221 98.633 41.3953
5.859375 98.639 41.2319
5.901834 98.647 41.0786
5.944602 98.657 40.9348
5.987679 98.670 40.7992
6.031068 98.685 40.6693
6.074771 98.702 40.5419
6.118792 98.721 40.4136
6.163131 98.742 40.2814
6.207792 98.765 40.1428
6.252776 98.790 39.9966
6.298086 98.817 39.8420
6.343725 98.846 39.6787
6.389694 98.876 39.5060
6.435996 98.907 39.3226
6.482634 98.938 39.1273
6.529610 98.969 38.9188
6.576926 99.000 38.6957
6.624585 99.031 38.4576
6.672590 99.060 38.2044
6.720942 99.089 37.9370
6.769645 99.117 37.6567
6.818700 99.143 37.3650
6.868111 99.168 37.0633
6.917881 99.190 36.7526
6.968010 99.210 36.4338
7.018504 99.227 36.1075
7.069362 99.242 35.7747
7.120590 99.254 35.4370
7.172189 99.263 35.0970
7.224161 99.270 34.7571
7.276511 99.274 34.4198
7.329239 99.276 34.0867
7.382350 99.274 33.7591
7.435845 99.271 33.4377
7.489729 99.265 33.1237
7.544002 99.257 32.8182
7.598669 99.247 32.5228
7.653732 99.237 32.2390
7.709194 99.224 31.9676
7.765058 99.212 31.7093
7.821327 99.198 31.4637
7.878004 99.184 31.2302
7.935091 99.170 31.0081
7.992592 99.156 30.7964
8.050510 99.143 30.5945
8.108847 99.131 30.4014
8.167607 99.120 30.2163
8.226793 99.110 30.0373
8.286408 99.101 29.8622
8.346454 99.093 29.6886
8.406936 99.087 29.5144
8.467856 99.083 29.3378
8.529218 99.080 29.1576
8.591024 99.078 28.9722
8.653278 99.077 28.7800
8.715983 99.077 28.5793
8.779143 99.078 28.3688
8.842760 99.079 28.1474
8.906839 99.080 27.9148
8.971381 99.081 27.6709
9.036392 99.082 27.4161
9.101873 99.082 27.1506
9.167829 99.081 26.8748
9.234263 99.080 26.5894
9.301178 99.077 26.2950
9.368578 99.073 25.9933
9.436467 99.068 25.6857
9.504847 99.062 25.3737
9.573723 99.054 25.0585
9.643099 99.045 24.7412
9.712976 99.035 24.4231
9.783361 99.024 24.1053
9.854255 99.012 23.7891
9.925663 98.999 23.4752
9.997588 98.986 23.1644
10.070035 98.973 22.8568
10.143007 98.960 22.5525
10.216507 98.946 22.2516
10.290540 98.934 21.9537
10.365109 98.921 21.6587
10.440219 98.910 21.3660
10.515873 98.899 21.0746
10.592076 98.889 20.7839
10.668830 98.879 20.4930
10.746141 98.871 20.2014
10.824012 98.863 19.9084
10.902447 98.857 19.6135
10.981451 98.851 19.3162
11.061027 98.846 19.0160
11.141180 98.841 18.7130
11.221913 98.837 18.4073
11.303232 98.833 18.0991
11.385140 98.830 17.7887
11.467641 98.827 17.4764
11.550741 98.824 17.1628
11.634442 98.821 16.8484
11.718750 98.819 16.5338
11.803669 98.817 16.2196
11.889203 98.815 15.9061
11.975357 98.814 15.5938
12.062136 98.812 15.2827
12.149543 98.811 14.9733
12.237583 98.811 14.6656
12.326262 98.811 14.3597
12.415583 98.811 14.0556
12.505552 98.811 13.7532
12.596172 98.812 13.4524
12.687449 98.813 13.1534
12.779387 98.814 12.8564
12.871992 98.815 12.5614
12.965268 98.817 12.2688
13.059220 98.818 11.9789
13.153852 98.819 11.6924
13.249170 98.819 11.4097
13.345179 98.820 11.1314
13.441884 98.820 10.8580
13.539289 98.820 10.5901
13.637401 98.820 10.3279
13.736223 98.819 10.0715
13.835761 98.819 9.8212
13.936021 98.819 9.5765
14.037007 98.819 9.3372
14.138725 98.819 9.1024
14.241180 98.819 8.8714
14.344377 98.819 8.6433
14.448323 98.820 8.4172
14.553021 98.820 8.1922
14.658478 98.821 7.9674
14.764700 98.821 7.7422
14.871691 98.820 7.5162
14.979457 98.819 7.2893
15.088005 98.817 7.0616
15.197339 98.815 6.8336
15.307465 98.811 6.6057
15.418389 98.806 6.3787
15.530117 98.799 6.1533
15.642655 98.792 5.9303
15.756008 98.784 5.7102
15.870182 98.775 5.4934
15.985184 98.765 5.2798
16.101019 98.754 5.0692
16.217694 98.744 4.8608
16.335214 98.733 4.6539
16.453586 98.722 4.4470
16.572815 98.711 4.2390
16.692909 98.700 4.0283
16.813872 98.689 3.8138
16.935713 98.678 3.5944
17.058436 98.667 3.3691
17.182048 98.655 3.1377
17.306556 98.643 2.8999
17.431967 98.630 2.6561
17.558286 98.617 2.4067
17.685521 98.602 2.1525
17.813677 98.588 1.8944
17.942762 98.572 1.6333
18.072783 98.557 1.3698
18.203746 98.541 1.1044
18.335658 98.524 0.8374
18.468526 98.509 0.5691
18.602356 98.493 0.2991
18.737156 98.478 0.0272
18.872934 98.463 -0.2471
19.009695 98.449 -0.5240
19.147447 98.435 -0.8041
19.286197 98.422 -1.0875
19.425953 98.410 -1.3741
19.566721 98.398 -1.6638
19.708510 98.387 -1.9562
19.851326 98.376 -2.2509
19.995177 98.366 -2.5471
20.140070 98.356 -2.8441
20.286013 98.346 -3.1415
20.433014 98.337 -3.4384
20.581080 98.328 -3.7341
20.730219 98.319 -4.0282
20.880439 98.311 -4.3198
21.031747 98.303 -4.6086
21.184152 98.296 -4.8939
21.337661 98.288 -5.1753
21.492282 98.281 -5.4521
21.648024 98.275 -5.7244
21.804895 98.268 -5.9917
21.962902 98.262 -6.2542
22.122054 98.256 -6.5121
22.282360 98.250 -6.7656
22.443827 98.244 -7.0153
22.606464 98.237 -7.2615
22.770280 98.231 -7.5043
22.935283 98.224 -7.7441
23.101481 98.217 -7.9807
23.268884 98.209 -8.2138
23.437500 98.201 -8.4431
23.607338 98.191 -8.6683
23.778406 98.181 -8.8893
23.950714 98.171 -9.1062
24.124271 98.159 -9.3196
24.299086 98.148 -9.5305
24.475167 98.136 -9.7400
24.652524 98.124 -9.9497
24.831166 98.111 -10.1610
25.011103 98.098 -10.3752
25.192344 98.085 -10.5933
25.374898 98.071 -10.8157
25.558775 98.056 -11.0425
25.743984 98.040 -11.2734
25.930536 98.024 -11.5082
26.118439 98.007 -11.7462
26.307704 97.989 -11.9872
26.498341 97.971 -12.2312
26.690359 97.953 -12.4785
26.883768 97.935 -12.7294
27.078579 97.917 -12.9844
27.274801 97.900 -13.2440
27.472446 97.882 -13.5083
27.671522 97.864 -13.7770
27.872042 97.847 -14.0497
28.074014 97.829 -14.3253
28.277450 97.812 -14.6030
28.482360 97.795 -14.8815
28.688755 97.777 -15.1597
28.896645 97.760 -15.4363
29.106042 97.744 -15.7109
29.316957 97.728 -15.9825
29.529400 97.712 -16.2511
29.743382 97.697 -16.5164
29.958915 97.682 -16.7783
30.176009 97.668 -17.0373
30.394677 97.654 -17.2935
30.614929 97.640 -17.5471
30.836778 97.627 -17.7983
31.060234 97.614 -18.0471
31.285309 97.600 -18.2935
31.512015 97.586 -18.5370
31.740364 97.572 -18.7778
31.970368 97.557 -19.0159
32.202039 97.542 -19.2513
32.435388 97.526 -19.4849
32.670428 97.510 -19.7171
32.907171 97.493 -19.9490
33.145630 97.476 -20.1815
33.385817 97.458 -20.4153
33.627745 97.439 -20.6506
33.871425 97.419 -20.8879
34.116871 97.399 -21.1271
34.364096 97.378 -21.3678
34.613113 97.355 -21.6099
34.863934 97.333 -21.8530
35.116572 97.310 -22.0970
35.371041 97.286 -22.3416
35.627354 97.262 -22.5868
35.885525 97.238 -22.8326
36.145566 97.215 -23.0793
36.407492 97.191 -23.3271
36.671316 97.168 -23.5765
36.937051 97.145 -23.8275
37.204712 97.122 -24.0803
37.474313 97.100 -24.3347
37.745867 97.077 -24.5903
38.019389 97.055 -24.8463
38.294893 97.032 -25.1019
38.572394 97.009 -25.3563
38.851905 96.986 -25.6084
39.133442 96.962 -25.8572
39.417019 96.938 -26.1021
39.702651 96.914 -26.3423
39.990353 96.890 -26.5781
40.280140 96.866 -26.8102
40.572026 96.841 -27.0395
40.866028 96.817 -27.2675
41.162160 96.792 -27.4952
41.460438 96.768 -27.7234
41.760877 96.742 -27.9524
42.063494 96.717 -28.1821
42.368303 96.691 -28.4126
42.675322 96.665 -28.6442
42.984565 96.638 -28.8777
43.296048 96.611 -29.1139
43.609789 96.584 -29.3533
43.925804 96.557 -29.5958
44.244108 96.529 -29.8401
44.564719 96.500 -30.0845
44.887654 96.470 -30.3274
45.212928 96.441 -30.5673
45.540560 96.411 -30.8038
45.870565 96.381 -31.0372
46.202962 96.352 -31.2686
46.537768 96.322 -31.4987
46.875000 96.293 -31.7283
47.214676 96.264 -31.9572
47.556813 96.234 -32.1848
47.901429 96.203 -32.4103
48.248542 96.173 -32.6332
48.598171 96.141 -32.8533
48.950334 96.110 -33.0709
49.305048 96.078 -33.2867
49.662333 96.046 -33.5016
50.022206 96.014 -33.7162
50.384688 95.981 -33.9305
50.749796 95.948 -34.1447
51.117550 95.914 -34.3583
51.487969 95.880 -34.5709
51.861072 95.846 -34.7825
52.236879 95.811 -34.9926
52.615409 95.776 -35.2014
52.996681 95.742 -35.4088
53.380717 95.707 -35.6147
53.767536 95.672 -35.8191
54.157158 95.637 -36.0218
54.549603 95.602 -36.2228
54.944892 95.567 -36.4223
55.343045 95.533 -36.6208
55.744084 95.498 -36.8192
56.148028 95.463 -37.0186
56.554900 95.429 -37.2201
56.964720 95.394 -37.4244
57.377510 95.358 -37.6318
57.793291 95.322 -37.8421
58.212085 95.285 -38.0543
58.633914 95.247 -38.2675
59.058799 95.209 -38.4806
59.486764 95.170 -38.6929
59.917829 95.130 -38.9037
60.352019 95.089 -39.1125
60.789354 95.048 -39.3185
61.229859 95.006 -39.5211
61.673556 94.964 -39.7197
62.120468 94.922 -39.9142
62.570618 94.879 -40.1044
63.024031 94.835 -40.2900
63.480729 94.792 -40.4712
63.940736 94.748 -40.6478
64.404077 94.704 -40.8201
64.870776 94.660 -40.9885
65.340856 94.616 -41.1541
65.814343 94.571 -41.3176
66.291261 94.527 -41.4797
66.771635 94.482 -41.6410
67.255489 94.437 -41.8011
67.742850 94.392 -41.9596
68.233743 94.345 -42.1153
68.728193 94.299 -42.2677
69.226226 94.251 -42.4160
69.727867 94.204 -42.5598
70.233144 94.155 -42.6993
70.742083 94.107 -42.8356
71.254709 94.059 -42.9705
71.771050 94.011 -43.1052
72.291132 93.963 -43.2388
72.814984 93.915 -43.3693
73.342631 93.868 -43.4954
73.874102 93.823 -43.6193
74.409424 93.780 -43.7460
74.948626 93.739 -43.8805
75.491734 93.700 -44.0242
76.038779 93.661 -44.1749
76.589787 93.621 -44.3283
77.144788 93.581 -44.4800
77.703811 93.540 -44.6263
78.266885 93.497 -44.7645
78.834039 93.453 -44.8931
79.405303 93.406 -45.0124
79.980706 93.357 -45.1235
80.560280 93.306 -45.2281
81.144053 93.253 -45.3289
81.732056 93.199 -45.4299
82.324320 93.142 -45.5360
82.920876 93.085 -45.6516
83.521755 93.026 -45.7783
84.126988 92.965 -45.9146
84.736607 92.904 -46.0573
85.350643 92.842 -46.2020
85.969129 92.780 -46.3442
86.592097 92.718 -46.4798
87.219579 92.656 -46.6056
87.851608 92.596 -46.7199
88.488217 92.536 -46.8224
89.129439 92.476 -46.9142
89.775308 92.417 -46.9969
90.425856 92.358 -47.0726
91.081119 92.298 -47.1429
91.741131 92.238 -47.2089
92.405925 92.177 -47.2722
93.075536 92.116 -47.3341
93.750000 92.054 -47.3953
94.429351 91.993 -47.4553
95.113625 91.931 -47.5136
95.802858 91.870 -47.5701
96.497085 91.808 -47.6248
97.196342 91.745 -47.6771
97.900667 91.682 -47.7245
98.610096 91.617 -47.7637
99.324665 91.550 -47.7913
100.044413 91.483 -47.8053
100.769376 91.415 -47.8060
101.499592 91.347 -47.7960
102.235100 91.281 -47.7789
102.975938 91.215 -47.7581
103.722144 91.150 -47.7352
104.473757 91.086 -47.7114
105.230817 91.022 -47.6868
105.993363 90.958 -47.6613
106.761435 90.894 -47.6350
107.535072 90.829 -47.6088
108.314315 90.764 -47.5842
109.099206 90.697 -47.5635
109.889783 90.630 -47.5488
110.686090 90.562 -47.5406
111.488167 90.494 -47.5374
112.296056 90.426 -47.5342
113.109800 90.357 -47.5236
113.929440 90.289 -47.4958
114.755020 90.220 -47.4402
115.586582 90.151 -47.3461
116.424170 90.082 -47.2068
117.267827 90.014 -47.0260
118.117598 89.947 -46.8209
118.973527 89.882 -46.6193
119.835658 89.814 -46.4473
120.704037 89.740 -46.3111
121.578708 89.660 -46.1946
122.459718 89.574 -46.0793
123.347111 89.487 -45.9571
124.240935 89.400 -45.8271
125.141236 89.315 -45.6900
126.048061 89.233 -45.5436
126.961458 89.154 -45.3827
127.881473 89.075 -45.2023
128.808154 88.997 -44.9995
129.741551 88.919 -44.7745
130.681712 88.839 -44.5288
131.628686 88.758 -44.2617
132.582521 88.673 -43.9681
133.543269 88.587 -43.6385
134.510979 88.500 -43.2642
135.485701 88.414 -42.8414
136.467486 88.330 -42.3701
137.456386 88.251 -41.8512
138.452451 88.177 -41.2845
139.455735 88.111 -40.6711
140.466288 88.053 -40.0146
141.484165 88.007 -39.3230
142.509418 87.975 -38.6118
143.542100 87.959 -37.9048
144.582265 87.958 -37.2321
145.629968 87.972 -36.6240
146.685262 87.997 -36.1068
147.748204 88.028 -35.6985
148.818849 88.062 -35.4066
149.897251 88.093 -35.2269
150.983469 88.116 -35.1440
152.077557 88.130 -35.1346
153.179574 88.131 -35.1721
154.289576 88.121 -35.2318
155.407622 88.101 -35.2934
156.533770 88.071 -35.3436
157.668078 88.035 -35.3752
158.810606 87.993 -35.3861
159.961413 87.947 -35.3759
161.120559 87.898 -35.3451
162.288105 87.845 -35.2935
163.464112 87.789 -35.2198
164.648640 87.731 -35.1229
165.841752 87.671 -35.0015
167.043510 87.611 -34.8541
168.253976 87.551 -34.6790
169.473213 87.492 -34.4747
170.701286 87.434 -34.2418
171.938258 87.379 -33.9828
173.184194 87.325 -33.7030
174.439158 87.273 -33.4088
175.703216 87.222 -33.1067
176.976434 87.172 -32.8015
178.258878 87.123 -32.4951
179.550615 87.074 -32.1870
180.851713 87.025 -31.8750
182.162239 86.976 -31.5565
183.482262 86.928 -31.2294
184.811850 86.881 -30.8934
186.151073 86.835 -30.5515
187.500000 86.792 -30.2073
188.858702 86.750 -29.8627
190.227250 86.710 -29.5164
191.605715 86.672 -29.1653
192.994169 86.633 -28.8073
194.392685 86.596 -28.4413
195.801334 86.559 -28.0679
197.220191 86.522 -27.6875
198.649330 86.486 -27.2999
200.088825 86.451 -26.9050
201.538751 86.417 -26.5037
202.999184 86.385 -26.0990
204.470200 86.356 -25.6954
205.951875 86.328 -25.2981
207.444287 86.302 -24.9105
208.947514 86.276 -24.5331
210.461634 86.251 -24.1635
211.986726 86.225 -23.7965
213.522869 86.198 -23.4265
215.070144 86.171 -23.0481
216.628631 86.144 -22.6571
218.198411 86.118 -22.2520
219.779567 86.095 -21.8347
221.372180 86.074 -21.4108
222.976334 86.055 -20.9865
224.592112 86.039 -20.5670
226.219600 86.024 -20.1549
227.858880 86.009 -19.7509
229.510039 85.996 -19.3538
231.173164 85.983 -18.9620
232.848340 85.971 -18.5747
234.535655 85.959 -18.1914
236.235197 85.947 -17.8123
237.947054 85.936 -17.4379
239.671317 85.924 -17.0680
241.408074 85.913 -16.7014
243.157416 85.901 -16.3359
244.919435 85.889 -15.9690
246.694223 85.877 -15.5973
248.481871 85.865 -15.2175
250.282473 85.853 -14.8258
252.096123 85.842 -14.4200
253.922915 85.834 -14.0006
255.762945 85.830 -13.5739
257.616309 85.828 -13.1516
259.483103 85.829 -12.7460
261.363424 85.832 -12.3640
263.257372 85.834 -12.0034
265.165043 85.835 -11.6557
267.086538 85.835 -11.3103
269.021957 85.834 -10.9595
270.971401 85.833 -10.5995
272.934972 85.833 -10.2305
274.912771 85.834 -9.8547
276.904902 85.838 -9.4742
278.911469 85.844 -9.0912
280.932577 85.852 -8.7084
282.968330 85.863 -8.3300
285.018835 85.877 -7.9633
287.084199 85.892 -7.6163
289.164530 85.909 -7.2966
291.259935 85.926 -7.0063
293.370525 85.941 -6.7404
295.496408 85.954 -6.4888
297.637697 85.964 -6.2420
299.794503 85.973 -5.9940
301.966937 85.981 -5.7432
304.155114 85.989 -5.4910
306.359147 85.996 -5.2399
308.579152 86.004 -4.9927
310.815244 86.012 -4.7515
313.067539 86.018 -4.5170
315.336156 86.023 -4.2871
317.621211 86.027 -4.0569
319.922826 86.029 -3.8210
322.241118 86.031 -3.5768
324.576210 86.033 -3.3253
326.928223 86.036 -3.0690
329.297280 86.040 -2.8110
331.683504 86.044 -2.5541
334.087019 86.049 -2.3008
336.507952 86.055 -2.0531
338.946427 86.060 -1.8116
341.402572 86.065 -1.5751
343.876516 86.069 -1.3407
346.368387 86.072 -1.1057
348.878315 86.075 -0.8687
351.406431 86.077 -0.6289
353.952867 86.080 -0.3872
356.517756 86.083 -0.1444
359.101230 86.087 0.0985
361.703426 86.091 0.3413
364.324478 86.095 0.5841
366.964523 86.099 0.8268
369.623699 86.103 1.0692
372.302145 86.106 1.3115
375.000000 86.110 1.5540
377.717405 86.114 1.7964
380.454501 86.118 2.0385
383.211431 86.122 2.2800
385.988339 86.126 2.5205
388.785369 86.131 2.7598
391.602668 86.136 2.9983
394.440383 86.141 3.2371
397.298660 86.147 3.4766
400.177650 86.152 3.7161
403.077502 86.158 3.9539
405.998368 86.163 4.1876
408.940400 86.168 4.4166
411.903750 86.172 4.6426
414.888575 86.176 4.8689
417.895028 86.179 5.0994
420.923268 86.182 5.3370
423.973452 86.185 5.5830
427.045738 86.190 5.8358
430.140287 86.195 6.0911
433.257261 86.202 6.3437
436.396822 86.211 6.5905
439.559133 86.221 6.8309
442.744360 86.231 7.0651
445.952668 86.243 7.2906
449.184225 86.255 7.5029
452.439199 86.268 7.6960
455.717760 86.279 7.8674
459.020079 86.287 8.0214
462.346327 86.292 8.1694
465.696680 86.294 8.3239
469.071310 86.293 8.4921
472.470394 86.292 8.6749
475.894109 86.290 8.8694
479.342634 86.288 9.0697
482.816148 86.286 9.2700
486.314833 86.283 9.4685
489.838871 86.280 9.6696
493.388445 86.275 9.8813
496.963741 86.270 10.1080
500.564945 86.266 10.3464
504.192245 86.263 10.5889
507.845830 86.262 10.8282
511.525890 86.261 11.0615
515.232618 86.259 11.2897
518.966206 86.257 11.5167
522.726849 86.253 11.7477
526.514743 86.249 11.9873
530.330086 86.245 12.2376
534.173076 86.241 12.4960
538.043915 86.238 12.7578
541.942803 86.236 13.0205
545.869944 86.235 13.2849
549.825542 86.234 13.5516
553.809805 86.233 13.8192
557.822939 86.233 14.0840
561.865154 86.233 14.3443
565.936660 86.232 14.6006
570.037671 86.231 14.8560
574.168399 86.228 15.1141
578.329060 86.225 15.3776
582.519870 86.222 15.6464
586.741049 86.219 15.9209
590.992817 86.215 16.2034
595.275394 86.211 16.4962
599.589005 86.208 16.7988
603.933874 86.205 17.1071
608.310228 86.204 17.4174
612.718295 86.202 17.7283
617.158304 86.201 18.0415
621.630488 86.199 18.3617
626.135079 86.197 18.6941
630.672311 86.196 19.0400
635.242423 86.197 19.3951
639.845651 86.200 19.7531
644.482237 86.205 20.1121
649.152421 86.211 20.4733
653.856447 86.220 20.8356
658.594560 86.231 21.1924
663.367008 86.244 21.5334
668.174039 86.258 21.8510
673.015903 86.271 22.1459
677.892854 86.282 22.4266
682.805145 86.290 22.7031
687.753032 86.295 22.9833
692.736774 86.298 23.2730
697.756631 86.299 23.5772
702.812863 86.300 23.8980
707.905735 86.301 24.2336
713.035511 86.303 24.5801
718.202461 86.305 24.9333
723.406852 86.308 25.2922
728.648956 86.311 25.6576
733.929047 86.314 26.0310
739.247399 86.318 26.4138
744.604290 86.322 26.8063
750.000000 86.327 27.2092
755.434809 86.333 27.6226
760.909001 86.340 28.0465
766.422861 86.348 28.4803
771.976677 86.357 28.9236
777.570739 86.368 29.3754
783.205337 86.380 29.8354
788.880766 86.394 30.3052
794.597321 86.410 30.7880
800.355301 86.428 31.2864
806.155005 86.450 31.7988
811.996736 86.476 32.3184
817.880799 86.508 32.8352
823.807501 86.544 33.3384
829.777150 86.584 33.8189
835.790057 86.627 34.2739
841.846536 86.670 34.7086
847.946903 86.713 35.1320
854.091476 86.757 35.5498
860.280575 86.802 35.9630
866.514523 86.848 36.3711
872.793644 86.895 36.7736
879.118267 86.945 37.1671
885.488720 86.996 37.5455
891.905336 87.049 37.9033
898.368450 87.103 38.2400
904.878398 87.157 38.5583
911.435520 87.210 38.8607
918.040157 87.263 39.1480
924.692655 87.316 39.4203
931.393359 87.369 39.6775
938.142619 87.420 39.9195
944.940787 87.469 40.1478
951.788218 87.517 40.3661
958.685268 87.562 40.5790
965.632296 87.605 40.7908
972.629666 87.646 41.0059
979.677741 87.686 41.2266
986.776890 87.725 41.4534
993.927482 87.764 41.6881
1001.129891 87.802 41.9346
1008.384491 87.841 42.1961
1015.691660 87.882 42.4708
1023.051781 87.926 42.7531
1030.465236 87.973 43.0343
1037.932411 88.025 43.3025
1045.453698 88.079 43.5450
1053.029486 88.134 43.7559
1060.660172 88.188 43.9386
1068.346153 88.240 44.1017
1076.087829 88.289 44.2547
1083.885605 88.337 44.4039
1091.739887 88.383 44.5511
1099.651084 88.429 44.6960
1107.619609 88.473 44.8383
1115.645878 88.515 44.9786
1123.730308 88.557 45.1175
1131.873321 88.598 45.2565
1140.075341 88.638 45.3969
1148.336797 88.678 45.5399
1156.658119 88.718 45.6866
1165.039741 88.758 45.8376
1173.482099 88.798 45.9945
1181.985634 88.839 46.1564
1190.550789 88.883 46.3171
1199.178011 88.929 46.4652
1207.867749 88.977 46.5888
1216.620457 89.024 46.6826
1225.436590 89.069 46.7506
1234.316609 89.110 46.8015
1243.260976 89.148 46.8451
1252.270157 89.183 46.8895
1261.344623 89.215 46.9394
1270.484846 89.245 46.9962
1279.691303 89.273 47.0609
1288.964474 89.299 47.1347
1298.304842 89.325 47.2174
1307.712894 89.350 47.3068
1317.189120 89.375 47.3998
1326.734016 89.399 47.4945
1336.348077 89.421 47.5916
1346.031806 89.442 47.6939
1355.785708 89.462 47.8055
1365.610290 89.480 47.9301
1375.506065 89.496 48.0722
1385.473549 89.513 48.2372
1395.513261 89.531 48.4264
1405.625726 89.552 48.6343
1415.811469 89.577 48.8488
1426.071023 89.605 49.0551
1436.404921 89.635 49.2436
1446.813703 89.666 49.4142
1457.297912 89.695 49.5726
1467.858093 89.724 49.7256
1478.494798 89.750 49.8780
1489.208581 89.776 50.0338
1500.000000 89.800 50.1964
1510.869618 89.823 50.3692
1521.818002 89.845 50.5550
1532.845723 89.868 50.7558
1543.953355 89.891 50.9732
1555.141477 89.916 51.2075
1566.410674 89.944 51.4543
1577.761531 89.976 51.7030
1589.194642 90.011 51.9396
1600.710601 90.049 52.1548
1612.310010 90.086 52.3480
1623.993473 90.123 52.5248
1635.761599 90.158 52.6931
1647.615002 90.191 52.8594
1659.554299 90.222 53.0292
1671.580114 90.253 53.2061
1683.693072 90.283 53.3908
1695.893807 90.314 53.5814
1708.182952 90.344 53.7760
1720.561150 90.373 53.9749
1733.029045 90.402 54.1812
1745.587288 90.431 54.4002
1758.236533 90.459 54.6385
1770.977440 90.488 54.9010
1783.810673 90.521 55.1862
1796.736900 90.558 55.4840
1809.756796 90.599 55.7789
1822.871040 90.644 56.0591
1836.080315 90.691 56.3206
1849.385310 90.739 56.5651
1862.786718 90.787 56.7965
1876.285239 90.835 57.0202
1889.881575 90.882 57.2421
1903.576436 90.929 57.4686
1917.370535 90.976 57.7051
1931.264593 91.025 57.9553
1945.259332 91.078 58.2176
1959.355483 91.134 58.4827
1973.553781 91.195 58.7358
1987.854965 91.259 58.9656
2002.259781 91.325 59.1680
2016.768981 91.391 59.3454
2031.383320 91.457 59.5028
2046.103561 91.523 59.6459
2060.930471 91.588 59.7785
2075.864823 91.653 59.9018
2090.907395 91.718 60.0160
2106.058972 91.781 60.1226
2121.320344 91.844 60.2266
2136.692305 91.905 60.3354
2152.175658 91.967 60.4566
2167.771210 92.030 60.5920
2183.479774 92.097 60.7336
2199.302169 92.168 60.8685
2215.239219 92.242 60.9861
2231.291755 92.318 61.0808
2247.460615 92.395 61.1524
2263.746641 92.473 61.2040
2280.150683 92.550 61.2419
2296.673595 92.627 61.2733
2313.316238 92.705 61.3040
2330.079481 92.785 61.3339
2346.964198 92.870 61.3544
2363.971268 92.957 61.3520
2381.101578 93.048 61.3156
2398.356022 93.141 61.2399
2415.735498 93.233 61.1247
2433.240913 93.325 60.9728
2450.873180 93.415 60.7872
2468.633217 93.504 60.5698
2486.521951 93.590 60.3232
2504.540314 93.673 60.0529
2522.689246 93.753 59.7679
2540.969692 93.831 59.4772
2559.382606 93.907 59.1831
2577.928947 93.984 58.8797
2596.609683 94.062 58.5582
2615.425787 94.138 58.2117
2634.378241 94.213 57.8376
2653.468031 94.286 57.4386
2672.696154 94.356 57.0222
2692.063613 94.424 56.5978
2711.571415 94.490 56.1714
2731.220579 94.557 55.7409
2751.012130 94.625 55.2969
2770.947098 94.694 54.8285
2791.026522 94.765 54.3271
2811.251451 94.835 53.7872
2831.622938 94.904 53.2050
2852.142045 94.971 52.5770
2872.809842 95.035 51.9007
2893.627406 95.095 51.1778
2914.595823 95.149 50.4147
2935.716186 95.197 49.6193
2956.989596 95.239 48.7953
2978.417161 95.274 47.9433
3000.000000 95.303 47.0641
3021.739237 95.323 46.1617
3043.636005 95.334 45.2454
3065.691446 95.335 44.3293
3087.906710 95.328 43.4289
3110.282955 95.313 42.5551
3132.821347 95.293 41.7097
3155.523062 95.268 40.8886
3178.389283 95.241 40.0858
3201.421202 95.210 39.2961
3224.620020 95.176 38.5159
3247.986946 95.139 37.7425
3271.523198 95.096 36.9769
3295.230004 95.049 36.2248
3319.108599 94.997 35.4938
3343.160228 94.941 34.7878
3367.386145 94.883 34.1045
3391.787613 94.822 33.4381
3416.365904 94.757 32.7841
3441.122300 94.689 32.1431
3466.058091 94.615 31.5216
3491.174576 94.537 30.9286
3516.473066 94.455 30.3687
3541.954880 94.370 29.8421
3567.621345 94.282 29.3467
3593.473800 94.193 28.8810
3619.513592 94.100 28.4445
3645.742080 94.005 28.0378
3672.160630 93.907 27.6657
3698.770620 93.805 27.3370
3725.573436 93.702 27.0583
3752.570477 93.600 26.8293
3779.763150 93.499 26.6432
3807.152872 93.399 26.4914
3834.741071 93.301 26.3701
3862.529185 93.203 26.2816
3890.518664 93.108 26.2297
3918.710966 93.015 26.2136
3947.107561 92.926 26.2264
3975.709929 92.841 26.2584
4004.519563 92.760 26.2986
4033.537962 92.682 26.3381
4062.766641 92.605 26.3753
4092.207123 92.528 26.4166
4121.860942 92.451 26.4703
4151.729646 92.374 26.5411
4181.814790 92.297 26.6294
4212.117944 92.221 26.7363
4242.640687 92.145 26.8679
4273.384610 92.071 27.0325
4304.351317 91.998 27.2343
4335.542421 91.930 27.4698
4366.959549 91.868 27.7294
4398.604338 91.813 27.9984
4430.478438 91.764 28.2621
4462.583511 91.720 28.5125
4494.921231 91.679 28.7481
4527.493283 91.641 28.9690
4560.301365 91.606 29.1733
4593.347189 91.571 29.3601
4626.632476 91.537 29.5343
4660.158962 91.501 29.7072
4693.928395 91.465 29.8898
4727.942535 91.431 30.0878
4762.203156 91.399 30.2998
4796.712043 91.371 30.5178
4831.470996 91.347 30.7322
4866.481826 91.327 30.9385
4901.746360 91.309 31.1350
4937.266434 91.294 31.3189
4973.043902 91.282 31.4855
5009.080628 91.271 31.6339
5045.378492 91.260 31.7695
5081.939384 91.249 31.9010
5118.765212 91.240 32.0347
5155.857894 91.233 32.1704
5193.219366 91.229 32.3008
5230.851574 91.230 32.4157
5268.756481 91.234 32.5081
5306.936062 91.240 32.5729
5345.392309 91.249 32.6047
5384.127225 91.258 32.5994
5423.142830 91.266 32.5597
5462.441159 91.271 32.4953
5502.024259 91.275 32.4183
5541.894195 91.277 32.3374
5582.053045 91.278 32.2545
5622.502902 91.281 32.1664
5663.245876 91.284 32.0694
5704.284090 91.289 31.9593
5745.619684 91.296 31.8301
5787.254813 91.303 31.6767
5829.191647 91.310 31.4986
5871.432373 91.317 31.3007
5913.979192 91.322 31.0893
5956.834323 91.329 30.8676
6000.000000 91.336 30.6333
6043.478473 91.346 30.3816
6087.272010 91.358 30.1064
6131.382892 91.374 29.7983
6175.813420 91.393 29.4460
6220.565910 91.414 29.0398
6265.642695 91.435 28.5744
6311.046124 91.457 28.0467
6356.778566 91.480 27.4521
6402.842404 91.501 26.7820
6449.240040 91.522 26.0253
6495.973891 91.539 25.1691
6543.046396 91.552 24.1990
6590.460007 91.556 23.1033
6638.217197 91.546 21.8783
6686.320456 91.518 20.5306
6734.772290 91.466 19.0764
6783.575226 91.387 17.5381
6832.731809 91.276 15.9446
6882.244600 91.132 14.3301
6932.116181 90.950 12.7323
6982.349153 90.730 11.1929
7032.946133 90.471 9.7598
7083.909760 90.173 8.4866
7135.242690 89.839 7.4282
7186.947600 89.472 6.6363
7239.027185 89.081 6.1551
7291.484160 88.672 6.0168
7344.321260 88.254 6.2389
7397.541239 87.836 6.8280
7451.146872 87.426 7.7853
7505.140954 87.032 9.1088
7559.526299 86.662 10.7889
7614.305743 86.327 12.8059
7669.482141 86.034 15.1268
7725.058371 85.791 17.7038
7781.037328 85.605 20.4784
7837.421932 85.480 23.3927
7894.215122 85.419 26.3963
7951.419859 85.424 29.4440
8009.039125 85.498 32.4897
8067.075924 85.643 35.4772
8125.533282 85.862 38.3325
8184.414245 86.153 40.9681
8243.721885 86.512 43.2958
8303.459292 86.931 45.2367
8363.629581 87.401 46.7231
8424.235888 87.912 47.6987
8485.281374 88.452 48.1146
8546.769221 89.006 47.9279
8608.702634 89.557 47.1094
8671.084842 90.089 45.6528
8733.919097 90.583 43.5799
8797.208675 91.021 40.9417
8860.956876 91.389 37.8160
8925.167022 91.675 34.3006
8989.842461 91.871 30.5086
9054.986566 91.971 26.5660
9120.602731 91.974 22.6067
9186.694378 91.883 18.7656
9253.264952 91.706 15.1686
9320.317925 91.455 11.9206
9387.856790 91.147 9.0957
9455.885071 90.798 6.7354
9524.406312 90.424 4.8524
9593.424086 90.041 3.4380
9662.941992 89.662 2.4696
9732.963653 89.298 1.9128
9803.492719 88.960 1.7211
9874.532869 88.657 1.8386
9946.087805 88.394 2.2061
10018.161257 88.174 2.7680
10090.756983 88.002 3.4745
10163.878768 87.879 4.2751
10237.530423 87.807 5.1136
10311.715789 87.788 5.9277
10386.438732 87.819 6.6553
10461.703149 87.897 7.2419
10537.512962 88.019 7.6377
10613.872125 88.181 7.7917
10690.784618 88.376 7.6500
10768.254450 88.597 7.1604
10846.285661 88.834 6.2817
10924.882318 89.074 4.9883
11004.048518 89.306 3.2683
11083.788390 89.515 1.1234
11164.106090 89.687 -1.4270
11245.005805 89.809 -4.3388
11326.491752 89.866 -7.5412
11408.568180 89.849 -10.9422
11491.239368 89.753 -14.4379
11574.509626 89.573 -17.9203
11658.383294 89.312 -21.2802
11742.864745 88.973 -24.4130
11827.958384 88.564 -27.2258
11913.668646 88.096 -29.6465
12000.000000 87.582 -31.6268
12086.956947 87.035 -33.1376
12174.544019 86.467 -34.1647
12262.765784 85.892 -34.7082
12351.626840 85.320 -34.7849
12441.131819 84.764 -34.4257
12531.285389 84.231 -33.6685
12622.092249 83.730 -32.5536
12713.557132 83.267 -31.1246
12805.684808 82.847 -29.4315
12898.480079 82.474 -27.5264
12991.947783 82.149 -25.4563
13086.092792 81.873 -23.2626
13180.920015 81.648 -20.9858
13276.434395 81.474 -18.6672
13372.640911 81.350 -16.3445
13469.544580 81.276 -14.0505
13567.150452 81.253 -11.8199
13665.463617 81.279 -9.6927
13764.489200 81.353 -7.7111
13864.232362 81.474 -5.9154
13964.698305 81.639 -4.3481
14065.892266 81.845 -3.0573
14167.819519 82.086 -2.0931
14270.485380 82.356 -1.5013
14373.895200 82.646 -1.3214
14478.054370 82.945 -1.5859
14582.968320 83.242 -2.3138
14688.642520 83.522 -3.5031
14795.082478 83.773 -5.1305
14902.293745 83.981 -7.1538
15010.281908 84.135 -9.5099
15119.052599 84.227 -12.1173
15228.611486 84.252 -14.8832
15338.964283 84.208 -17.7134
15450.116741 84.098 -20.5192
15562.074656 83.927 -23.2231
15674.843864 83.702 -25.7656
15788.430244 83.431 -28.1062
15902.839718 83.122 -30.2184
16018.078250 82.778 -32.0778
16134.151848 82.405 -33.6515
16251.066563 82.005 -34.8866
16368.828491 81.584 -35.7031
16487.443769 81.157 -36.0043
16606.918584 80.746 -35.7134
16727.259161 80.387 -34.8253
16848.471777 80.122 -33.4562
16970.562748 79.984 -31.8599
17093.538442 79.993 -30.3827
17217.405268 80.141 -29.3742
17342.169684 80.402 -29.1123
17467.838194 80.738 -29.7758
17594.417350 81.106 -31.4515
17721.913751 81.467 -34.1564
17850.334044 81.782 -37.8561
17979.684923 82.018 -42.4729
18109.973131 82.143 -47.8883
18241.205462 82.135 -53.9520
18373.388756 81.974 -60.4918
18506.529905 81.650 -67.3256
18640.635849 81.156 -74.2730
18775.713581 80.490 -81.1593
18911.770141 79.650 -87.8056
19048.812624 78.637 -94.0130
19186.848172 77.453 -99.5483
19325.883983 76.106 -104.1418
19465.927305 74.616 -107.5143
19606.985439 73.033 -109.4565
19749.065738 71.461 -109.9824
19892.175609 70.102 -109.5192
20036.322514 69.274 -108.9069
