* Measurement data measured by REW V5.31.3
* Source: EXCL: Microphone (USB Sound Device        ), MICROPHONE (Master Volume), R, volume: 0.390
* Format: 256k Log Swept Sine, 1 sweep at -12.0 dBFS with no timing reference
* Dated: Jun 13, 2025 1:19:34 AM
* REW Settings:
*  C-weighting compensation: Off
*  Target level: 75.0 dB
* Note: L Punch Audio Martilo 10ohm
* Measurement: L Punch Audio Martilo 10oh
* Smoothing: 1/12 octave
* Frequency Step: 96 ppo
* Start Frequency: 0.36621094 Hz
*
* Freq(Hz) SPL(dB) Phase(degrees)
0.366211 87.005 -167.3629
0.368865 87.014 -167.3779
0.371538 87.027 -167.4002
0.374230 87.044 -167.4278
0.376942 87.063 -167.4588
0.379673 87.083 -167.4920
0.382424 87.104 -167.5267
0.385196 87.126 -167.5622
0.387987 87.148 -167.5984
0.390798 87.170 -167.6350
0.393630 87.193 -167.6719
0.396483 87.215 -167.7092
0.399356 87.238 -167.7468
0.402250 87.261 -167.7847
0.405165 87.285 -167.8229
0.408101 87.308 -167.8615
0.411058 87.331 -167.9004
0.414037 87.355 -167.9397
0.417037 87.379 -167.9793
0.420059 87.403 -168.0193
0.423103 87.427 -168.0597
0.426169 87.452 -168.1005
0.429257 87.476 -168.1417
0.432368 87.501 -168.1834
0.435501 87.526 -168.2255
0.438656 87.551 -168.2682
0.441835 87.577 -168.3113
0.445037 87.602 -168.3549
0.448262 87.628 -168.3991
0.451510 87.654 -168.4438
0.454782 87.680 -168.4891
0.458077 87.706 -168.5350
0.461397 87.732 -168.5816
0.464740 87.759 -168.6288
0.468108 87.786 -168.6766
0.471500 87.813 -168.7251
0.474917 87.840 -168.7744
0.478358 87.867 -168.8244
0.481825 87.895 -168.8752
0.485316 87.923 -168.9267
0.488833 87.951 -168.9791
0.492375 87.979 -169.0323
0.495943 88.008 -169.0865
0.499537 88.036 -169.1415
0.503157 88.065 -169.1975
0.506803 88.094 -169.2544
0.510475 88.123 -169.3124
0.514175 88.153 -169.3714
0.517900 88.182 -169.4315
0.521653 88.212 -169.4927
0.525434 88.242 -169.5550
0.529241 88.273 -169.6185
0.533076 88.303 -169.6833
0.536939 88.334 -169.7493
0.540830 88.365 -169.8167
0.544749 88.396 -169.8854
0.548696 88.428 -169.9555
0.552673 88.459 -170.0270
0.556677 88.491 -170.1000
0.560711 88.523 -170.1745
0.564774 88.556 -170.2507
0.568867 88.588 -170.3284
0.572989 88.621 -170.4079
0.577141 88.654 -170.4890
0.581324 88.688 -170.5720
0.585536 88.721 -170.6568
0.589779 88.755 -170.7435
0.594053 88.789 -170.8322
0.598358 88.823 -170.9229
0.602694 88.858 -171.0157
0.607061 88.893 -171.1107
0.611460 88.928 -171.2078
0.615891 88.963 -171.3073
0.620354 88.999 -171.4091
0.624849 89.034 -171.5134
0.629377 89.070 -171.6201
0.633938 89.107 -171.7295
0.638532 89.143 -171.8415
0.643159 89.180 -171.9563
0.647819 89.217 -172.0739
0.652514 89.255 -172.1944
0.657242 89.292 -172.3180
0.662005 89.330 -172.4446
0.666802 89.368 -172.5745
0.671634 89.407 -172.7077
0.676501 89.446 -172.8443
0.681403 89.485 -172.9844
0.686341 89.524 -173.1281
0.691314 89.564 -173.2757
0.696324 89.604 -173.4270
0.701370 89.644 -173.5824
0.706452 89.684 -173.7418
0.711571 89.724 -173.9055
0.716728 89.764 -174.0735
0.721921 89.805 -174.2458
0.727153 89.844 -174.4226
0.732422 89.883 -174.6038
0.737729 89.921 -174.7894
0.743075 89.959 -174.9792
0.748460 89.996 -175.1732
0.753883 90.032 -175.3714
0.759346 90.069 -175.5736
0.764849 90.105 -175.7798
0.770391 90.141 -175.9899
0.775974 90.177 -176.2039
0.781597 90.214 -176.4217
0.787261 90.250 -176.6432
0.792966 90.286 -176.8686
0.798712 90.323 -177.0976
0.804500 90.359 -177.3302
0.810329 90.395 -177.5665
0.816201 90.432 -177.8063
0.822116 90.468 -178.0496
0.828073 90.505 -178.2963
0.834074 90.541 -178.5465
0.840118 90.578 -178.8001
0.846206 90.615 -179.0570
0.852338 90.651 -179.3172
0.858514 90.688 -179.5807
0.864735 90.724 -179.8474
0.871001 90.761 179.8827
0.877313 90.798 179.6096
0.883670 90.834 179.3334
0.890074 90.871 179.0541
0.896524 90.908 178.7717
0.903020 90.944 178.4863
0.909564 90.981 178.1979
0.916155 91.018 177.9064
0.922794 91.054 177.6119
0.929481 91.091 177.3144
0.936216 91.127 177.0139
0.943000 91.164 176.7105
0.949834 91.200 176.4040
0.956717 91.237 176.0945
0.963649 91.273 175.7820
0.970632 91.310 175.4666
0.977666 91.346 175.1479
0.984750 91.383 174.8262
0.991886 91.419 174.5014
0.999074 91.455 174.1734
1.006314 91.491 173.8422
1.013606 91.527 173.5077
1.020951 91.564 173.1698
1.028349 91.600 172.8285
1.035801 91.636 172.4837
1.043307 91.671 172.1352
1.050867 91.707 171.7830
1.058482 91.743 171.4268
1.066152 91.779 171.0665
1.073878 91.814 170.7017
1.081660 91.850 170.3320
1.089498 91.885 169.9569
1.097393 91.920 169.5757
1.105345 91.955 169.1877
1.113355 91.990 168.7922
1.121423 92.024 168.3885
1.129549 92.059 167.9763
1.137734 92.093 167.5555
1.145979 92.127 167.1259
1.154283 92.160 166.6878
1.162647 92.194 166.2413
1.171072 92.227 165.7866
1.179558 92.260 165.3238
1.188106 92.293 164.8532
1.196715 92.325 164.3752
1.205387 92.357 163.8898
1.214122 92.389 163.3975
1.222920 92.421 162.8985
1.231782 92.453 162.3931
1.240708 92.484 161.8815
1.249699 92.515 161.3641
1.258754 92.546 160.8413
1.267876 92.576 160.3132
1.277063 92.606 159.7804
1.286318 92.636 159.2430
1.295639 92.666 158.7014
1.305027 92.696 158.1559
1.314484 92.725 157.6071
1.324009 92.754 157.0550
1.333604 92.783 156.5002
1.343268 92.812 155.9430
1.353002 92.840 155.3838
1.362806 92.868 154.8228
1.372681 92.896 154.2606
1.382628 92.924 153.6973
1.392647 92.952 153.1334
1.402739 92.979 152.5692
1.412904 93.006 152.0048
1.423142 93.034 151.4404
1.433455 93.060 150.8759
1.443843 93.087 150.3110
1.454305 93.114 149.7449
1.464844 93.140 149.1766
1.475459 93.166 148.6048
1.486150 93.191 148.0280
1.496920 93.216 147.4451
1.507767 93.241 146.8554
1.518693 93.265 146.2585
1.529698 93.289 145.6542
1.540783 93.313 145.0425
1.551948 93.336 144.4236
1.563194 93.358 143.7978
1.574521 93.380 143.1652
1.585931 93.402 142.5262
1.597423 93.423 141.8811
1.608999 93.444 141.2302
1.620658 93.465 140.5739
1.632402 93.485 139.9125
1.644232 93.504 139.2464
1.656146 93.523 138.5760
1.668147 93.542 137.9017
1.680235 93.560 137.2238
1.692411 93.578 136.5429
1.704675 93.596 135.8593
1.717028 93.613 135.1735
1.729470 93.630 134.4857
1.742003 93.647 133.7965
1.754626 93.663 133.1062
1.767341 93.679 132.4150
1.780147 93.695 131.7230
1.793047 93.710 131.0302
1.806040 93.725 130.3360
1.819128 93.740 129.6396
1.832310 93.754 128.9397
1.845587 93.767 128.2344
1.858961 93.781 127.5223
1.872432 93.793 126.8019
1.886001 93.806 126.0726
1.899667 93.817 125.3340
1.913433 93.828 124.5860
1.927299 93.838 123.8289
1.941265 93.848 123.0632
1.955332 93.857 122.2895
1.969501 93.866 121.5084
1.983773 93.874 120.7206
1.998148 93.882 119.9270
2.012627 93.889 119.1285
2.027212 93.895 118.3259
2.041902 93.901 117.5203
2.056698 93.907 116.7126
2.071602 93.912 115.9041
2.086614 93.917 115.0956
2.101734 93.921 114.2885
2.116964 93.925 113.4836
2.132304 93.929 112.6821
2.147756 93.932 111.8844
2.163320 93.934 111.0910
2.178996 93.937 110.3016
2.194786 93.939 109.5151
2.210690 93.940 108.7301
2.226710 93.941 107.9447
2.242845 93.941 107.1572
2.259098 93.940 106.3666
2.275468 93.939 105.5721
2.291957 93.937 104.7736
2.308566 93.935 103.9712
2.325295 93.931 103.1652
2.342145 93.928 102.3562
2.359117 93.923 101.5449
2.376212 93.919 100.7321
2.393431 93.913 99.9187
2.410775 93.908 99.1060
2.428244 93.902 98.2949
2.445840 93.896 97.4867
2.463564 93.889 96.6827
2.481416 93.882 95.8842
2.499397 93.875 95.0925
2.517509 93.868 94.3085
2.535752 93.861 93.5329
2.554127 93.853 92.7659
2.572635 93.845 92.0071
2.591277 93.837 91.2557
2.610055 93.828 90.5107
2.628968 93.819 89.7712
2.648019 93.809 89.0365
2.667208 93.799 88.3060
2.686535 93.789 87.5797
2.706003 93.778 86.8574
2.725612 93.767 86.1392
2.745363 93.755 85.4254
2.765257 93.744 84.7164
2.785295 93.733 84.0127
2.805478 93.722 83.3148
2.825808 93.712 82.6237
2.846285 93.702 81.9400
2.866910 93.692 81.2647
2.887685 93.683 80.5989
2.908611 93.675 79.9436
2.929688 93.667 79.2995
2.950917 93.659 78.6675
2.972301 93.652 78.0477
2.993839 93.646 77.4403
3.015534 93.640 76.8448
3.037386 93.634 76.2609
3.059396 93.629 75.6877
3.081565 93.624 75.1247
3.103896 93.620 74.5711
3.126388 93.617 74.0262
3.149043 93.615 73.4894
3.171862 93.614 72.9602
3.194847 93.614 72.4381
3.217998 93.616 71.9230
3.241317 93.619 71.4150
3.264805 93.624 70.9147
3.288463 93.631 70.4232
3.312293 93.640 69.9417
3.336295 93.650 69.4715
3.360471 93.662 69.0134
3.384822 93.676 68.5673
3.409350 93.692 68.1328
3.434056 93.709 67.7085
3.458940 93.728 67.2930
3.484005 93.749 66.8844
3.509252 93.771 66.4809
3.534681 93.795 66.0806
3.560295 93.821 65.6817
3.586094 93.849 65.2828
3.612081 93.878 64.8827
3.638255 93.909 64.4813
3.664620 93.942 64.0788
3.691175 93.977 63.6763
3.717923 94.014 63.2748
3.744864 94.054 62.8751
3.772001 94.095 62.4773
3.799335 94.139 62.0809
3.826866 94.184 61.6852
3.854597 94.230 61.2890
3.882529 94.278 60.8908
3.910664 94.327 60.4893
3.939002 94.376 60.0832
3.967546 94.427 59.6711
3.996296 94.477 59.2523
4.025255 94.529 58.8261
4.054423 94.581 58.3928
4.083804 94.634 57.9526
4.113396 94.687 57.5063
4.143204 94.742 57.0545
4.173227 94.797 56.5978
4.203468 94.852 56.1367
4.233928 94.907 55.6716
4.264609 94.962 55.2026
4.295512 95.017 54.7298
4.326639 95.071 54.2531
4.357992 95.123 53.7720
4.389572 95.175 53.2860
4.421380 95.226 52.7946
4.453419 95.276 52.2974
4.485691 95.326 51.7950
4.518196 95.374 51.2879
4.550936 95.421 50.7777
4.583914 95.467 50.2658
4.617131 95.511 49.7539
4.650589 95.555 49.2436
4.684289 95.596 48.7359
4.718233 95.637 48.2318
4.752424 95.675 47.7312
4.786862 95.712 47.2339
4.821549 95.747 46.7394
4.856488 95.780 46.2476
4.891680 95.811 45.7590
4.927127 95.841 45.2747
4.962831 95.869 44.7962
4.998794 95.896 44.3252
5.035017 95.921 43.8633
5.071503 95.945 43.4120
5.108253 95.968 42.9723
5.145270 95.989 42.5445
5.182555 96.009 42.1286
5.220110 96.028 41.7242
5.257937 96.045 41.3313
5.296038 96.061 40.9499
5.334415 96.077 40.5802
5.373071 96.092 40.2227
5.412006 96.106 39.8781
5.451224 96.121 39.5471
5.490725 96.135 39.2302
5.530514 96.149 38.9276
5.570590 96.164 38.6395
5.610957 96.178 38.3651
5.651616 96.193 38.1035
5.692570 96.208 37.8534
5.733821 96.223 37.6135
5.775370 96.240 37.3828
5.817221 96.257 37.1604
5.859375 96.275 36.9459
5.901834 96.295 36.7392
5.944602 96.315 36.5399
5.987679 96.337 36.3472
6.031068 96.360 36.1596
6.074771 96.384 35.9753
6.118792 96.409 35.7923
6.163131 96.434 35.6088
6.207792 96.461 35.4234
6.252776 96.488 35.2354
6.298086 96.517 35.0443
6.343725 96.546 34.8500
6.389694 96.576 34.6519
6.435996 96.606 34.4491
6.482634 96.636 34.2407
6.529610 96.666 34.0258
6.576926 96.696 33.8036
6.624585 96.725 33.5737
6.672590 96.754 33.3360
6.720942 96.782 33.0909
6.769645 96.809 32.8389
6.818700 96.835 32.5808
6.868111 96.860 32.3171
6.917881 96.883 32.0484
6.968010 96.905 31.7750
7.018504 96.925 31.4972
7.069362 96.944 31.2154
7.120590 96.960 30.9307
7.172189 96.975 30.6443
7.224161 96.989 30.3577
7.276511 97.000 30.0720
7.329239 97.010 29.7882
7.382350 97.017 29.5070
7.435845 97.024 29.2288
7.489729 97.028 28.9540
7.544002 97.031 28.6835
7.598669 97.033 28.4179
7.653732 97.034 28.1581
7.709194 97.034 27.9047
7.765058 97.033 27.6576
7.821327 97.031 27.4168
7.878004 97.029 27.1819
7.935091 97.026 26.9524
7.992592 97.023 26.7277
8.050510 97.021 26.5074
8.108847 97.018 26.2911
8.167607 97.016 26.0780
8.226793 97.014 25.8672
8.286408 97.013 25.6574
8.346454 97.012 25.4473
8.406936 97.012 25.2356
8.467856 97.012 25.0214
8.529218 97.012 24.8037
8.591024 97.013 24.5820
8.653278 97.015 24.3552
8.715983 97.016 24.1223
8.779143 97.018 23.8826
8.842760 97.020 23.6354
8.906839 97.022 23.3806
8.971381 97.023 23.1182
9.036392 97.024 22.8481
9.101873 97.025 22.5707
9.167829 97.025 22.2860
9.234263 97.025 21.9945
9.301178 97.023 21.6967
9.368578 97.022 21.3933
9.436467 97.019 21.0851
9.504847 97.015 20.7731
9.573723 97.011 20.4580
9.643099 97.006 20.1404
9.712976 97.001 19.8209
9.783361 96.995 19.5002
9.854255 96.988 19.1792
9.925663 96.982 18.8580
9.997588 96.975 18.5373
10.070035 96.968 18.2169
10.143007 96.962 17.8970
10.216507 96.956 17.5775
10.290540 96.950 17.2581
10.365109 96.945 16.9386
10.440219 96.941 16.6188
10.515873 96.937 16.2979
10.592076 96.934 15.9755
10.668830 96.932 15.6510
10.746141 96.931 15.3242
10.824012 96.931 14.9945
10.902447 96.931 14.6616
10.981451 96.932 14.3252
11.061027 96.934 13.9852
11.141180 96.936 13.6417
11.221913 96.939 13.2946
11.303232 96.942 12.9445
11.385140 96.946 12.5914
11.467641 96.949 12.2358
11.550741 96.953 11.8785
11.634442 96.958 11.5200
11.718750 96.962 11.1609
11.803669 96.966 10.8019
11.889203 96.971 10.4435
11.975357 96.976 10.0865
12.062136 96.980 9.7314
12.149543 96.985 9.3788
12.237583 96.990 9.0289
12.326262 96.996 8.6823
12.415583 97.001 8.3392
12.505552 97.007 7.9999
12.596172 97.013 7.6644
12.687449 97.019 7.3332
12.779387 97.025 7.0062
12.871992 97.031 6.6835
12.965268 97.038 6.3653
13.059220 97.044 6.0518
13.153852 97.051 5.7429
13.249170 97.057 5.4388
13.345179 97.064 5.1398
13.441884 97.070 4.8457
13.539289 97.077 4.5567
13.637401 97.083 4.2727
13.736223 97.089 3.9937
13.835761 97.095 3.7194
13.936021 97.101 3.4497
14.037007 97.107 3.1841
14.138725 97.113 2.9224
14.241180 97.118 2.6641
14.344377 97.124 2.4085
14.448323 97.129 2.1554
14.553021 97.133 1.9041
14.658478 97.137 1.6544
14.764700 97.140 1.4058
14.871691 97.143 1.1581
14.979457 97.145 0.9114
15.088005 97.145 0.6654
15.197339 97.145 0.4204
15.307465 97.144 0.1765
15.418389 97.142 -0.0660
15.530117 97.138 -0.3071
15.642655 97.134 -0.5464
15.756008 97.128 -0.7841
15.870182 97.122 -1.0201
15.985184 97.115 -1.2547
16.101019 97.107 -1.4883
16.217694 97.099 -1.7216
16.335214 97.090 -1.9552
16.453586 97.080 -2.1901
16.572815 97.071 -2.4270
16.692909 97.061 -2.6671
16.813872 97.050 -2.9110
16.935713 97.039 -3.1597
17.058436 97.028 -3.4135
17.182048 97.016 -3.6730
17.306556 97.004 -3.9384
17.431967 96.991 -4.2097
17.558286 96.978 -4.4867
17.685521 96.964 -4.7693
17.813677 96.950 -5.0571
17.942762 96.936 -5.3497
18.072783 96.921 -5.6470
18.203746 96.906 -5.9486
18.335658 96.891 -6.2544
18.468526 96.876 -6.5642
18.602356 96.861 -6.8781
18.737156 96.847 -7.1959
18.872934 96.833 -7.5176
19.009695 96.819 -7.8431
19.147447 96.806 -8.1721
19.286197 96.793 -8.5043
19.425953 96.780 -8.8392
19.566721 96.768 -9.1763
19.708510 96.757 -9.5150
19.851326 96.746 -9.8545
19.995177 96.735 -10.1943
20.140070 96.725 -10.5338
20.286013 96.716 -10.8724
20.433014 96.707 -11.2097
20.581080 96.699 -11.5453
20.730219 96.692 -11.8789
20.880439 96.685 -12.2102
21.031747 96.678 -12.5388
21.184152 96.672 -12.8643
21.337661 96.667 -13.1864
21.492282 96.661 -13.5046
21.648024 96.656 -13.8186
21.804895 96.651 -14.1279
21.962902 96.646 -14.4324
22.122054 96.640 -14.7319
22.282360 96.635 -15.0266
22.443827 96.630 -15.3165
22.606464 96.624 -15.6021
22.770280 96.618 -15.8835
22.935283 96.612 -16.1614
23.101481 96.605 -16.4362
23.268884 96.597 -16.7079
23.437500 96.589 -16.9771
23.607338 96.580 -17.2437
23.778406 96.569 -17.5079
23.950714 96.558 -17.7700
24.124271 96.546 -18.0303
24.299086 96.533 -18.2892
24.475167 96.519 -18.5471
24.652524 96.504 -18.8047
24.831166 96.488 -19.0630
25.011103 96.472 -19.3228
25.192344 96.454 -19.5847
25.374898 96.437 -19.8497
25.558775 96.418 -20.1183
25.743984 96.399 -20.3911
25.930536 96.379 -20.6683
26.118439 96.359 -20.9503
26.307704 96.339 -21.2372
26.498341 96.318 -21.5291
26.690359 96.297 -21.8261
26.883768 96.276 -22.1282
27.078579 96.255 -22.4354
27.274801 96.234 -22.7475
27.472446 96.213 -23.0642
27.671522 96.193 -23.3850
27.872042 96.173 -23.7096
28.074014 96.153 -24.0373
28.277450 96.133 -24.3674
28.482360 96.114 -24.6991
28.688755 96.095 -25.0316
28.896645 96.077 -25.3641
29.106042 96.059 -25.6957
29.316957 96.041 -26.0256
29.529400 96.024 -26.3531
29.743382 96.007 -26.6777
29.958915 95.991 -26.9990
30.176009 95.975 -27.3169
30.394677 95.959 -27.6312
30.614929 95.943 -27.9420
30.836778 95.927 -28.2493
31.060234 95.911 -28.5530
31.285309 95.895 -28.8530
31.512015 95.878 -29.1490
31.740364 95.861 -29.4414
31.970368 95.844 -29.7302
32.202039 95.825 -30.0160
32.435388 95.807 -30.2997
32.670428 95.787 -30.5823
32.907171 95.767 -30.8649
33.145630 95.747 -31.1480
33.385817 95.725 -31.4323
33.627745 95.703 -31.7178
33.871425 95.679 -32.0043
34.116871 95.655 -32.2922
34.364096 95.631 -32.5817
34.613113 95.606 -32.8735
34.863934 95.581 -33.1692
35.116572 95.556 -33.4698
35.371041 95.530 -33.7764
35.627354 95.504 -34.0892
35.885525 95.478 -34.4077
36.145566 95.452 -34.7303
36.407492 95.425 -35.0555
36.671316 95.397 -35.3815
36.937051 95.369 -35.7067
37.204712 95.342 -36.0306
37.474313 95.314 -36.3533
37.745867 95.287 -36.6749
38.019389 95.261 -36.9960
38.294893 95.234 -37.3167
38.572394 95.208 -37.6365
38.851905 95.181 -37.9548
39.133442 95.154 -38.2709
39.417019 95.127 -38.5844
39.702651 95.100 -38.8950
39.990353 95.072 -39.2031
40.280140 95.045 -39.5093
40.572026 95.017 -39.8141
40.866028 94.988 -40.1179
41.162160 94.959 -40.4212
41.460438 94.929 -40.7241
41.760877 94.899 -41.0271
42.063494 94.869 -41.3303
42.368303 94.838 -41.6343
42.675322 94.806 -41.9391
42.984565 94.774 -42.2448
43.296048 94.741 -42.5511
43.609789 94.708 -42.8577
43.925804 94.674 -43.1642
44.244108 94.641 -43.4707
44.564719 94.607 -43.7775
44.887654 94.573 -44.0847
45.212928 94.539 -44.3925
45.540560 94.505 -44.7003
45.870565 94.471 -45.0077
46.202962 94.436 -45.3138
46.537768 94.401 -45.6181
46.875000 94.366 -45.9206
47.214676 94.331 -46.2217
47.556813 94.296 -46.5220
47.901429 94.260 -46.8220
48.248542 94.224 -47.1221
48.598171 94.188 -47.4221
48.950334 94.151 -47.7218
49.305048 94.113 -48.0208
49.662333 94.075 -48.3189
50.022206 94.036 -48.6158
50.384688 93.997 -48.9115
50.749796 93.958 -49.2058
51.117550 93.918 -49.4987
51.487969 93.878 -49.7905
51.861072 93.839 -50.0813
52.236879 93.799 -50.3712
52.615409 93.759 -50.6603
52.996681 93.719 -50.9479
53.380717 93.680 -51.2335
53.767536 93.640 -51.5164
54.157158 93.600 -51.7965
54.549603 93.560 -52.0748
54.944892 93.521 -52.3524
55.343045 93.481 -52.6309
55.744084 93.442 -52.9114
56.148028 93.402 -53.1949
56.554900 93.363 -53.4818
56.964720 93.322 -53.7723
57.377510 93.281 -54.0667
57.793291 93.239 -54.3653
58.212085 93.197 -54.6677
58.633914 93.154 -54.9733
59.058799 93.109 -55.2805
59.486764 93.064 -55.5878
59.917829 93.018 -55.8933
60.352019 92.972 -56.1959
60.789354 92.925 -56.4949
61.229859 92.878 -56.7903
61.673556 92.830 -57.0821
62.120468 92.783 -57.3707
62.570618 92.735 -57.6563
63.024031 92.686 -57.9390
63.480729 92.637 -58.2191
63.940736 92.588 -58.4968
64.404077 92.538 -58.7725
64.870776 92.487 -59.0463
65.340856 92.436 -59.3184
65.814343 92.384 -59.5889
66.291261 92.332 -59.8578
66.771635 92.279 -60.1251
67.255489 92.226 -60.3908
67.742850 92.173 -60.6551
68.233743 92.120 -60.9181
68.728193 92.066 -61.1798
69.226226 92.013 -61.4401
69.727867 91.960 -61.6989
70.233144 91.907 -61.9558
70.742083 91.853 -62.2111
71.254709 91.800 -62.4650
71.771050 91.746 -62.7177
72.291132 91.691 -62.9692
72.814984 91.636 -63.2198
73.342631 91.580 -63.4690
73.874102 91.523 -63.7162
74.409424 91.466 -63.9603
74.948626 91.408 -64.2010
75.491734 91.350 -64.4389
76.038779 91.292 -64.6753
76.589787 91.235 -64.9116
77.144788 91.177 -65.1484
77.703811 91.120 -65.3858
78.266885 91.062 -65.6240
78.834039 91.005 -65.8638
79.405303 90.947 -66.1062
79.980706 90.889 -66.3522
80.560280 90.830 -66.6024
81.144053 90.769 -66.8573
81.732056 90.708 -67.1165
82.324320 90.645 -67.3792
82.920876 90.580 -67.6430
83.521755 90.514 -67.9050
84.126988 90.445 -68.1615
84.736607 90.374 -68.4086
85.350643 90.302 -68.6432
85.969129 90.229 -68.8635
86.592097 90.155 -69.0684
87.219579 90.082 -69.2582
87.851608 90.008 -69.4337
88.488217 89.934 -69.5964
89.129439 89.861 -69.7485
89.775308 89.789 -69.8917
90.425856 89.717 -70.0283
91.081119 89.646 -70.1603
91.741131 89.576 -70.2896
92.405925 89.506 -70.4160
93.075536 89.436 -70.5387
93.750000 89.366 -70.6566
94.429351 89.297 -70.7704
95.113625 89.229 -70.8828
95.802858 89.161 -70.9967
96.497085 89.093 -71.1138
97.196342 89.026 -71.2347
97.900667 88.959 -71.3588
98.610096 88.891 -71.4849
99.324665 88.823 -71.6110
100.044413 88.755 -71.7355
100.769376 88.688 -71.8569
101.499592 88.620 -71.9748
102.235100 88.553 -72.0894
102.975938 88.486 -72.2013
103.722144 88.419 -72.3119
104.473757 88.352 -72.4231
105.230817 88.284 -72.5367
105.993363 88.215 -72.6536
106.761435 88.146 -72.7737
107.535072 88.074 -72.8965
108.314315 88.002 -73.0210
109.099206 87.928 -73.1458
109.889783 87.854 -73.2694
110.686090 87.780 -73.3911
111.488167 87.706 -73.5109
112.296056 87.631 -73.6293
113.109800 87.556 -73.7449
113.929440 87.479 -73.8531
114.755020 87.399 -73.9467
115.586582 87.317 -74.0186
116.424170 87.234 -74.0640
117.267827 87.149 -74.0820
118.117598 87.064 -74.0768
118.973527 86.980 -74.0578
119.835658 86.898 -74.0369
120.704037 86.816 -74.0231
121.578708 86.736 -74.0182
122.459718 86.656 -74.0184
123.347111 86.577 -74.0190
124.240935 86.499 -74.0160
125.141236 86.422 -74.0068
126.048061 86.347 -73.9896
126.961458 86.272 -73.9634
127.881473 86.197 -73.9282
128.808154 86.122 -73.8845
129.741551 86.046 -73.8345
130.681712 85.970 -73.7800
131.628686 85.892 -73.7222
132.582521 85.814 -73.6606
133.543269 85.735 -73.5944
134.510979 85.655 -73.5217
135.485701 85.576 -73.4413
136.467486 85.496 -73.3518
137.456386 85.417 -73.2516
138.452451 85.338 -73.1379
139.455735 85.259 -73.0085
140.466288 85.181 -72.8621
141.484165 85.104 -72.6986
142.509418 85.029 -72.5186
143.542100 84.956 -72.3231
144.582265 84.884 -72.1140
145.629968 84.816 -71.8950
146.685262 84.749 -71.6709
147.748204 84.686 -71.4467
148.818849 84.625 -71.2260
149.897251 84.565 -71.0110
150.983469 84.507 -70.8009
152.077557 84.451 -70.5934
153.179574 84.395 -70.3858
154.289576 84.342 -70.1781
155.407622 84.291 -69.9739
156.533770 84.242 -69.7796
157.668078 84.195 -69.6026
158.810606 84.150 -69.4475
159.961413 84.104 -69.3142
161.120559 84.058 -69.1984
162.288105 84.010 -69.0939
163.464112 83.961 -68.9952
164.648640 83.908 -68.8977
165.841752 83.853 -68.7971
167.043510 83.795 -68.6902
168.253976 83.735 -68.5732
169.473213 83.673 -68.4430
170.701286 83.611 -68.2976
171.938258 83.550 -68.1378
173.184194 83.491 -67.9647
174.439158 83.435 -67.7799
175.703216 83.380 -67.5851
176.976434 83.326 -67.3823
178.258878 83.272 -67.1732
179.550615 83.218 -66.9585
180.851713 83.164 -66.7385
182.162239 83.111 -66.5156
183.482262 83.058 -66.2921
184.811850 83.006 -66.0690
186.151073 82.955 -65.8458
187.500000 82.905 -65.6211
188.858702 82.855 -65.3934
190.227250 82.806 -65.1621
191.605715 82.758 -64.9274
192.994169 82.710 -64.6897
194.392685 82.662 -64.4485
195.801334 82.614 -64.2018
197.220191 82.566 -63.9470
198.649330 82.520 -63.6824
200.088825 82.475 -63.4081
201.538751 82.431 -63.1252
202.999184 82.390 -62.8367
204.470200 82.350 -62.5459
205.951875 82.313 -62.2570
207.444287 82.277 -61.9727
208.947514 82.242 -61.6940
210.461634 82.207 -61.4192
211.986726 82.172 -61.1445
213.522869 82.136 -60.8651
215.070144 82.100 -60.5752
216.628631 82.064 -60.2687
218.198411 82.030 -59.9418
219.779567 81.998 -59.5947
221.372180 81.969 -59.2330
222.976334 81.944 -58.8652
224.592112 81.922 -58.5001
226.219600 81.903 -58.1451
227.858880 81.887 -57.8051
229.510039 81.874 -57.4793
231.173164 81.864 -57.1611
232.848340 81.856 -56.8444
234.535655 81.851 -56.5283
236.235197 81.849 -56.2175
237.947054 81.850 -55.9188
239.671317 81.852 -55.6382
241.408074 81.855 -55.3796
243.157416 81.859 -55.1453
244.919435 81.862 -54.9349
246.694223 81.865 -54.7450
248.481871 81.866 -54.5691
250.282473 81.867 -54.3999
252.096123 81.867 -54.2321
253.922915 81.868 -54.0644
255.762945 81.870 -53.9002
257.616309 81.873 -53.7460
259.483103 81.877 -53.6083
261.363424 81.880 -53.4896
263.257372 81.882 -53.3867
265.165043 81.882 -53.2924
267.086538 81.879 -53.1986
269.021957 81.873 -53.0979
270.971401 81.867 -52.9856
272.934972 81.860 -52.8607
274.912771 81.854 -52.7253
276.904902 81.849 -52.5823
278.911469 81.846 -52.4344
280.932577 81.844 -52.2840
282.968330 81.845 -52.1351
285.018835 81.849 -51.9943
287.084199 81.854 -51.8698
289.164530 81.861 -51.7689
291.259935 81.868 -51.6936
293.370525 81.872 -51.6389
295.496408 81.874 -51.5950
297.637697 81.874 -51.5524
299.794503 81.871 -51.5051
301.966937 81.867 -51.4506
304.155114 81.863 -51.3889
306.359147 81.859 -51.3218
308.579152 81.857 -51.2525
310.815244 81.855 -51.1836
313.067539 81.854 -51.1165
315.336156 81.851 -51.0505
317.621211 81.848 -50.9836
319.922826 81.844 -50.9128
322.241118 81.840 -50.8365
324.576210 81.837 -50.7553
326.928223 81.835 -50.6714
329.297280 81.834 -50.5879
331.683504 81.835 -50.5084
334.087019 81.836 -50.4354
336.507952 81.839 -50.3704
338.946427 81.841 -50.3134
341.402572 81.844 -50.2630
343.876516 81.846 -50.2173
346.368387 81.847 -50.1742
348.878315 81.849 -50.1323
351.406431 81.850 -50.0908
353.952867 81.851 -50.0496
356.517756 81.853 -50.0087
359.101230 81.854 -49.9690
361.703426 81.856 -49.9309
364.324478 81.858 -49.8945
366.964523 81.860 -49.8591
369.623699 81.862 -49.8245
372.302145 81.864 -49.7905
375.000000 81.867 -49.7584
377.717405 81.869 -49.7292
380.454501 81.872 -49.7036
383.211431 81.875 -49.6815
385.988339 81.878 -49.6616
388.785369 81.881 -49.6429
391.602668 81.884 -49.6252
394.440383 81.887 -49.6090
397.298660 81.891 -49.5950
400.177650 81.895 -49.5839
403.077502 81.899 -49.5764
405.998368 81.903 -49.5735
408.940400 81.907 -49.5757
411.903750 81.910 -49.5815
414.888575 81.913 -49.5878
417.895028 81.916 -49.5911
420.923268 81.919 -49.5889
423.973452 81.921 -49.5803
427.045738 81.925 -49.5667
430.140287 81.930 -49.5518
433.257261 81.936 -49.5405
436.396822 81.943 -49.5358
439.559133 81.951 -49.5377
442.744360 81.961 -49.5461
445.952668 81.971 -49.5631
449.184225 81.982 -49.5938
452.439199 81.994 -49.6438
455.717760 82.004 -49.7161
459.020079 82.011 -49.8065
462.346327 82.015 -49.9049
465.696680 82.015 -49.9997
469.071310 82.013 -50.0833
472.470394 82.010 -50.1532
475.894109 82.007 -50.2116
479.342634 82.004 -50.2640
482.816148 82.000 -50.3165
486.314833 81.997 -50.3715
489.838871 81.992 -50.4241
493.388445 81.985 -50.4657
496.963741 81.979 -50.4919
500.564945 81.974 -50.5067
504.192245 81.971 -50.5187
507.845830 81.970 -50.5353
511.525890 81.969 -50.5592
515.232618 81.968 -50.5885
518.966206 81.966 -50.6190
522.726849 81.964 -50.6457
526.514743 81.961 -50.6642
530.330086 81.957 -50.6731
534.173076 81.955 -50.6755
538.043915 81.953 -50.6775
541.942803 81.952 -50.6820
545.869944 81.951 -50.6882
549.825542 81.951 -50.6943
553.809805 81.951 -50.7010
557.822939 81.952 -50.7106
561.865154 81.952 -50.7242
565.936660 81.952 -50.7407
570.037671 81.951 -50.7570
574.168399 81.950 -50.7693
578.329060 81.948 -50.7762
582.519870 81.946 -50.7787
586.741049 81.944 -50.7774
590.992817 81.942 -50.7703
595.275394 81.941 -50.7548
599.589005 81.941 -50.7316
603.933874 81.942 -50.7051
608.310228 81.943 -50.6804
612.718295 81.945 -50.6595
617.158304 81.946 -50.6409
621.630488 81.947 -50.6192
626.135079 81.947 -50.5885
630.672311 81.948 -50.5466
635.242423 81.951 -50.4975
639.845651 81.955 -50.4468
644.482237 81.962 -50.3964
649.152421 81.970 -50.3450
653.856447 81.980 -50.2938
658.594560 81.993 -50.2488
663.367008 82.007 -50.2197
668.174039 82.022 -50.2135
673.015903 82.035 -50.2288
677.892854 82.046 -50.2568
682.805145 82.054 -50.2876
687.753032 82.059 -50.3136
692.736774 82.063 -50.3294
697.756631 82.064 -50.3315
702.812863 82.066 -50.3195
707.905735 82.068 -50.2954
713.035511 82.070 -50.2631
718.202461 82.073 -50.2249
723.406852 82.077 -50.1816
728.648956 82.080 -50.1326
733.929047 82.084 -50.0768
739.247399 82.089 -50.0131
744.604290 82.094 -49.9406
750.000000 82.100 -49.8588
755.434809 82.107 -49.7683
760.909001 82.116 -49.6694
766.422861 82.125 -49.5627
771.976677 82.136 -49.4487
777.570739 82.148 -49.3277
783.205337 82.161 -49.1998
788.880766 82.176 -49.0634
794.597321 82.192 -48.9158
800.355301 82.212 -48.7550
806.155005 82.235 -48.5830
811.996736 82.262 -48.4055
817.880799 82.294 -48.2312
823.807501 82.331 -48.0699
829.777150 82.372 -47.9307
835.790057 82.414 -47.8168
841.846536 82.458 -47.7228
847.946903 82.501 -47.6399
854.091476 82.545 -47.5620
860.280575 82.591 -47.4879
866.514523 82.637 -47.4180
872.793644 82.685 -47.3531
879.118267 82.736 -47.2972
885.488720 82.788 -47.2579
891.905336 82.843 -47.2411
898.368450 82.898 -47.2479
904.878398 82.953 -47.2759
911.435520 83.009 -47.3219
918.040157 83.064 -47.3850
924.692655 83.119 -47.4644
931.393359 83.174 -47.5597
938.142619 83.228 -47.6711
944.940787 83.280 -47.7973
951.788218 83.330 -47.9347
958.685268 83.378 -48.0789
965.632296 83.424 -48.2249
972.629666 83.469 -48.3689
979.677741 83.512 -48.5087
986.776890 83.554 -48.6442
993.927482 83.596 -48.7737
1001.129891 83.637 -48.8938
1008.384491 83.679 -49.0013
1015.691660 83.722 -49.0975
1023.051781 83.768 -49.1870
1030.465236 83.818 -49.2782
1037.932411 83.871 -49.3832
1045.453698 83.928 -49.5148
1053.029486 83.985 -49.6790
1060.660172 84.041 -49.8723
1068.346153 84.095 -50.0864
1076.087829 84.147 -50.3116
1083.885605 84.198 -50.5414
1091.739887 84.247 -50.7737
1099.651084 84.295 -51.0084
1107.619609 84.342 -51.2458
1115.645878 84.388 -51.4856
1123.730308 84.434 -51.7267
1131.873321 84.479 -51.9678
1140.075341 84.523 -52.2077
1148.336797 84.567 -52.4456
1156.658119 84.610 -52.6814
1165.039741 84.654 -52.9145
1173.482099 84.698 -53.1440
1181.985634 84.743 -53.3706
1190.550789 84.790 -53.6002
1199.178011 84.840 -53.8437
1207.867749 84.892 -54.1124
1216.620457 84.944 -54.4120
1225.436590 84.993 -54.7388
1234.316609 85.040 -55.0845
1243.260976 85.083 -55.4401
1252.270157 85.122 -55.7976
1261.344623 85.159 -56.1523
1270.484846 85.194 -56.5021
1279.691303 85.227 -56.8453
1288.964474 85.258 -57.1807
1298.304842 85.289 -57.5081
1307.712894 85.319 -57.8298
1317.189120 85.349 -58.1494
1326.734016 85.378 -58.4689
1336.348077 85.406 -58.7876
1346.031806 85.433 -59.1025
1355.785708 85.458 -59.4091
1365.610290 85.481 -59.7031
1375.506065 85.503 -59.9797
1385.473549 85.526 -60.2347
1395.513261 85.549 -60.4678
1405.625726 85.576 -60.6849
1415.811469 85.606 -60.8982
1426.071023 85.640 -61.1219
1436.404921 85.676 -61.3651
1446.813703 85.713 -61.6274
1457.297912 85.748 -61.9027
1467.858093 85.782 -62.1843
1478.494798 85.815 -62.4677
1489.208581 85.846 -62.7494
1500.000000 85.876 -63.0267
1510.869618 85.905 -63.2964
1521.818002 85.934 -63.5557
1532.845723 85.962 -63.8019
1543.953355 85.992 -64.0333
1555.141477 86.023 -64.2491
1566.410674 86.058 -64.4536
1577.761531 86.096 -64.6571
1589.194642 86.138 -64.8737
1600.710601 86.182 -65.1128
1612.310010 86.226 -65.3751
1623.993473 86.270 -65.6555
1635.761599 86.311 -65.9463
1647.615002 86.350 -66.2411
1659.554299 86.388 -66.5352
1671.580114 86.426 -66.8251
1683.693072 86.462 -67.1099
1695.893807 86.499 -67.3915
1708.182952 86.535 -67.6714
1720.561150 86.571 -67.9494
1733.029045 86.606 -68.2220
1745.587288 86.641 -68.4841
1758.236533 86.675 -68.7290
1770.977440 86.710 -68.9514
1783.810673 86.748 -69.1522
1796.736900 86.790 -69.3408
1809.756796 86.836 -69.5316
1822.871040 86.886 -69.7362
1836.080315 86.939 -69.9589
1849.385310 86.992 -70.1981
1862.786718 87.046 -70.4504
1876.285239 87.099 -70.7106
1889.881575 87.152 -70.9728
1903.576436 87.205 -71.2315
1917.370535 87.258 -71.4819
1931.264593 87.314 -71.7210
1945.259332 87.373 -71.9507
1959.355483 87.436 -72.1802
1973.553781 87.503 -72.4237
1987.854965 87.575 -72.6920
2002.259781 87.648 -72.9887
2016.768981 87.721 -73.3116
2031.383320 87.795 -73.6564
2046.103561 87.867 -74.0179
2060.930471 87.939 -74.3926
2075.864823 88.011 -74.7787
2090.907395 88.082 -75.1761
2106.058972 88.152 -75.5830
2121.320344 88.221 -75.9943
2136.692305 88.289 -76.4023
2152.175658 88.357 -76.7997
2167.771210 88.426 -77.1853
2183.479774 88.500 -77.5669
2199.302169 88.577 -77.9578
2215.239219 88.657 -78.3684
2231.291755 88.739 -78.8038
2247.460615 88.822 -79.2642
2263.746641 88.905 -79.7461
2280.150683 88.988 -80.2432
2296.673595 89.070 -80.7487
2313.316238 89.154 -81.2571
2330.079481 89.239 -81.7686
2346.964198 89.329 -82.2915
2363.971268 89.422 -82.8390
2381.101578 89.517 -83.4219
2398.356022 89.614 -84.0450
2415.735498 89.710 -84.7088
2433.240913 89.806 -85.4103
2450.873180 89.899 -86.1470
2468.633217 89.990 -86.9167
2486.521951 90.078 -87.7168
2504.540314 90.163 -88.5411
2522.689246 90.243 -89.3805
2540.969692 90.321 -90.2257
2559.382606 90.396 -91.0744
2577.928947 90.472 -91.9316
2596.609683 90.547 -92.8053
2615.425787 90.621 -93.7009
2634.378241 90.692 -94.6196
2653.468031 90.761 -95.5579
2672.696154 90.826 -96.5079
2692.063613 90.889 -97.4603
2711.571415 90.950 -98.4092
2731.220579 91.012 -99.3572
2751.012130 91.076 -100.3145
2770.947098 91.142 -101.2935
2791.026522 91.210 -102.3051
2811.251451 91.278 -103.3577
2831.622938 91.346 -104.4579
2852.142045 91.411 -105.6116
2872.809842 91.473 -106.8215
2893.627406 91.528 -108.0845
2914.595823 91.574 -109.3905
2935.716186 91.612 -110.7269
2956.989596 91.641 -112.0846
2978.417161 91.661 -113.4585
3000.000000 91.672 -114.8440
3021.739237 91.674 -116.2348
3043.636005 91.665 -117.6213
3065.691446 91.645 -118.9906
3087.906710 91.617 -120.3290
3110.282955 91.582 -121.6283
3132.821347 91.542 -122.8884
3155.523062 91.499 -124.1149
3178.389283 91.454 -125.3147
3201.421202 91.406 -126.4941
3224.620020 91.356 -127.6583
3247.986946 91.303 -128.8109
3271.523198 91.247 -129.9525
3295.230004 91.185 -131.0779
3319.108599 91.119 -132.1796
3343.160228 91.049 -133.2531
3367.386145 90.976 -134.2995
3391.787613 90.900 -135.3227
3416.365904 90.821 -136.3246
3441.122300 90.738 -137.3018
3466.058091 90.650 -138.2446
3491.174576 90.558 -139.1418
3516.473066 90.464 -139.9877
3541.954880 90.370 -140.7827
3567.621345 90.278 -141.5330
3593.473800 90.188 -142.2467
3619.513592 90.100 -142.9341
3645.742080 90.015 -143.6046
3672.160630 89.932 -144.2629
3698.770620 89.849 -144.9068
3725.573436 89.767 -145.5332
3752.570477 89.685 -146.1426
3779.763150 89.604 -146.7388
3807.152872 89.524 -147.3246
3834.741071 89.442 -147.8976
3862.529185 89.360 -148.4491
3890.518664 89.277 -148.9707
3918.710966 89.195 -149.4597
3947.107561 89.116 -149.9210
3975.709929 89.040 -150.3640
4004.519563 88.969 -150.8002
4033.537962 88.900 -151.2402
4062.766641 88.832 -151.6881
4092.207123 88.765 -152.1404
4121.860942 88.697 -152.5923
4151.729646 88.627 -153.0420
4181.814790 88.557 -153.4906
4212.117944 88.485 -153.9364
4242.640687 88.409 -154.3710
4273.384610 88.329 -154.7815
4304.351317 88.248 -155.1573
4335.542421 88.165 -155.4933
4366.959549 88.083 -155.7894
4398.604338 88.002 -156.0494
4430.478438 87.923 -156.2780
4462.583511 87.846 -156.4749
4494.921231 87.771 -156.6360
4527.493283 87.699 -156.7596
4560.301365 87.632 -156.8500
4593.347189 87.570 -156.9149
4626.632476 87.514 -156.9591
4660.158962 87.464 -156.9830
4693.928395 87.419 -156.9873
4727.942535 87.383 -156.9769
4762.203156 87.355 -156.9623
4796.712043 87.335 -156.9586
4831.470996 87.323 -156.9805
4866.481826 87.316 -157.0358
4901.746360 87.315 -157.1273
4937.266434 87.316 -157.2567
4973.043902 87.319 -157.4261
5009.080628 87.322 -157.6326
5045.378492 87.324 -157.8665
5081.939384 87.324 -158.1148
5118.765212 87.323 -158.3677
5155.857894 87.322 -158.6226
5193.219366 87.323 -158.8840
5230.851574 87.325 -159.1595
5268.756481 87.329 -159.4535
5306.936062 87.333 -159.7684
5345.392309 87.338 -160.1072
5384.127225 87.341 -160.4711
5423.142830 87.341 -160.8552
5462.441159 87.338 -161.2480
5502.024259 87.331 -161.6370
5541.894195 87.323 -162.0126
5582.053045 87.314 -162.3735
5622.502902 87.306 -162.7236
5663.245876 87.300 -163.0682
5704.284090 87.297 -163.4131
5745.619684 87.296 -163.7659
5787.254813 87.296 -164.1339
5829.191647 87.298 -164.5182
5871.432373 87.298 -164.9142
5913.979192 87.299 -165.3137
5956.834323 87.300 -165.7108
6000.000000 87.303 -166.1052
6043.478473 87.310 -166.5005
6087.272010 87.321 -166.9039
6131.382892 87.338 -167.3271
6175.813420 87.361 -167.7849
6220.565910 87.387 -168.2892
6265.642695 87.418 -168.8481
6311.046124 87.450 -169.4667
6356.778566 87.484 -170.1512
6402.842404 87.520 -170.9114
6449.240040 87.555 -171.7577
6495.973891 87.588 -172.7017
6543.046396 87.618 -173.7551
6590.460007 87.639 -174.9271
6638.217197 87.647 -176.2190
6686.320456 87.638 -177.6231
6734.772290 87.608 -179.1241
6783.575226 87.552 179.2980
6832.731809 87.468 177.6682
6882.244600 87.352 176.0159
6932.116181 87.203 174.3736
6982.349153 87.019 172.7778
7032.946133 86.799 171.2715
7083.909760 86.543 169.9038
7135.242690 86.254 168.7255
7186.947600 85.934 167.7841
7239.027185 85.591 167.1205
7291.484160 85.231 166.7648
7344.321260 84.864 166.7336
7397.541239 84.495 167.0345
7451.146872 84.134 167.6703
7505.140954 83.788 168.6400
7559.526299 83.466 169.9344
7614.305743 83.175 171.5333
7669.482141 82.925 173.4033
7725.058371 82.722 175.4961
7781.037328 82.572 177.7542
7837.421932 82.476 -179.8785
7894.215122 82.438 -177.4485
7951.419859 82.457 -174.9943
8009.039125 82.536 -172.5533
8067.075924 82.678 -170.1707
8125.533282 82.884 -167.9086
8184.414245 83.154 -165.8445
8243.721885 83.485 -164.0602
8303.459292 83.870 -162.6325
8363.629581 84.301 -161.6292
8424.235888 84.766 -161.1063
8485.281374 85.254 -161.1113
8546.769221 85.750 -161.6826
8608.702634 86.236 -162.8424
8671.084842 86.695 -164.5868
8733.919097 87.109 -166.8817
8797.208675 87.459 -169.6619
8860.956876 87.734 -172.8346
8925.167022 87.922 -176.2884
8989.842461 88.019 -179.9012
9054.986566 88.021 176.4547
9120.602731 87.932 172.9059
9186.694378 87.758 169.5717
9253.264952 87.510 166.5568
9320.317925 87.202 163.9414
9387.856790 86.850 161.7760
9455.885071 86.471 160.0815
9524.406312 86.080 158.8548
9593.424086 85.692 158.0770
9662.941992 85.318 157.7195
9732.963653 84.968 157.7440
9803.492719 84.652 158.0995
9874.532869 84.378 158.7246
9946.087805 84.150 159.5528
10018.161257 83.969 160.5225
10090.756983 83.838 161.5807
10163.878768 83.757 162.6775
10237.530423 83.726 163.7595
10311.715789 83.743 164.7695
10386.438732 83.806 165.6515
10461.703149 83.911 166.3564
10537.512962 84.053 166.8402
10613.872125 84.227 167.0575
10690.784618 84.426 166.9608
10768.254450 84.641 166.5067
10846.285661 84.861 165.6660
10924.882318 85.073 164.4277
11004.048518 85.264 162.7974
11083.788390 85.421 160.7951
11164.106090 85.533 158.4583
11245.005805 85.585 155.8463
11326.491752 85.568 153.0417
11408.568180 85.474 150.1425
11491.239368 85.303 147.2517
11574.509626 85.053 144.4701
11658.383294 84.730 141.8936
11742.864745 84.338 139.6105
11827.958384 83.888 137.6960
11913.668646 83.391 136.2054
12000.000000 82.860 135.1716
12086.956947 82.306 134.6107
12174.544019 81.742 134.5267
12262.765784 81.178 134.9119
12351.626840 80.625 135.7443
12441.131819 80.093 136.9904
12531.285389 79.588 138.6117
12622.092249 79.116 140.5698
12713.557132 78.684 142.8240
12805.684808 78.295 145.3282
12898.480079 77.951 148.0344
12991.947783 77.656 150.9006
13086.092792 77.410 153.8904
13180.920015 77.213 156.9676
13276.434395 77.067 160.0939
13372.640911 76.971 163.2325
13469.544580 76.925 166.3505
13567.150452 76.927 169.4119
13665.463617 76.979 172.3754
13764.489200 77.077 175.1978
13864.232362 77.221 177.8374
13964.698305 77.407 -179.7492
14065.892266 77.632 -177.6107
14167.819519 77.890 -175.7971
14270.485380 78.173 -174.3530
14373.895200 78.473 -173.3175
14478.054370 78.779 -172.7227
14582.968320 79.076 -172.5857
14688.642520 79.353 -172.9013
14795.082478 79.594 -173.6411
14902.293745 79.787 -174.7554
15010.281908 79.921 -176.1727
15119.052599 79.987 -177.8024
15228.611486 79.980 -179.5436
15338.964283 79.899 178.7065
15450.116741 79.746 177.0472
15562.074656 79.523 175.5714
15674.843864 79.238 174.3633
15788.430244 78.898 173.5015
15902.839718 78.512 173.0662
16018.078250 78.092 173.1444
16134.151848 77.653 173.8238
16251.066563 77.219 175.1714
16368.828491 76.821 177.2002
16487.443769 76.490 179.8299
16606.918584 76.258 -177.1317
16727.259161 76.143 -173.9621
16848.471777 76.148 -170.9595
16970.562748 76.260 -168.3844
17093.538442 76.458 -166.4288
17217.405268 76.715 -165.2147
17342.169684 77.003 -164.8119
17467.838194 77.293 -165.2540
17594.417350 77.558 -166.5418
17721.913751 77.769 -168.6397
17850.334044 77.899 -171.4763
17979.684923 77.924 -174.9437
18109.973131 77.822 -178.8997
18241.205462 77.579 176.8217
18373.388756 77.183 172.3999
18506.529905 76.631 168.0207
18640.635849 75.922 163.8700
18775.713581 75.059 160.1290
18911.770141 74.054 156.9647
19048.812624 72.922 154.5004
19186.848172 71.690 152.7697
19325.883983 70.388 151.6888
19465.927305 69.050 151.0884
19606.985439 67.721 150.7961
19749.065738 66.476 150.6985
19892.175609 65.453 150.7245
20036.322514 64.856 150.7853
