* Measurement data measured by REW V5.30.5
* Source: Input device not selected, no input selected, L, volume: no control
* Format: 256k Log Swept Sine, 1 sweep at -16.0 dBFS with no timing reference
* Dated: Feb 9, 2024 12:17:16 AM
* REW Settings:
*  C-weighting compensation: Off
*  Target level: 75.0 dB
* Note: QKZ x HBB Hades R
* Measurement: R Feb 9
* Smoothing: 1/12 octave
* Frequency Step: 96 ppo
* Start Frequency: 1.0986328 Hz
*
* Freq(Hz) SPL(dB) Phase(degrees)
1.098633 83.438 -32.6015
1.106594 83.455 -32.5703
1.114613 83.480 -32.5224
1.122690 83.512 -32.4598
1.130825 83.547 -32.3843
1.139020 83.585 -32.2975
1.147273 83.625 -32.2006
1.155587 83.665 -32.0942
1.163961 83.707 -31.9792
1.172395 83.749 -31.8561
1.180891 83.791 -31.7253
1.189448 83.833 -31.5875
1.198068 83.876 -31.4430
1.206749 83.919 -31.2925
1.215494 83.963 -31.1363
1.224302 84.007 -30.9751
1.233174 84.051 -30.8095
1.242110 84.095 -30.6399
1.251111 84.140 -30.4670
1.260177 84.185 -30.2914
1.269308 84.231 -30.1137
1.278506 84.276 -29.9347
1.287771 84.323 -29.7548
1.297103 84.369 -29.5749
1.306502 84.416 -29.3957
1.315969 84.463 -29.2178
1.325505 84.510 -29.0420
1.335111 84.558 -28.8689
1.344785 84.606 -28.6995
1.354530 84.655 -28.5344
1.364346 84.704 -28.3743
1.374232 84.753 -28.2202
1.384191 84.803 -28.0726
1.394221 84.853 -27.9323
1.404324 84.904 -27.8000
1.414500 84.955 -27.6763
1.424751 85.008 -27.5616
1.435075 85.062 -27.4559
1.445474 85.119 -27.3590
1.455948 85.178 -27.2703
1.466499 85.241 -27.1883
1.477126 85.309 -27.1115
1.487830 85.380 -27.0384
1.498611 85.456 -26.9679
1.509471 85.534 -26.8993
1.520409 85.616 -26.8324
1.531427 85.701 -26.7672
1.542524 85.788 -26.7042
1.553702 85.877 -26.6437
1.564960 85.968 -26.5863
1.576301 86.062 -26.5326
1.587723 86.158 -26.4831
1.599229 86.255 -26.4384
1.610817 86.354 -26.3991
1.622490 86.455 -26.3657
1.634247 86.558 -26.3390
1.646089 86.661 -26.3194
1.658018 86.767 -26.3076
1.670032 86.873 -26.3041
1.682134 86.981 -26.3094
1.694323 87.089 -26.3242
1.706601 87.198 -26.3489
1.718968 87.308 -26.3841
1.731424 87.418 -26.4303
1.743971 87.529 -26.4881
1.756608 87.640 -26.5578
1.769338 87.751 -26.6398
1.782159 87.862 -26.7344
1.795073 87.973 -26.8416
1.808081 88.084 -26.9613
1.821183 88.194 -27.0929
1.834380 88.305 -27.2354
1.847673 88.416 -27.3879
1.861062 88.528 -27.5492
1.874548 88.641 -27.7184
1.888132 88.754 -27.8949
1.901814 88.868 -28.0784
1.915595 88.983 -28.2687
1.929476 89.099 -28.4657
1.943458 89.216 -28.6695
1.957541 89.333 -28.8801
1.971726 89.451 -29.0977
1.986014 89.570 -29.3225
2.000406 89.689 -29.5546
2.014902 89.808 -29.7941
2.029502 89.928 -30.0413
2.044209 90.047 -30.2964
2.059022 90.167 -30.5596
2.073943 90.287 -30.8312
2.088971 90.406 -31.1114
2.104109 90.526 -31.4006
2.119356 90.644 -31.6989
2.134714 90.763 -32.0067
2.150183 90.880 -32.3244
2.165764 90.998 -32.6520
2.181458 91.114 -32.9898
2.197266 91.230 -33.3378
2.213188 91.345 -33.6959
2.229226 91.459 -34.0639
2.245379 91.574 -34.4413
2.261650 91.687 -34.8277
2.278039 91.800 -35.2224
2.294547 91.913 -35.6250
2.311174 92.025 -36.0349
2.327922 92.137 -36.4515
2.344791 92.249 -36.8743
2.361782 92.359 -37.3030
2.378897 92.470 -37.7370
2.396135 92.579 -38.1760
2.413498 92.689 -38.6195
2.430988 92.797 -39.0675
2.448604 92.905 -39.5195
2.466347 93.012 -39.9754
2.484219 93.119 -40.4352
2.502221 93.225 -40.8990
2.520353 93.330 -41.3670
2.538617 93.434 -41.8396
2.557013 93.537 -42.3176
2.575542 93.640 -42.8018
2.594205 93.741 -43.2929
2.613004 93.841 -43.7913
2.631939 93.941 -44.2969
2.651011 94.039 -44.8095
2.670221 94.136 -45.3284
2.689571 94.233 -45.8528
2.709061 94.328 -46.3818
2.728692 94.422 -46.9146
2.748465 94.516 -47.4502
2.768381 94.608 -47.9877
2.788442 94.699 -48.5263
2.808648 94.790 -49.0651
2.829001 94.880 -49.6035
2.849501 94.969 -50.1410
2.870150 95.057 -50.6773
2.890948 95.144 -51.2125
2.911897 95.230 -51.7470
2.932998 95.315 -52.2818
2.954252 95.399 -52.8179
2.975659 95.482 -53.3563
2.997222 95.564 -53.8977
3.018941 95.645 -54.4421
3.040818 95.724 -54.9892
3.062853 95.802 -55.5385
3.085048 95.879 -56.0891
3.107403 95.955 -56.6402
3.129921 96.030 -57.1908
3.152601 96.104 -57.7399
3.175447 96.178 -58.2864
3.198457 96.250 -58.8297
3.221634 96.322 -59.3690
3.244980 96.393 -59.9040
3.268494 96.463 -60.4345
3.292179 96.533 -60.9610
3.316035 96.601 -61.4842
3.340065 96.669 -62.0050
3.364268 96.735 -62.5242
3.388647 96.801 -63.0421
3.413202 96.866 -63.5586
3.437936 96.929 -64.0734
3.462848 96.992 -64.5861
3.487942 97.054 -65.0961
3.513217 97.115 -65.6025
3.538675 97.176 -66.1047
3.564318 97.236 -66.6019
3.590146 97.296 -67.0936
3.616162 97.356 -67.5792
3.642366 97.416 -68.0585
3.668760 97.475 -68.5316
3.695346 97.534 -68.9988
3.722124 97.592 -69.4605
3.749096 97.650 -69.9173
3.776263 97.707 -70.3695
3.803627 97.764 -70.8173
3.831190 97.821 -71.2609
3.858953 97.877 -71.7004
3.886916 97.933 -72.1358
3.915082 97.990 -72.5671
3.943453 98.046 -72.9942
3.972029 98.103 -73.4169
4.000812 98.159 -73.8350
4.029803 98.217 -74.2484
4.059005 98.274 -74.6571
4.088418 98.331 -75.0610
4.118044 98.389 -75.4603
4.147885 98.447 -75.8555
4.177943 98.505 -76.2471
4.208218 98.563 -76.6356
4.238712 98.622 -77.0216
4.269428 98.681 -77.4057
4.300366 98.740 -77.7884
4.331528 98.799 -78.1701
4.362916 98.860 -78.5509
4.394531 98.920 -78.9309
4.426376 98.981 -79.3100
4.458451 99.042 -79.6881
4.490759 99.104 -80.0652
4.523301 99.166 -80.4415
4.556078 99.229 -80.8174
4.589094 99.292 -81.1936
4.622348 99.355 -81.5705
4.655844 99.418 -81.9488
4.689582 99.482 -82.3291
4.723565 99.546 -82.7117
4.757793 99.609 -83.0969
4.792270 99.673 -83.4847
4.826997 99.737 -83.8752
4.861975 99.801 -84.2681
4.897207 99.865 -84.6633
4.932694 99.930 -85.0609
4.968439 99.994 -85.4607
5.004442 100.057 -85.8629
5.040707 100.121 -86.2677
5.077234 100.184 -86.6751
5.114026 100.247 -87.0854
5.151084 100.309 -87.4987
5.188411 100.371 -87.9152
5.226008 100.432 -88.3346
5.263878 100.493 -88.7566
5.302022 100.553 -89.1808
5.340443 100.613 -89.6067
5.379142 100.672 -90.0338
5.418121 100.731 -90.4617
5.457383 100.788 -90.8901
5.496930 100.845 -91.3190
5.536763 100.901 -91.7486
5.576884 100.957 -92.1788
5.617297 101.011 -92.6095
5.658002 101.065 -93.0403
5.699002 101.118 -93.4705
5.740300 101.170 -93.8996
5.781896 101.222 -94.3269
5.823794 101.272 -94.7521
5.865995 101.322 -95.1750
5.908503 101.372 -95.5956
5.951319 101.421 -96.0138
5.994444 101.469 -96.4297
6.037883 101.516 -96.8431
6.081636 101.563 -97.2539
6.125706 101.609 -97.6617
6.170095 101.655 -98.0662
6.214807 101.701 -98.4673
6.259841 101.746 -98.8649
6.305203 101.791 -99.2591
6.350893 101.836 -99.6500
6.396914 101.880 -100.0380
6.443269 101.925 -100.4232
6.489959 101.969 -100.8058
6.536988 102.013 -101.1861
6.584358 102.057 -101.5641
6.632071 102.101 -101.9399
6.680129 102.145 -102.3138
6.728536 102.188 -102.6859
6.777294 102.232 -103.0566
6.826405 102.276 -103.4262
6.875872 102.320 -103.7953
6.925697 102.363 -104.1641
6.975883 102.407 -104.5328
7.026433 102.451 -104.9016
7.077350 102.494 -105.2706
7.128635 102.537 -105.6398
7.180293 102.580 -106.0094
7.232324 102.623 -106.3796
7.284732 102.665 -106.7504
7.337521 102.707 -107.1219
7.390691 102.749 -107.4942
7.444247 102.790 -107.8671
7.498191 102.831 -108.2404
7.552526 102.871 -108.6139
7.607255 102.911 -108.9871
7.662380 102.950 -109.3599
7.717905 102.988 -109.7321
7.773832 103.026 -110.1035
7.830165 103.063 -110.4738
7.886906 103.099 -110.8427
7.944057 103.135 -111.2095
8.001623 103.170 -111.5741
8.059607 103.205 -111.9358
8.118010 103.239 -112.2947
8.176836 103.273 -112.6504
8.236089 103.306 -113.0028
8.295771 103.339 -113.3518
8.355886 103.372 -113.6971
8.416435 103.404 -114.0387
8.477425 103.437 -114.3766
8.538856 103.469 -114.7107
8.600732 103.501 -115.0413
8.663056 103.533 -115.3687
8.725832 103.566 -115.6932
8.789062 103.598 -116.0151
8.852752 103.631 -116.3347
8.916903 103.664 -116.6523
8.981518 103.697 -116.9684
9.046601 103.730 -117.2835
9.112157 103.764 -117.5982
9.178187 103.798 -117.9129
9.244697 103.832 -118.2279
9.311687 103.866 -118.5436
9.379164 103.901 -118.8603
9.447129 103.935 -119.1783
9.515587 103.970 -119.4978
9.584540 104.004 -119.8191
9.653994 104.039 -120.1421
9.723950 104.073 -120.4667
9.794415 104.106 -120.7928
9.865389 104.140 -121.1202
9.936877 104.173 -121.4487
10.008884 104.205 -121.7780
10.081413 104.238 -122.1077
10.154468 104.269 -122.4374
10.228051 104.300 -122.7666
10.302168 104.331 -123.0949
10.376822 104.361 -123.4220
10.452016 104.391 -123.7474
10.527756 104.420 -124.0708
10.604044 104.449 -124.3918
10.680885 104.478 -124.7103
10.758284 104.506 -125.0261
10.836243 104.534 -125.3391
10.914766 104.563 -125.6494
10.993859 104.591 -125.9569
11.073525 104.618 -126.2618
11.153769 104.646 -126.5642
11.234593 104.674 -126.8643
11.316004 104.703 -127.1625
11.398005 104.731 -127.4589
11.480599 104.759 -127.7538
11.563792 104.787 -128.0473
11.647588 104.815 -128.3396
11.731991 104.844 -128.6310
11.817006 104.872 -128.9213
11.902637 104.900 -129.2107
11.988889 104.928 -129.4990
12.075766 104.956 -129.7861
12.163272 104.984 -130.0720
12.251412 105.012 -130.3563
12.340191 105.039 -130.6390
12.429613 105.067 -130.9198
12.519683 105.094 -131.1985
12.610406 105.122 -131.4750
12.701786 105.149 -131.7493
12.793828 105.176 -132.0214
12.886538 105.203 -132.2914
12.979918 105.231 -132.5594
13.073977 105.258 -132.8258
13.168715 105.286 -133.0909
13.264141 105.314 -133.3550
13.360258 105.342 -133.6187
13.457072 105.371 -133.8822
13.554587 105.399 -134.1461
13.652809 105.427 -134.4106
13.751743 105.456 -134.6759
13.851394 105.484 -134.9424
13.951767 105.512 -135.2100
14.052867 105.540 -135.4787
14.154700 105.568 -135.7483
14.257271 105.595 -136.0186
14.360585 105.622 -136.2892
14.464648 105.648 -136.5598
14.569465 105.674 -136.8301
14.675041 105.700 -137.0999
14.781383 105.725 -137.3689
14.888494 105.750 -137.6372
14.996383 105.774 -137.9048
15.105053 105.799 -138.1719
15.214510 105.823 -138.4390
15.324760 105.847 -138.7066
15.435810 105.871 -138.9751
15.547665 105.895 -139.2452
15.660330 105.918 -139.5172
15.773811 105.941 -139.7914
15.888115 105.963 -140.0677
16.003246 105.984 -140.3459
16.119213 106.005 -140.6253
16.236019 106.024 -140.9047
16.353672 106.042 -141.1827
16.472178 106.058 -141.4575
16.591541 106.074 -141.7272
16.711771 106.088 -141.9898
16.832870 106.102 -142.2436
16.954849 106.115 -142.4870
17.077711 106.129 -142.7194
17.201464 106.143 -142.9406
17.326113 106.158 -143.1515
17.451664 106.175 -143.3541
17.578125 106.194 -143.5514
17.705503 106.216 -143.7475
17.833805 106.240 -143.9468
17.963036 106.268 -144.1548
18.093203 106.297 -144.3765
18.224314 106.329 -144.6166
18.356375 106.362 -144.8792
18.489393 106.396 -145.1668
18.623375 106.429 -145.4805
18.758327 106.460 -145.8195
18.894258 106.489 -146.1811
19.031174 106.514 -146.5610
19.169081 106.535 -146.9531
19.307987 106.551 -147.3505
19.447901 106.562 -147.7455
19.588829 106.569 -148.1306
19.730778 106.572 -148.4987
19.873755 106.573 -148.8442
20.017769 106.571 -149.1632
20.162827 106.569 -149.4541
20.308935 106.568 -149.7177
20.456102 106.568 -149.9570
20.604336 106.572 -150.1772
20.753643 106.578 -150.3847
20.904032 106.588 -150.5866
21.055511 106.602 -150.7898
21.208088 106.618 -151.0000
21.361771 106.636 -151.2211
21.516567 106.655 -151.4549
21.672485 106.674 -151.7006
21.829533 106.691 -151.9556
21.987719 106.708 -152.2154
22.147051 106.722 -152.4749
22.307537 106.735 -152.7289
22.469187 106.747 -152.9728
22.632008 106.759 -153.2039
22.796009 106.771 -153.4212
22.961199 106.785 -153.6262
23.127584 106.800 -153.8221
23.295176 106.819 -154.0137
23.463982 106.839 -154.2063
23.634012 106.862 -154.4051
23.805275 106.886 -154.6143
23.977777 106.912 -154.8366
24.151531 106.938 -155.0725
24.326544 106.963 -155.3211
24.502825 106.987 -155.5799
24.680382 107.009 -155.8458
24.859226 107.030 -156.1158
25.039366 107.050 -156.3874
25.220812 107.070 -156.6596
25.403572 107.088 -156.9322
25.587656 107.107 -157.2065
25.773075 107.124 -157.4840
25.959837 107.142 -157.7661
26.147953 107.158 -158.0533
26.337431 107.173 -158.3450
26.528282 107.186 -158.6388
26.720516 107.196 -158.9312
26.914145 107.205 -159.2181
27.109175 107.212 -159.4956
27.305618 107.219 -159.7610
27.503487 107.225 -160.0137
27.702787 107.232 -160.2552
27.903534 107.240 -160.4890
28.105734 107.250 -160.7202
28.309401 107.261 -160.9541
28.514542 107.273 -161.1949
28.721170 107.286 -161.4452
28.929296 107.298 -161.7045
29.138929 107.309 -161.9700
29.350082 107.318 -162.2370
29.562765 107.325 -162.5000
29.776989 107.331 -162.7542
29.992765 107.336 -162.9964
30.210106 107.342 -163.2266
30.429020 107.349 -163.4473
30.649521 107.359 -163.6634
30.871620 107.370 -163.8809
31.095329 107.383 -164.1057
31.320660 107.397 -164.3421
31.547623 107.412 -164.5916
31.776230 107.425 -164.8533
32.006493 107.437 -165.1238
32.238426 107.447 -165.3982
32.472038 107.455 -165.6715
32.707344 107.461 -165.9395
32.944355 107.467 -166.1998
33.183083 107.473 -166.4522
33.423542 107.479 -166.6986
33.665741 107.487 -166.9425
33.909698 107.495 -167.1882
34.155422 107.504 -167.4395
34.402927 107.514 -167.6995
34.652225 107.523 -167.9694
34.903328 107.532 -168.2487
35.156250 107.539 -168.5351
35.411007 107.544 -168.8249
35.667610 107.548 -169.1142
35.926071 107.550 -169.3996
36.186405 107.552 -169.6787
36.448627 107.553 -169.9510
36.712749 107.554 -170.2169
36.978786 107.555 -170.4777
37.246750 107.556 -170.7345
37.516655 107.558 -170.9872
37.788517 107.559 -171.2344
38.062347 107.561 -171.4741
38.338161 107.564 -171.7050
38.615974 107.569 -171.9282
38.895802 107.576 -172.1483
39.177658 107.586 -172.3736
39.461555 107.600 -172.6134
39.747509 107.614 -172.8759
40.035538 107.629 -173.1645
40.325653 107.641 -173.4756
40.617870 107.650 -173.8002
40.912205 107.656 -174.1263
41.208672 107.658 -174.4449
41.507286 107.660 -174.7536
41.808064 107.662 -175.0587
42.111023 107.664 -175.3713
42.416176 107.665 -175.7004
42.723541 107.662 -176.0449
43.033134 107.651 -176.3886
43.344971 107.632 -176.7022
43.659065 107.607 -176.9525
43.975437 107.580 -177.1157
44.294102 107.560 -177.1906
44.615074 107.553 -177.2047
44.938374 107.564 -177.2083
45.264015 107.590 -177.2583
45.592018 107.626 -177.3982
45.922398 107.663 -177.6445
46.255169 107.694 -177.9837
46.590351 107.712 -178.3799
46.927963 107.718 -178.7883
47.268024 107.712 -179.1693
47.610550 107.699 -179.4988
47.955555 107.685 -179.7724
48.303062 107.674 179.9967
48.653088 107.667 179.7854
49.005650 107.664 179.5706
49.360764 107.664 179.3382
49.718452 107.663 179.0872
50.078732 107.660 178.8268
50.441624 107.655 178.5687
50.807144 107.650 178.3176
51.175312 107.647 178.0674
51.546150 107.646 177.8056
51.919674 107.646 177.5221
52.295906 107.644 177.2179
52.674862 107.639 176.9057
53.056564 107.631 176.6020
53.441032 107.623 176.3173
53.828289 107.615 176.0518
54.218349 107.610 175.7983
54.611237 107.608 175.5501
55.006973 107.608 175.3047
55.405575 107.610 175.0614
55.807068 107.614 174.8166
56.211468 107.620 174.5639
56.618801 107.626 174.2998
57.029083 107.631 174.0291
57.442341 107.634 173.7611
57.858593 107.638 173.4980
58.277859 107.644 173.2247
58.700165 107.650 172.9143
59.125530 107.653 172.5497
59.553978 107.644 172.1453
59.985531 107.620 171.7491
60.420212 107.583 171.4200
60.858040 107.543 171.1904
61.299042 107.510 171.0430
61.743240 107.488 170.9193
62.190659 107.477 170.7574
62.641319 107.468 170.5309
63.095245 107.454 170.2606
63.552460 107.433 169.9915
64.012985 107.410 169.7563
64.476852 107.391 169.5519
64.944077 107.378 169.3463
65.414688 107.368 169.1071
65.888710 107.356 168.8273
66.366165 107.339 168.5281
66.847084 107.315 168.2396
67.331482 107.288 167.9782
67.819397 107.263 167.7390
68.310844 107.240 167.5043
68.805855 107.220 167.2585
69.304451 107.203 166.9943
69.806656 107.188 166.7076
70.312500 107.177 166.3923
70.822014 107.169 166.0402
71.335220 107.163 165.6448
71.852142 107.158 165.2029
72.372810 107.152 164.7143
72.897255 107.140 164.1885
73.425499 107.117 163.6605
73.957573 107.079 163.1990
74.493500 107.032 162.8831
75.033310 106.987 162.7523
75.577034 106.958 162.7689
76.124695 106.950 162.8385
76.676323 106.957 162.8761
77.231949 106.968 162.8543
77.791603 106.976 162.7892
78.355316 106.979 162.6970
78.923111 106.978 162.5749
79.495018 106.971 162.4166
80.071075 106.956 162.2292
80.651306 106.934 162.0276
81.235741 106.908 161.8216
81.824409 106.880 161.6105
82.417343 106.854 161.3871
83.014572 106.831 161.1412
83.616127 106.810 160.8646
84.222046 106.789 160.5578
84.832352 106.765 160.2358
85.447083 106.737 159.9235
86.066269 106.706 159.6444
86.689941 106.674 159.4087
87.318130 106.644 159.2059
87.950874 106.618 159.0110
88.588203 106.592 158.8021
89.230148 106.564 158.5766
89.876747 106.533 158.3493
90.528030 106.501 158.1354
91.184036 106.473 157.9349
91.844795 106.449 157.7318
92.510338 106.431 157.5092
93.180702 106.416 157.2639
93.855927 106.402 157.0042
94.536049 106.389 156.7354
95.221100 106.374 156.4541
95.911110 106.354 156.1561
96.606125 106.327 155.8456
97.306175 106.291 155.5355
98.011299 106.243 155.2461
98.721527 106.187 155.0032
99.436905 106.128 154.8282
100.157463 106.072 154.7262
100.883247 106.027 154.6801
101.614288 105.996 154.6567
102.350624 105.981 154.6172
103.092300 105.976 154.5325
103.839348 105.974 154.3974
104.591812 105.969 154.2335
105.349724 105.958 154.0738
106.113129 105.943 153.9421
106.882065 105.928 153.8417
107.656578 105.916 153.7569
108.436699 105.911 153.6609
109.222473 105.914 153.5273
110.013947 105.924 153.3419
110.811150 105.935 153.1082
111.614136 105.943 152.8423
112.422935 105.941 152.5666
113.237602 105.922 152.3048
114.058167 105.882 152.0724
114.884682 105.818 151.8679
115.717186 105.726 151.6808
116.555717 105.607 151.5127
117.400330 105.468 151.3888
118.251060 105.324 151.3555
119.107956 105.198 151.4473
119.971062 105.120 151.6059
120.840424 105.103 151.6655
121.716080 105.135 151.4952
122.598083 105.186 151.1160
123.486481 105.229 150.6496
124.381317 105.250 150.2181
125.282639 105.242 149.8811
126.190491 105.207 149.6108
127.104919 105.151 149.3160
128.025970 105.078 148.8990
128.953705 104.996 148.3145
129.888153 104.918 147.5926
130.829376 104.857 146.8204
131.777420 104.826 146.1152
132.732330 104.829 145.5945
133.694168 104.865 145.3319
134.662964 104.920 145.3254
135.638794 104.978 145.5009
136.621689 105.019 145.7463
137.611710 105.025 145.9623
138.608902 104.989 146.0928
139.613312 104.914 146.1209
140.625000 104.815 146.0514
141.644028 104.707 145.9067
142.670441 104.607 145.7238
143.704285 104.523 145.5336
144.745621 104.457 145.3491
145.794510 104.403 145.1753
146.850998 104.353 145.0150
147.915146 104.301 144.8601
148.987000 104.247 144.6904
150.066620 104.195 144.4853
151.154068 104.145 144.2416
152.249390 104.099 143.9793
153.352646 104.057 143.7326
154.463898 104.017 143.5323
155.583206 103.975 143.3929
156.710632 103.930 143.3101
157.846222 103.883 143.2641
158.990036 103.836 143.2287
160.142151 103.792 143.1802
161.302612 103.752 143.1044
162.471481 103.713 143.0019
163.648819 103.671 142.8901
164.834686 103.624 142.7959
166.029144 103.571 142.7395
167.232254 103.517 142.7220
168.444092 103.464 142.7276
169.664703 103.415 142.7432
170.894165 103.369 142.7747
172.132538 103.325 142.8417
173.379883 103.282 142.9487
174.636261 103.239 143.0718
175.901749 103.194 143.1834
177.176407 103.149 143.2790
178.460297 103.107 143.3746
179.753494 103.074 143.4985
181.056061 103.051 143.6807
182.368073 103.039 143.9340
183.689590 103.033 144.2430
185.020676 103.028 144.5761
186.361404 103.021 144.8891
187.711853 103.014 145.1307
189.072098 103.011 145.2498
190.442200 103.019 145.2010
191.822220 103.039 144.9590
193.212250 103.065 144.5276
194.612350 103.086 143.9450
196.022598 103.093 143.2833
197.443054 103.078 142.6349
198.873810 103.044 142.0751
200.314926 103.000 141.6215
201.766495 102.953 141.2429
203.228577 102.905 140.9073
204.701248 102.857 140.6033
206.184601 102.809 140.3248
207.678696 102.761 140.0656
209.183624 102.713 139.8206
210.699448 102.662 139.5855
212.226257 102.609 139.3600
213.764130 102.552 139.1510
215.313156 102.494 138.9689
216.873398 102.435 138.8178
218.444946 102.379 138.6917
220.027893 102.325 138.5821
221.622299 102.273 138.4829
223.228271 102.222 138.3882
224.845871 102.172 138.2943
226.475204 102.123 138.1991
228.116333 102.073 138.1016
229.769363 102.024 138.0007
231.434372 101.974 137.8948
233.111435 101.923 137.7844
234.800659 101.872 137.6725
236.502121 101.821 137.5623
238.215912 101.769 137.4561
239.942123 101.717 137.3546
241.680847 101.664 137.2589
243.432159 101.610 137.1702
245.196167 101.555 137.0905
246.972961 101.499 137.0217
248.762634 101.442 136.9651
250.565277 101.385 136.9212
252.380981 101.329 136.8889
254.209839 101.274 136.8652
256.051941 101.222 136.8440
257.907410 101.172 136.8167
259.776306 101.124 136.7756
261.658752 101.077 136.7195
263.554840 101.029 136.6560
265.464661 100.980 136.5970
267.388336 100.929 136.5532
269.325928 100.877 136.5285
271.277588 100.826 136.5204
273.243378 100.775 136.5233
275.223419 100.724 136.5328
277.217804 100.675 136.5478
279.226624 100.626 136.5671
281.250000 100.579 136.5876
283.288055 100.534 136.6039
285.340881 100.491 136.6079
287.408569 100.449 136.5910
289.491241 100.407 136.5482
291.589020 100.365 136.4817
293.701996 100.319 136.4012
295.830292 100.270 136.3198
297.973999 100.218 136.2487
300.133240 100.164 136.1936
302.308136 100.108 136.1551
304.498779 100.053 136.1306
306.705292 99.998 136.1155
308.927795 99.943 136.1047
311.166412 99.889 136.0941
313.421265 99.833 136.0825
315.692444 99.777 136.0717
317.980072 99.720 136.0659
320.284302 99.662 136.0696
322.605225 99.604 136.0854
324.942963 99.547 136.1130
327.297638 99.491 136.1504
329.669373 99.436 136.1953
332.058289 99.383 136.2449
334.464508 99.329 136.2953
336.888184 99.277 136.3419
339.329407 99.225 136.3810
341.788330 99.173 136.4109
344.265076 99.122 136.4319
346.759766 99.071 136.4485
349.272522 99.018 136.4674
351.803497 98.965 136.4935
354.352814 98.911 136.5278
356.920593 98.856 136.5696
359.506989 98.802 136.6173
362.112122 98.748 136.6692
364.736145 98.695 136.7244
367.379181 98.641 136.7825
370.041351 98.587 136.8441
372.722809 98.533 136.9099
375.423706 98.479 136.9809
378.144196 98.425 137.0564
380.884399 98.371 137.1348
383.644440 98.317 137.2144
386.424500 98.264 137.2942
389.224701 98.210 137.3749
392.045197 98.158 137.4581
394.886108 98.105 137.5458
397.747620 98.053 137.6390
400.629852 98.002 137.7366
403.532990 97.950 137.8353
406.457153 97.898 137.9321
409.402496 97.845 138.0266
412.369202 97.793 138.1213
415.357391 97.739 138.2201
418.367249 97.685 138.3266
421.398895 97.631 138.4441
424.452515 97.578 138.5740
427.528259 97.526 138.7141
430.626312 97.475 138.8584
433.746796 97.426 139.0008
436.889893 97.377 139.1371
440.055786 97.330 139.2671
443.244598 97.283 139.3923
446.456543 97.238 139.5130
449.691742 97.193 139.6259
452.950409 97.149 139.7256
456.232666 97.103 139.8079
459.538727 97.055 139.8753
462.868744 97.004 139.9375
466.222870 96.949 140.0068
469.601318 96.893 140.0916
473.004242 96.836 140.1945
476.431824 96.779 140.3130
479.884247 96.722 140.4415
483.361694 96.666 140.5742
486.864319 96.610 140.7089
490.392334 96.552 140.8489
493.945923 96.494 141.0001
497.525269 96.436 141.1650
501.130554 96.379 141.3413
504.761963 96.324 141.5237
508.419678 96.270 141.7072
512.103882 96.217 141.8887
515.814819 96.164 142.0680
519.552612 96.109 142.2475
523.317505 96.054 142.4316
527.109680 95.999 142.6255
530.929321 95.943 142.8312
534.776672 95.888 143.0460
538.651855 95.834 143.2647
542.555176 95.780 143.4854
546.486755 95.727 143.7089
550.446838 95.674 143.9357
554.435608 95.622 144.1641
558.453247 95.570 144.3910
562.500000 95.519 144.6157
566.576111 95.466 144.8398
570.681763 95.413 145.0667
574.817139 95.359 145.2995
578.982483 95.304 145.5392
583.178040 95.249 145.7856
587.403992 95.194 146.0387
591.660583 95.139 146.3004
595.947998 95.085 146.5725
600.266479 95.032 146.8535
604.616272 94.980 147.1389
608.997559 94.929 147.4247
613.410583 94.878 147.7096
617.855591 94.826 147.9968
622.332825 94.773 148.2933
626.842529 94.721 148.6059
631.384888 94.669 148.9371
635.960144 94.619 149.2836
640.568604 94.572 149.6406
645.210449 94.526 150.0059
649.885925 94.482 150.3781
654.595276 94.441 150.7527
659.338745 94.403 151.1211
664.116577 94.368 151.4725
668.929016 94.334 151.8012
673.776367 94.300 152.1111
678.658813 94.263 152.4114
683.576660 94.225 152.7113
688.530151 94.184 153.0164
693.519531 94.141 153.3307
698.545044 94.097 153.6563
703.606995 94.052 153.9935
708.705627 94.008 154.3403
713.841187 93.965 154.6936
719.013977 93.924 155.0519
724.224243 93.884 155.4157
729.472290 93.844 155.7866
734.758362 93.805 156.1661
740.082703 93.765 156.5559
745.445618 93.726 156.9568
750.847412 93.687 157.3681
756.288391 93.648 157.7878
761.768799 93.610 158.2128
767.288879 93.574 158.6404
772.848999 93.539 159.0697
778.449402 93.505 159.5004
784.090393 93.471 159.9323
789.772217 93.438 160.3671
795.495239 93.405 160.8084
801.259705 93.374 161.2596
807.065979 93.344 161.7206
812.914307 93.318 162.1867
818.804993 93.296 162.6505
824.738403 93.276 163.1030
830.714783 93.259 163.5359
836.734497 93.242 163.9468
842.797791 93.223 164.3423
848.905029 93.202 164.7318
855.056519 93.179 165.1221
861.252625 93.155 165.5162
867.493591 93.130 165.9180
873.779785 93.104 166.3317
880.111572 93.079 166.7584
886.489197 93.054 167.1945
892.913086 93.031 167.6376
899.383484 93.008 168.0887
905.900818 92.985 168.5505
912.465332 92.964 169.0231
919.077454 92.944 169.5033
925.737488 92.927 169.9865
932.445740 92.911 170.4673
939.202637 92.898 170.9401
946.008484 92.885 171.4022
952.863647 92.873 171.8541
959.768494 92.861 172.2971
966.723389 92.848 172.7322
973.728638 92.833 173.1607
980.784668 92.815 173.5827
987.891846 92.795 174.0002
995.050537 92.771 174.4221
1002.261108 92.744 174.8635
1009.523926 92.715 175.3381
1016.839355 92.685 175.8519
1024.207764 92.657 176.4034
1031.629639 92.632 176.9854
1039.105225 92.612 177.5831
1046.635010 92.595 178.1795
1054.219360 92.581 178.7655
1061.858643 92.568 179.3412
1069.553345 92.556 179.9115
1077.303711 92.544 -179.5175
1085.110352 92.533 -178.9422
1092.973511 92.523 -178.3616
1100.893677 92.512 -177.7756
1108.871216 92.500 -177.1827
1116.906494 92.486 -176.5800
1125.000000 92.469 -175.9633
1133.152222 92.450 -175.3279
1141.363525 92.429 -174.6685
1149.634277 92.408 -173.9799
1157.964966 92.386 -173.2573
1166.356079 92.365 -172.4951
1174.807983 92.346 -171.6863
1183.321167 92.331 -170.8258
1191.895996 92.321 -169.9168
1200.532959 92.317 -168.9704
1209.232544 92.320 -167.9997
1217.995117 92.327 -167.0105
1226.821167 92.339 -165.9992
1235.711182 92.356 -164.9592
1244.665649 92.378 -163.8846
1253.685059 92.408 -162.7730
1262.769775 92.447 -161.6272
1271.920288 92.496 -160.4534
1281.137207 92.557 -159.2576
1290.420898 92.632 -158.0469
1299.771851 92.721 -156.8334
1309.190552 92.824 -155.6338
1318.677490 92.941 -154.4678
1328.233154 93.072 -153.3534
1337.858032 93.215 -152.3040
1347.552734 93.368 -151.3273
1357.317627 93.529 -150.4265
1367.153320 93.697 -149.6025
1377.060303 93.870 -148.8538
1387.039062 94.046 -148.1784
1397.090088 94.225 -147.5776
1407.213989 94.408 -147.0572
1417.411255 94.593 -146.6263
1427.682373 94.779 -146.2922
1438.027954 94.963 -146.0533
1448.448486 95.140 -145.8992
1458.944580 95.311 -145.8155
1469.516724 95.474 -145.7890
1480.165405 95.628 -145.8087
1490.891235 95.774 -145.8644
1501.694824 95.911 -145.9461
1512.576782 96.040 -146.0439
1523.537598 96.162 -146.1485
1534.577759 96.278 -146.2519
1545.697998 96.388 -146.3477
1556.898804 96.495 -146.4326
1568.180786 96.600 -146.5091
1579.544434 96.704 -146.5856
1590.990479 96.807 -146.6717
1602.519409 96.907 -146.7713
1614.131958 97.003 -146.8814
1625.828613 97.095 -146.9949
1637.609985 97.181 -147.1032
1649.476807 97.264 -147.1990
1661.429565 97.343 -147.2761
1673.468994 97.419 -147.3307
1685.595581 97.494 -147.3626
1697.810059 97.569 -147.3743
1710.113037 97.643 -147.3675
1722.505249 97.718 -147.3419
1734.987183 97.793 -147.2954
1747.559570 97.869 -147.2258
1760.223145 97.948 -147.1314
1772.978394 98.032 -147.0143
1785.826172 98.123 -146.8850
1798.766968 98.220 -146.7620
1811.801636 98.324 -146.6659
1824.930664 98.431 -146.6095
1838.154907 98.540 -146.5937
1851.474976 98.649 -146.6112
1864.891479 98.755 -146.6514
1878.405273 98.861 -146.7029
1892.016968 98.965 -146.7552
1905.727295 99.069 -146.8003
1919.536987 99.175 -146.8341
1933.446777 99.285 -146.8579
1947.457275 99.400 -146.8799
1961.569336 99.522 -146.9178
1975.783691 99.650 -146.9940
1990.101074 99.782 -147.1260
2004.522217 99.916 -147.3222
2019.047852 100.048 -147.5817
2033.678711 100.177 -147.8975
2048.415527 100.303 -148.2592
2063.259277 100.423 -148.6573
2078.210449 100.540 -149.0845
2093.270020 100.651 -149.5350
2108.438721 100.756 -150.0023
2123.717285 100.856 -150.4781
2139.106689 100.952 -150.9527
2154.607422 101.044 -151.4176
2170.220703 101.135 -151.8718
2185.947021 101.226 -152.3238
2201.787354 101.317 -152.7862
2217.742432 101.409 -153.2681
2233.812988 101.499 -153.7734
2250.000000 101.587 -154.3011
2266.304443 101.671 -154.8467
2282.727051 101.752 -155.4033
2299.268555 101.829 -155.9630
2315.929932 101.903 -156.5199
2332.712158 101.976 -157.0736
2349.615967 102.048 -157.6320
2366.642334 102.120 -158.2057
2383.791992 102.190 -158.8012
2401.065918 102.257 -159.4185
2418.465088 102.319 -160.0528
2435.990234 102.376 -160.6963
2453.642334 102.428 -161.3415
2471.422363 102.474 -161.9817
2489.331299 102.515 -162.6089
2507.370117 102.550 -163.2125
2525.539551 102.581 -163.7793
2543.840576 102.611 -164.2988
2562.274414 102.642 -164.7695
2580.841797 102.677 -165.2007
2599.543701 102.718 -165.6064
2618.381104 102.766 -166.0018
2637.354980 102.821 -166.4010
2656.466309 102.882 -166.8161
2675.716064 102.950 -167.2575
2695.105469 103.023 -167.7343
2714.635254 103.100 -168.2568
2734.306641 103.181 -168.8379
2754.120605 103.263 -169.4891
2774.078125 103.344 -170.2148
2794.180176 103.418 -171.0104
2814.427979 103.486 -171.8642
2834.822510 103.544 -172.7611
2855.364746 103.592 -173.6866
2876.055908 103.630 -174.6272
2896.896973 103.658 -175.5679
2917.889160 103.677 -176.4931
2939.033447 103.689 -177.3921
2960.330811 103.697 -178.2637
2981.782471 103.704 -179.1144
3003.389648 103.709 -179.9539
3025.153564 103.713 179.2091
3047.075195 103.715 178.3694
3069.155518 103.714 177.5263
3091.395996 103.711 176.6814
3113.797607 103.705 175.8329
3136.361572 103.696 174.9757
3159.088867 103.682 174.1055
3181.980957 103.663 173.2250
3205.038818 103.635 172.3451
3228.263916 103.598 171.4825
3251.657227 103.552 170.6562
3275.219971 103.499 169.8859
3298.953613 103.442 169.1888
3322.859131 103.384 168.5737
3346.937988 103.331 168.0341
3371.191162 103.285 167.5497
3395.620117 103.250 167.0937
3420.226074 103.224 166.6405
3445.010498 103.207 166.1731
3469.974365 103.196 165.6841
3495.119141 103.190 165.1707
3520.446289 103.191 164.6277
3545.956787 103.196 164.0468
3571.652344 103.207 163.4171
3597.533936 103.221 162.7277
3623.603271 103.237 161.9688
3649.861328 103.250 161.1347
3676.309814 103.260 160.2281
3702.949951 103.263 159.2593
3729.782959 103.258 158.2399
3756.810547 103.246 157.1779
3784.033936 103.225 156.0784
3811.454590 103.194 154.9470
3839.073975 103.154 153.7930
3866.893555 103.103 152.6299
3894.914551 103.042 151.4689
3923.138672 102.974 150.3143
3951.567383 102.900 149.1635
3980.202148 102.821 148.0096
4009.044434 102.736 146.8444
4038.095703 102.645 145.6614
4067.357422 102.546 144.4608
4096.831055 102.438 143.2486
4126.518555 102.320 142.0312
4156.420898 102.192 140.8111
4186.540039 102.053 139.5890
4216.877441 101.903 138.3687
4247.434570 101.740 137.1599
4278.213379 101.564 135.9755
4309.214844 101.376 134.8261
4340.441406 101.177 133.7175
4371.894043 100.968 132.6507
4403.574707 100.749 131.6240
4435.484863 100.520 130.6360
4467.625977 100.280 129.6915
4500.000000 100.029 128.8003
4532.608887 99.766 127.9724
4565.454102 99.492 127.2147
4598.537109 99.208 126.5336
4631.859863 98.913 125.9406
4665.424316 98.609 125.4507
4699.231934 98.297 125.0765
4733.284668 97.980 124.8242
4767.583984 97.661 124.6919
4802.131836 97.341 124.6702
4836.930176 97.023 124.7480
4871.980469 96.707 124.9188
4907.284668 96.393 125.1801
4942.844727 96.081 125.5284
4978.662598 95.773 125.9587
5014.740234 95.466 126.4702
5051.079102 95.161 127.0694
5087.681152 94.858 127.7658
5124.548828 94.560 128.5667
5161.683594 94.267 129.4711
5199.087402 93.982 130.4687
5236.762207 93.707 131.5449
5274.709961 93.441 132.6879
5312.932617 93.185 133.8885
5351.432129 92.939 135.1375
5390.210938 92.702 136.4285
5429.270508 92.473 137.7614
5468.613281 92.250 139.1426
5508.241211 92.034 140.5806
5548.156250 91.827 142.0801
5588.360352 91.630 143.6381
5628.855957 91.444 145.2462
5669.645020 91.271 146.8960
5710.729492 91.111 148.5785
5752.111816 90.963 150.2835
5793.793945 90.827 152.0034
5835.778320 90.701 153.7374
5878.066895 90.584 155.4909
5920.661621 90.476 157.2701
5963.564941 90.378 159.0781
6006.779297 90.289 160.9134
6050.307129 90.211 162.7733
6094.150391 90.144 164.6535
6138.311035 90.088 166.5455
6182.791992 90.044 168.4398
6227.595215 90.011 170.3326
6272.723145 89.989 172.2281
6318.177734 89.977 174.1329
6363.961914 89.977 176.0519
6410.077637 89.990 177.9856
6456.527832 90.018 179.9320
6503.314453 90.062 -178.1144
6550.439941 90.121 -176.1633
6597.907227 90.197 -174.2243
6645.718262 90.289 -172.3023
6693.875977 90.396 -170.3976
6742.382324 90.521 -168.5097
6791.240234 90.663 -166.6419
6840.452148 90.824 -164.8020
6890.020996 91.007 -163.0019
6939.948730 91.213 -161.2593
6990.238281 91.442 -159.5934
7040.892578 91.693 -158.0210
7091.913574 91.968 -156.5580
7143.304688 92.266 -155.2215
7195.067871 92.586 -154.0315
7247.206543 92.930 -153.0108
7299.722656 93.298 -152.1881
7352.619629 93.688 -151.5990
7405.899902 94.096 -151.2811
7459.565918 94.520 -151.2676
7513.621094 94.953 -151.5869
7568.067871 95.389 -152.2644
7622.909180 95.821 -153.3221
7678.147949 96.241 -154.7790
7733.787109 96.639 -156.6488
7789.829102 97.002 -158.9330
7846.277344 97.316 -161.6121
7903.134766 97.569 -164.6414
7960.404297 97.750 -167.9528
8018.088867 97.851 -171.4588
8076.191406 97.866 -175.0601
8134.714844 97.794 -178.6548
8193.662109 97.638 177.8550
8253.037109 97.402 174.5620
8312.841797 97.093 171.5511
8373.080078 96.721 168.8954
8433.754883 96.297 166.6525
8494.869141 95.834 164.8588
8556.426758 95.347 163.5255
8618.429688 94.848 162.6417
8680.882812 94.348 162.1835
8743.788086 93.856 162.1219
8807.149414 93.379 162.4279
8870.969727 92.923 163.0722
8935.251953 92.493 164.0212
9000.000000 92.095 165.2332
9065.217773 91.730 166.6631
9130.908203 91.402 168.2687
9197.074219 91.109 170.0167
9263.719727 90.852 171.8832
9330.848633 90.631 173.8481
9398.463867 90.447 175.8887
9466.569336 90.300 177.9801
9535.167969 90.190 -179.9010
9604.263672 90.116 -177.7712
9673.860352 90.079 -175.6396
9743.960938 90.081 -173.5151
9814.569336 90.125 -171.4158
9885.689453 90.214 -169.3709
9957.325195 90.350 -167.4171
10029.480469 90.538 -165.5938
10102.158203 90.779 -163.9471
10175.362305 91.076 -162.5381
10249.097656 91.432 -161.4480
10323.367188 91.844 -160.7749
10398.174805 92.305 -160.6243
10473.524414 92.804 -161.0982
10549.419922 93.324 -162.2899
10625.865234 93.843 -164.2775
10702.864258 94.333 -167.1105
10780.421875 94.760 -170.7916
10858.541016 95.091 -175.2608
10937.226562 95.293 179.6110
11016.482422 95.339 174.0163
11096.312500 95.211 168.1973
11176.720703 94.904 162.4220
11257.711914 94.422 156.9568
11339.290039 93.780 152.0386
11421.458984 93.001 147.8527
11504.223633 92.115 144.5196
11587.587891 91.152 142.0956
11671.556641 90.144 140.5815
11756.133789 89.119 139.9330
11841.323242 88.103 140.0688
11927.129883 87.115 140.8820
12013.558594 86.169 142.2604
12100.614258 85.274 144.1078
12188.300781 84.433 146.3475
12276.622070 83.647 148.9130
12365.583984 82.915 151.7432
12455.190430 82.235 154.7845
12545.446289 81.602 157.9970
12636.355469 81.014 161.3544
12727.923828 80.468 164.8350
12820.155273 79.962 168.4163
12913.055664 79.495 172.0808
13006.628906 79.065 175.8221
13100.879883 78.671 179.6389
13195.814453 78.313 -176.4757
13291.436523 77.989 -172.5363
13387.751953 77.698 -168.5593
13484.764648 77.439 -164.5557
13582.480469 77.211 -160.5303
13680.904297 77.016 -156.4850
13780.041992 76.854 -152.4197
13879.897461 76.728 -148.3340
13980.476562 76.638 -144.2334
14081.785156 76.587 -140.1298
14183.827148 76.573 -136.0323
14286.609375 76.599 -131.9430
14390.135742 76.668 -127.8653
14494.413086 76.785 -123.8099
14599.445312 76.956 -119.7964
14705.239258 77.188 -115.8523
14811.799805 77.491 -112.0209
14919.131836 77.872 -108.3683
15027.242188 78.342 -104.9872
15136.135742 78.905 -102.0004
15245.818359 79.563 -99.5595
15356.295898 80.309 -97.8383
15467.574219 81.127 -97.0199
15579.658203 81.989 -97.2776
15692.554688 82.858 -98.7473
15806.269531 83.688 -101.5058
15920.808594 84.428 -105.5543
16036.177734 85.026 -110.8049
16152.382812 85.431 -117.0656
16269.429688 85.602 -124.0325
16387.324219 85.512 -131.3034
16506.074219 85.160 -138.4322
16625.683594 84.562 -145.0061
16746.160156 83.752 -150.7034
16867.509766 82.774 -155.3133
16989.738281 81.675 -158.7317
17112.853516 80.502 -160.9474
17236.859375 79.300 -162.0255
17361.765625 78.113 -162.0934
17487.576172 76.978 -161.3246
17614.298828 75.930 -159.9183
17741.939453 74.993 -158.0788
17870.503906 74.173 -155.9954
18000.000000 73.447 -153.8242
18130.435547 72.762 -151.6718
18261.816406 72.055 -149.5858
18394.148438 71.303 -147.5658
18527.439453 70.512 -145.5865
18661.697266 69.701 -143.6075
18796.927734 68.882 -141.5691
18933.138672 68.060 -139.3946
19070.335938 67.236 -137.0094
19208.527344 66.414 -134.3660
19347.720703 65.598 -131.4662
19487.921875 64.803 -128.3624
19629.138672 64.056 -125.1626
19771.378906 63.402 -122.0797
19914.650391 62.906 -119.5122
20058.960938 62.635 -118.0081
