* Measurement data measured by REW V5.31
* Source: EXCL: Microphone (USB Sound Device        ), MICROPHONE (Master Volume), L, volume: 0.390
* Format: 256k Log Swept Sine, 1 sweep at -5.0 dBFS with no timing reference
* Dated: Oct 26, 2024 2:09:01 PM
* REW Settings:
*  C-weighting compensation: Off
*  Target level: 75.0 dB
* Note: ROSESELSA EARFREE-i5
* Measurement: L ROSESELSA EARFREE-i5
* Smoothing: 1/12 octave
* Frequency Step: 96 ppo
* Start Frequency: 0.36621094 Hz
*
* Freq(Hz)	SPL(dB)	Phase(degrees)
0.366211	86.025	156.8864
0.368865	86.020	156.8623
0.371538	86.013	156.8263
0.374230	86.004	156.7810
0.376942	85.993	156.7289
0.379673	85.982	156.6716
0.382424	85.971	156.6103
0.385196	85.959	156.5457
0.387987	85.947	156.4781
0.390798	85.934	156.4078
0.393630	85.922	156.3349
0.396483	85.910	156.2595
0.399356	85.897	156.1814
0.402250	85.884	156.1008
0.405165	85.872	156.0177
0.408101	85.859	155.9319
0.411058	85.846	155.8434
0.414037	85.833	155.7523
0.417037	85.820	155.6586
0.420059	85.806	155.5621
0.423103	85.793	155.4629
0.426169	85.780	155.3610
0.429257	85.766	155.2562
0.432368	85.752	155.1487
0.435501	85.739	155.0384
0.438656	85.725	154.9252
0.441835	85.711	154.8092
0.445037	85.697	154.6902
0.448262	85.683	154.5684
0.451510	85.669	154.4436
0.454782	85.654	154.3159
0.458077	85.640	154.1853
0.461397	85.625	154.0517
0.464740	85.611	153.9150
0.468108	85.596	153.7754
0.471500	85.581	153.6327
0.474917	85.566	153.4870
0.478358	85.551	153.3383
0.481825	85.536	153.1864
0.485316	85.521	153.0316
0.488833	85.505	152.8736
0.492375	85.490	152.7126
0.495943	85.474	152.5484
0.499537	85.458	152.3812
0.503157	85.443	152.2108
0.506803	85.427	152.0374
0.510475	85.411	151.8609
0.514175	85.394	151.6812
0.517900	85.378	151.4985
0.521653	85.362	151.3127
0.525434	85.345	151.1238
0.529241	85.328	150.9319
0.533076	85.312	150.7369
0.536939	85.295	150.5388
0.540830	85.278	150.3378
0.544749	85.260	150.1337
0.548696	85.243	149.9267
0.552673	85.226	149.7167
0.556677	85.208	149.5039
0.560711	85.191	149.2881
0.564774	85.173	149.0695
0.568867	85.155	148.8482
0.572989	85.137	148.6240
0.577141	85.119	148.3972
0.581324	85.100	148.1677
0.585536	85.082	147.9357
0.589779	85.063	147.7010
0.594053	85.045	147.4640
0.598358	85.026	147.2245
0.602694	85.007	146.9828
0.607061	84.988	146.7388
0.611460	84.968	146.4926
0.615891	84.949	146.2444
0.620354	84.929	145.9943
0.624849	84.910	145.7423
0.629377	84.890	145.4886
0.633938	84.870	145.2332
0.638532	84.850	144.9764
0.643159	84.830	144.7182
0.647819	84.809	144.4588
0.652514	84.789	144.1982
0.657242	84.768	143.9368
0.662005	84.747	143.6746
0.666802	84.726	143.4118
0.671634	84.705	143.1487
0.676501	84.684	142.8853
0.681403	84.662	142.6218
0.686341	84.641	142.3586
0.691314	84.619	142.0957
0.696324	84.597	141.8334
0.701370	84.574	141.5718
0.706452	84.552	141.3112
0.711571	84.529	141.0516
0.716728	84.505	140.7929
0.721921	84.481	140.5350
0.727153	84.455	140.2774
0.732422	84.428	140.0194
0.737729	84.399	139.7601
0.743075	84.368	139.4984
0.748460	84.336	139.2334
0.753883	84.303	138.9646
0.759346	84.269	138.6914
0.764849	84.234	138.4135
0.770391	84.199	138.1308
0.775974	84.163	137.8430
0.781597	84.127	137.5502
0.787261	84.090	137.2523
0.792966	84.052	136.9492
0.798712	84.015	136.6408
0.804500	83.976	136.3273
0.810329	83.937	136.0085
0.816201	83.897	135.6844
0.822116	83.857	135.3551
0.828073	83.816	135.0206
0.834074	83.775	134.6808
0.840118	83.733	134.3358
0.846206	83.690	133.9855
0.852338	83.646	133.6302
0.858514	83.602	133.2697
0.864735	83.558	132.9041
0.871001	83.512	132.5336
0.877313	83.466	132.1581
0.883670	83.419	131.7777
0.890074	83.371	131.3927
0.896524	83.322	131.0030
0.903020	83.273	130.6088
0.909564	83.223	130.2103
0.916155	83.172	129.8075
0.922794	83.120	129.4008
0.929481	83.067	128.9903
0.936216	83.013	128.5761
0.943000	82.958	128.1587
0.949834	82.902	127.7381
0.956717	82.845	127.3148
0.963649	82.787	126.8889
0.970632	82.728	126.4610
0.977666	82.668	126.0312
0.984750	82.607	125.6001
0.991886	82.545	125.1681
0.999074	82.481	124.7356
1.006314	82.416	124.3031
1.013606	82.350	123.8712
1.020951	82.283	123.4404
1.028349	82.215	123.0115
1.035801	82.145	122.5849
1.043307	82.073	122.1614
1.050867	82.000	121.7418
1.058482	81.926	121.3267
1.066152	81.850	120.9169
1.073878	81.773	120.5130
1.081660	81.694	120.1157
1.089498	81.614	119.7253
1.097393	81.532	119.3419
1.105345	81.449	118.9654
1.113355	81.364	118.5954
1.121423	81.278	118.2316
1.129549	81.190	117.8736
1.137734	81.101	117.5210
1.145979	81.010	117.1737
1.154283	80.917	116.8313
1.162647	80.824	116.4938
1.171072	80.728	116.1610
1.179558	80.631	115.8328
1.188106	80.532	115.5091
1.196715	80.432	115.1897
1.205387	80.330	114.8746
1.214122	80.226	114.5637
1.222920	80.121	114.2569
1.231782	80.013	113.9540
1.240708	79.904	113.6550
1.249699	79.792	113.3598
1.258754	79.679	113.0684
1.267876	79.564	112.7805
1.277063	79.446	112.4963
1.286318	79.327	112.2155
1.295639	79.205	111.9381
1.305027	79.081	111.6641
1.314484	78.955	111.3934
1.324009	78.827	111.1259
1.333604	78.696	110.8616
1.343268	78.562	110.6004
1.353002	78.427	110.3425
1.362806	78.288	110.0876
1.372681	78.148	109.8358
1.382628	78.004	109.5872
1.392647	77.858	109.3418
1.402739	77.708	109.0999
1.412904	77.556	108.8615
1.423142	77.401	108.6273
1.433455	77.242	108.3980
1.443843	77.079	108.1748
1.454305	76.912	107.9596
1.464844	76.740	107.7548
1.475459	76.561	107.5637
1.486150	76.376	107.3893
1.496920	76.183	107.2349
1.507767	75.982	107.1028
1.518693	75.773	106.9952
1.529698	75.556	106.9140
1.540783	75.331	106.8608
1.551948	75.100	106.8370
1.563194	74.863	106.8443
1.574521	74.619	106.8841
1.585931	74.371	106.9581
1.597423	74.118	107.0679
1.608999	73.862	107.2152
1.620658	73.604	107.4019
1.632402	73.343	107.6298
1.644232	73.082	107.9008
1.656146	72.821	108.2170
1.668147	72.561	108.5803
1.680235	72.304	108.9927
1.692411	72.050	109.4562
1.704675	71.801	109.9726
1.717028	71.557	110.5438
1.729470	71.321	111.1713
1.742003	71.093	111.8566
1.754626	70.876	112.6012
1.767341	70.669	113.4062
1.780147	70.476	114.2736
1.793047	70.296	115.2057
1.806040	70.131	116.2064
1.819128	69.983	117.2821
1.832310	69.850	118.4417
1.845587	69.734	119.6957
1.858961	69.633	121.0546
1.872432	69.548	122.5255
1.886001	69.476	124.1115
1.899667	69.419	125.8106
1.913433	69.376	127.6166
1.927299	69.345	129.5191
1.941265	69.326	131.5042
1.955332	69.319	133.5549
1.969501	69.322	135.6518
1.983773	69.337	137.7740
1.998148	69.361	139.8997
2.012627	69.394	142.0070
2.027212	69.436	144.0748
2.041902	69.486	146.0836
2.056698	69.543	148.0157
2.071602	69.605	149.8559
2.086614	69.674	151.5916
2.101734	69.747	153.2129
2.116964	69.825	154.7122
2.132304	69.905	156.0846
2.147756	69.990	157.3272
2.163320	70.078	158.4391
2.178996	70.169	159.4212
2.194786	70.266	160.2763
2.210690	70.370	161.0083
2.226710	70.482	161.6222
2.242845	70.604	162.1236
2.259098	70.736	162.5185
2.275468	70.877	162.8133
2.291957	71.028	163.0144
2.308566	71.188	163.1285
2.325295	71.355	163.1622
2.342145	71.528	163.1219
2.359117	71.705	163.0139
2.376212	71.886	162.8442
2.393431	72.069	162.6182
2.410775	72.252	162.3410
2.428244	72.433	162.0172
2.445840	72.611	161.6507
2.463564	72.785	161.2448
2.481416	72.952	160.8018
2.499397	73.112	160.3226
2.517509	73.263	159.8069
2.535752	73.405	159.2521
2.554127	73.536	158.6540
2.572635	73.658	158.0066
2.591277	73.772	157.3041
2.610055	73.877	156.5423
2.628968	73.975	155.7202
2.648019	74.066	154.8395
2.667208	74.150	153.9040
2.686535	74.230	152.9190
2.706003	74.303	151.8906
2.725612	74.372	150.8257
2.745363	74.435	149.7309
2.765257	74.495	148.6131
2.785295	74.550	147.4789
2.805478	74.601	146.3344
2.825808	74.649	145.1850
2.846285	74.693	144.0350
2.866910	74.734	142.8871
2.887685	74.773	141.7416
2.908611	74.808	140.5957
2.929688	74.840	139.4436
2.950917	74.868	138.2768
2.972301	74.892	137.0872
2.993839	74.912	135.8683
3.015534	74.928	134.6168
3.037386	74.939	133.3325
3.059396	74.946	132.0174
3.081565	74.948	130.6752
3.103896	74.947	129.3110
3.126388	74.942	127.9308
3.149043	74.933	126.5412
3.171862	74.921	125.1489
3.194847	74.906	123.7603
3.217998	74.889	122.3811
3.241317	74.869	121.0153
3.264805	74.846	119.6642
3.288463	74.821	118.3258
3.312293	74.792	116.9950
3.336295	74.761	115.6648
3.360471	74.726	114.3289
3.384822	74.687	112.9834
3.409350	74.646	111.6272
3.434056	74.600	110.2619
3.458940	74.552	108.8913
3.484005	74.501	107.5213
3.509252	74.448	106.1591
3.534681	74.392	104.8132
3.560295	74.335	103.4926
3.586094	74.276	102.2064
3.612081	74.216	100.9626
3.638255	74.154	99.7673
3.664620	74.090	98.6236
3.691175	74.024	97.5314
3.717923	73.955	96.4884
3.744864	73.884	95.4915
3.772001	73.811	94.5380
3.799335	73.736	93.6264
3.826866	73.661	92.7564
3.854597	73.586	91.9289
3.882529	73.513	91.1463
3.910664	73.443	90.4121
3.939002	73.377	89.7310
3.967546	73.316	89.1091
3.996296	73.261	88.5531
4.025255	73.211	88.0699
4.054423	73.166	87.6656
4.083804	73.128	87.3442
4.113396	73.094	87.1061
4.143204	73.066	86.9481
4.173227	73.045	86.8643
4.203468	73.032	86.8464
4.233928	73.027	86.8847
4.264609	73.033	86.9693
4.295512	73.050	87.0908
4.326639	73.081	87.2414
4.357992	73.127	87.4162
4.389572	73.188	87.6136
4.421380	73.266	87.8348
4.453419	73.360	88.0802
4.485691	73.470	88.3473
4.518196	73.594	88.6287
4.550936	73.731	88.9134
4.583914	73.880	89.1878
4.617131	74.039	89.4377
4.650589	74.206	89.6499
4.684289	74.380	89.8132
4.718233	74.560	89.9203
4.752424	74.746	89.9681
4.786862	74.939	89.9578
4.821549	75.137	89.8933
4.856488	75.342	89.7789
4.891680	75.552	89.6180
4.927127	75.765	89.4126
4.962831	75.980	89.1635
4.998794	76.195	88.8707
5.035017	76.408	88.5334
5.071503	76.617	88.1507
5.108253	76.822	87.7220
5.145270	77.022	87.2478
5.182555	77.218	86.7300
5.220110	77.408	86.1729
5.257937	77.594	85.5823
5.296038	77.775	84.9653
5.334415	77.950	84.3286
5.373071	78.120	83.6786
5.412006	78.283	83.0195
5.451224	78.439	82.3541
5.490725	78.588	81.6826
5.530514	78.729	81.0046
5.570590	78.864	80.3200
5.610957	78.990	79.6310
5.651616	79.110	78.9420
5.692570	79.223	78.2594
5.733821	79.329	77.5899
5.775370	79.429	76.9397
5.817221	79.523	76.3134
5.859375	79.611	75.7133
5.901834	79.693	75.1394
5.944602	79.768	74.5914
5.987679	79.838	74.0696
6.031068	79.903	73.5759
6.074771	79.963	73.1135
6.118792	80.020	72.6863
6.163131	80.074	72.2983
6.207792	80.125	71.9525
6.252776	80.175	71.6505
6.298086	80.223	71.3921
6.343725	80.269	71.1758
6.389694	80.315	70.9996
6.435996	80.361	70.8609
6.482634	80.408	70.7575
6.529610	80.457	70.6878
6.576926	80.508	70.6505
6.624585	80.563	70.6444
6.672590	80.621	70.6675
6.720942	80.682	70.7164
6.769645	80.747	70.7856
6.818700	80.816	70.8687
6.868111	80.888	70.9591
6.917881	80.965	71.0512
6.968010	81.046	71.1411
7.018504	81.130	71.2259
7.069362	81.219	71.3031
7.120590	81.310	71.3694
7.172189	81.404	71.4210
7.224161	81.500	71.4534
7.276511	81.597	71.4630
7.329239	81.694	71.4471
7.382350	81.792	71.4048
7.435845	81.889	71.3362
7.489729	81.986	71.2422
7.544002	82.081	71.1240
7.598669	82.173	70.9827
7.653732	82.263	70.8192
7.709194	82.349	70.6344
7.765058	82.432	70.4298
7.821327	82.510	70.2075
7.878004	82.585	69.9708
7.935091	82.655	69.7234
7.992592	82.721	69.4690
8.050510	82.782	69.2103
8.108847	82.839	68.9497
8.167607	82.892	68.6890
8.226793	82.940	68.4304
8.286408	82.984	68.1766
8.346454	83.024	67.9303
8.406936	83.062	67.6941
8.467856	83.097	67.4693
8.529218	83.129	67.2566
8.591024	83.159	67.0563
8.653278	83.187	66.8680
8.715983	83.214	66.6915
8.779143	83.241	66.5266
8.842760	83.267	66.3724
8.906839	83.293	66.2278
8.971381	83.320	66.0907
9.036392	83.347	65.9584
9.101873	83.375	65.8285
9.167829	83.404	65.6984
9.234263	83.434	65.5662
9.301178	83.465	65.4299
9.368578	83.496	65.2871
9.436467	83.529	65.1355
9.504847	83.562	64.9730
9.573723	83.594	64.7982
9.643099	83.627	64.6101
9.712976	83.658	64.4082
9.783361	83.688	64.1924
9.854255	83.715	63.9626
9.925663	83.739	63.7190
9.997588	83.759	63.4623
10.070035	83.777	63.1935
10.143007	83.791	62.9138
10.216507	83.802	62.6250
10.290540	83.811	62.3282
10.365109	83.817	62.0247
10.440219	83.821	61.7157
10.515873	83.824	61.4026
10.592076	83.825	61.0865
10.668830	83.826	60.7683
10.746141	83.826	60.4486
10.824012	83.826	60.1277
10.902447	83.827	59.8056
10.981451	83.827	59.4824
11.061027	83.829	59.1577
11.141180	83.831	58.8312
11.221913	83.834	58.5023
11.303232	83.839	58.1703
11.385140	83.844	57.8346
11.467641	83.850	57.4949
11.550741	83.858	57.1507
11.634442	83.867	56.8019
11.718750	83.877	56.4483
11.803669	83.889	56.0902
11.889203	83.902	55.7279
11.975357	83.916	55.3620
12.062136	83.932	54.9933
12.149543	83.948	54.6226
12.237583	83.966	54.2508
12.326262	83.984	53.8788
12.415583	84.004	53.5074
12.505552	84.024	53.1375
12.596172	84.045	52.7696
12.687449	84.068	52.4043
12.779387	84.091	52.0418
12.871992	84.116	51.6822
12.965268	84.142	51.3256
13.059220	84.169	50.9718
13.153852	84.197	50.6205
13.249170	84.227	50.2715
13.345179	84.258	49.9246
13.441884	84.290	49.5799
13.539289	84.323	49.2374
13.637401	84.357	48.8974
13.736223	84.391	48.5603
13.835761	84.425	48.2269
13.936021	84.459	47.8981
14.037007	84.493	47.5748
14.138725	84.526	47.2581
14.241180	84.559	46.9491
14.344377	84.591	46.6487
14.448323	84.623	46.3577
14.553021	84.655	46.0767
14.658478	84.686	45.8058
14.764700	84.717	45.5451
14.871691	84.748	45.2941
14.979457	84.779	45.0519
15.088005	84.811	44.8177
15.197339	84.842	44.5903
15.307465	84.874	44.3684
15.418389	84.905	44.1506
15.530117	84.936	43.9359
15.642655	84.967	43.7233
15.756008	84.997	43.5120
15.870182	85.026	43.3015
15.985184	85.053	43.0916
16.101019	85.080	42.8825
16.217694	85.105	42.6744
16.335214	85.128	42.4675
16.453586	85.150	42.2623
16.572815	85.171	42.0591
16.692909	85.191	41.8578
16.813872	85.209	41.6584
16.935713	85.227	41.4604
17.058436	85.244	41.2632
17.182048	85.261	41.0658
17.306556	85.277	40.8671
17.431967	85.292	40.6661
17.558286	85.306	40.4615
17.685521	85.320	40.2522
17.813677	85.333	40.0375
17.942762	85.345	39.8167
18.072783	85.356	39.5894
18.203746	85.366	39.3556
18.335658	85.375	39.1153
18.468526	85.383	38.8688
18.602356	85.391	38.6166
18.737156	85.398	38.3590
18.872934	85.405	38.0965
19.009695	85.411	37.8294
19.147447	85.417	37.5580
19.286197	85.424	37.2825
19.425953	85.430	37.0033
19.566721	85.436	36.7206
19.708510	85.443	36.4347
19.851326	85.450	36.1459
19.995177	85.458	35.8548
20.140070	85.466	35.5617
20.286013	85.474	35.2672
20.433014	85.484	34.9715
20.581080	85.494	34.6749
20.730219	85.506	34.3776
20.880439	85.519	34.0794
21.031747	85.533	33.7803
21.184152	85.548	33.4800
21.337661	85.565	33.1786
21.492282	85.583	32.8761
21.648024	85.602	32.5732
21.804895	85.622	32.2706
21.962902	85.642	31.9695
22.122054	85.662	31.6715
22.282360	85.682	31.3782
22.443827	85.702	31.0912
22.606464	85.722	30.8121
22.770280	85.741	30.5417
22.935283	85.761	30.2808
23.101481	85.782	30.0292
23.268884	85.802	29.7865
23.437500	85.823	29.5518
23.607338	85.843	29.3239
23.778406	85.864	29.1018
23.950714	85.884	28.8845
24.124271	85.904	28.6714
24.299086	85.923	28.4620
24.475167	85.941	28.2564
24.652524	85.958	28.0548
24.831166	85.973	27.8573
25.011103	85.988	27.6641
25.192344	86.002	27.4750
25.374898	86.015	27.2896
25.558775	86.028	27.1070
25.743984	86.040	26.9263
25.930536	86.051	26.7464
26.118439	86.061	26.5661
26.307704	86.071	26.3844
26.498341	86.081	26.2003
26.690359	86.090	26.0133
26.883768	86.099	25.8229
27.078579	86.107	25.6286
27.274801	86.115	25.4305
27.472446	86.123	25.2283
27.671522	86.131	25.0220
27.872042	86.139	24.8114
28.074014	86.147	24.5967
28.277450	86.155	24.3777
28.482360	86.164	24.1544
28.688755	86.173	23.9269
28.896645	86.183	23.6952
29.106042	86.194	23.4594
29.316957	86.205	23.2198
29.529400	86.217	22.9770
29.743382	86.230	22.7317
29.958915	86.243	22.4847
30.176009	86.257	22.2370
30.394677	86.271	21.9897
30.614929	86.287	21.7435
30.836778	86.303	21.4990
31.060234	86.319	21.2564
31.285309	86.336	21.0156
31.512015	86.354	20.7766
31.740364	86.372	20.5390
31.970368	86.389	20.3029
32.202039	86.407	20.0685
32.435388	86.424	19.8361
32.670428	86.442	19.6062
32.907171	86.458	19.3790
33.145630	86.475	19.1543
33.385817	86.491	18.9314
33.627745	86.507	18.7093
33.871425	86.523	18.4864
34.116871	86.538	18.2615
34.364096	86.553	18.0332
34.613113	86.567	17.8007
34.863934	86.581	17.5638
35.116572	86.593	17.3228
35.371041	86.605	17.0782
35.627354	86.616	16.8307
35.885525	86.626	16.5811
36.145566	86.635	16.3296
36.407492	86.644	16.0762
36.671316	86.653	15.8207
36.937051	86.662	15.5623
37.204712	86.672	15.3004
37.474313	86.681	15.0342
37.745867	86.691	14.7635
38.019389	86.700	14.4885
38.294893	86.709	14.2098
38.572394	86.718	13.9285
38.851905	86.727	13.6459
39.133442	86.735	13.3633
39.417019	86.743	13.0817
39.702651	86.751	12.8017
39.990353	86.759	12.5237
40.280140	86.766	12.2473
40.572026	86.773	11.9720
40.866028	86.780	11.6973
41.162160	86.787	11.4224
41.460438	86.793	11.1472
41.760877	86.798	10.8716
42.063494	86.803	10.5960
42.368303	86.807	10.3209
42.675322	86.810	10.0467
42.984565	86.812	9.7735
43.296048	86.813	9.5010
43.609789	86.814	9.2285
43.925804	86.815	8.9556
44.244108	86.815	8.6818
44.564719	86.814	8.4073
44.887654	86.813	8.1324
45.212928	86.812	7.8579
45.540560	86.810	7.5841
45.870565	86.808	7.3114
46.202962	86.805	7.0398
46.537768	86.803	6.7693
46.875000	86.800	6.4997
47.214676	86.797	6.2312
47.556813	86.794	5.9639
47.901429	86.791	5.6981
48.248542	86.788	5.4340
48.598171	86.784	5.1715
48.950334	86.780	4.9108
49.305048	86.775	4.6517
49.662333	86.770	4.3942
50.022206	86.765	4.1381
50.384688	86.759	3.8828
50.749796	86.753	3.6282
51.117550	86.747	3.3739
51.487969	86.740	3.1199
51.861072	86.733	2.8662
52.236879	86.726	2.6131
52.615409	86.719	2.3610
52.996681	86.711	2.1101
53.380717	86.703	1.8604
53.767536	86.696	1.6121
54.157158	86.688	1.3651
54.549603	86.680	1.1197
54.944892	86.672	0.8763
55.343045	86.664	0.6352
55.744084	86.655	0.3969
56.148028	86.647	0.1617
56.554900	86.637	-0.0703
56.964720	86.628	-0.2994
57.377510	86.618	-0.5264
57.793291	86.608	-0.7523
58.212085	86.598	-0.9777
58.633914	86.587	-1.2027
59.058799	86.576	-1.4268
59.486764	86.563	-1.6488
59.917829	86.551	-1.8678
60.352019	86.538	-2.0837
60.789354	86.525	-2.2968
61.229859	86.512	-2.5079
61.673556	86.499	-2.7181
62.120468	86.487	-2.9278
62.570618	86.474	-3.1371
63.024031	86.461	-3.3458
63.480729	86.448	-3.5535
63.940736	86.435	-3.7598
64.404077	86.422	-3.9643
64.870776	86.409	-4.1670
65.340856	86.395	-4.3678
65.814343	86.381	-4.5670
66.291261	86.367	-4.7651
66.771635	86.353	-4.9625
67.255489	86.338	-5.1596
67.742850	86.324	-5.3564
68.233743	86.309	-5.5530
68.728193	86.294	-5.7489
69.226226	86.279	-5.9439
69.727867	86.264	-6.1376
70.233144	86.249	-6.3302
70.742083	86.235	-6.5224
71.254709	86.220	-6.7148
71.771050	86.206	-6.9077
72.291132	86.190	-7.1004
72.814984	86.175	-7.2910
73.342631	86.159	-7.4781
73.874102	86.143	-7.6610
74.409424	86.127	-7.8404
74.948626	86.111	-8.0172
75.491734	86.095	-8.1924
76.038779	86.079	-8.3664
76.589787	86.064	-8.5396
77.144788	86.048	-8.7125
77.703811	86.033	-8.8854
78.266885	86.017	-9.0586
78.834039	86.002	-9.2320
79.405303	85.986	-9.4053
79.980706	85.970	-9.5782
80.560280	85.954	-9.7507
81.144053	85.938	-9.9226
81.732056	85.922	-10.0939
82.324320	85.905	-10.2647
82.920876	85.889	-10.4358
83.521755	85.872	-10.6075
84.126988	85.856	-10.7801
84.736607	85.840	-10.9533
85.350643	85.823	-11.1259
85.969129	85.807	-11.2968
86.592097	85.790	-11.4650
87.219579	85.774	-11.6303
87.851608	85.757	-11.7930
88.488217	85.741	-11.9537
89.129439	85.724	-12.1130
89.775308	85.708	-12.2716
90.425856	85.691	-12.4304
91.081119	85.675	-12.5900
91.741131	85.658	-12.7508
92.405925	85.640	-12.9127
93.075536	85.623	-13.0755
93.750000	85.605	-13.2390
94.429351	85.588	-13.4025
95.113625	85.570	-13.5656
95.802858	85.552	-13.7277
96.497085	85.534	-13.8885
97.196342	85.516	-14.0478
97.900667	85.497	-14.2055
98.610096	85.479	-14.3621
99.324665	85.460	-14.5177
100.044413	85.440	-14.6723
100.769376	85.420	-14.8252
101.499592	85.400	-14.9760
102.235100	85.379	-15.1243
102.975938	85.358	-15.2703
103.722144	85.336	-15.4146
104.473757	85.315	-15.5575
105.230817	85.293	-15.6993
105.993363	85.272	-15.8399
106.761435	85.250	-15.9793
107.535072	85.228	-16.1179
108.314315	85.206	-16.2568
109.099206	85.184	-16.3968
109.889783	85.161	-16.5376
110.686090	85.138	-16.6783
111.488167	85.114	-16.8177
112.296056	85.090	-16.9551
113.109800	85.065	-17.0901
113.929440	85.040	-17.2224
114.755020	85.014	-17.3516
115.586582	84.989	-17.4774
116.424170	84.964	-17.5997
117.267827	84.939	-17.7192
118.117598	84.914	-17.8364
118.973527	84.889	-17.9509
119.835658	84.864	-18.0613
120.704037	84.839	-18.1661
121.578708	84.813	-18.2649
122.459718	84.787	-18.3588
123.347111	84.761	-18.4490
124.240935	84.735	-18.5361
125.141236	84.709	-18.6205
126.048061	84.683	-18.7024
126.961458	84.657	-18.7816
127.881473	84.631	-18.8578
128.808154	84.606	-18.9313
129.741551	84.580	-19.0022
130.681712	84.555	-19.0711
131.628686	84.529	-19.1379
132.582521	84.504	-19.2024
133.543269	84.479	-19.2642
134.510979	84.454	-19.3226
135.485701	84.430	-19.3773
136.467486	84.405	-19.4279
137.456386	84.382	-19.4740
138.452451	84.358	-19.5155
139.455735	84.335	-19.5524
140.466288	84.313	-19.5857
141.484165	84.292	-19.6164
142.509418	84.271	-19.6459
143.542100	84.251	-19.6754
144.582265	84.232	-19.7052
145.629968	84.213	-19.7351
146.685262	84.194	-19.7642
147.748204	84.176	-19.7922
148.818849	84.157	-19.8192
149.897251	84.139	-19.8455
150.983469	84.122	-19.8714
152.077557	84.104	-19.8970
153.179574	84.087	-19.9226
154.289576	84.069	-19.9481
155.407622	84.052	-19.9739
156.533770	84.036	-20.0005
157.668078	84.020	-20.0286
158.810606	84.004	-20.0584
159.961413	83.989	-20.0903
161.120559	83.974	-20.1249
162.288105	83.959	-20.1629
163.464112	83.945	-20.2043
164.648640	83.931	-20.2486
165.841752	83.917	-20.2950
167.043510	83.904	-20.3435
168.253976	83.891	-20.3944
169.473213	83.878	-20.4480
170.701286	83.866	-20.5048
171.938258	83.854	-20.5650
173.184194	83.842	-20.6292
174.439158	83.830	-20.6972
175.703216	83.818	-20.7689
176.976434	83.806	-20.8438
178.258878	83.795	-20.9217
179.550615	83.783	-21.0023
180.851713	83.771	-21.0856
182.162239	83.759	-21.1716
183.482262	83.747	-21.2602
184.811850	83.735	-21.3516
186.151073	83.723	-21.4458
187.500000	83.711	-21.5430
188.858702	83.699	-21.6429
190.227250	83.687	-21.7448
191.605715	83.675	-21.8479
192.994169	83.663	-21.9518
194.392685	83.651	-22.0568
195.801334	83.639	-22.1634
197.220191	83.627	-22.2724
198.649330	83.615	-22.3839
200.088825	83.603	-22.4982
201.538751	83.590	-22.6148
202.999184	83.577	-22.7333
204.470200	83.564	-22.8527
205.951875	83.549	-22.9720
207.444287	83.534	-23.0902
208.947514	83.519	-23.2069
210.461634	83.502	-23.3222
211.986726	83.484	-23.4370
213.522869	83.466	-23.5527
215.070144	83.447	-23.6709
216.628631	83.428	-23.7929
218.198411	83.408	-23.9188
219.779567	83.388	-24.0474
221.372180	83.367	-24.1766
222.976334	83.346	-24.3046
224.592112	83.324	-24.4296
226.219600	83.301	-24.5512
227.858880	83.278	-24.6697
229.510039	83.254	-24.7859
231.173164	83.230	-24.9009
232.848340	83.206	-25.0149
234.535655	83.181	-25.1276
236.235197	83.155	-25.2387
237.947054	83.129	-25.3482
239.671317	83.102	-25.4560
241.408074	83.075	-25.5626
243.157416	83.048	-25.6681
244.919435	83.021	-25.7716
246.694223	82.993	-25.8720
248.481871	82.965	-25.9691
250.282473	82.937	-26.0632
252.096123	82.909	-26.1554
253.922915	82.880	-26.2467
255.762945	82.851	-26.3372
257.616309	82.822	-26.4259
259.483103	82.792	-26.5118
261.363424	82.762	-26.5941
263.257372	82.732	-26.6730
265.165043	82.702	-26.7493
267.086538	82.671	-26.8237
269.021957	82.641	-26.8965
270.971401	82.611	-26.9675
272.934972	82.581	-27.0361
274.912771	82.551	-27.1014
276.904902	82.521	-27.1624
278.911469	82.492	-27.2183
280.932577	82.462	-27.2689
282.968330	82.432	-27.3145
285.018835	82.403	-27.3559
287.084199	82.372	-27.3941
289.164530	82.342	-27.4294
291.259935	82.311	-27.4621
293.370525	82.280	-27.4921
295.496408	82.249	-27.5193
297.637697	82.218	-27.5433
299.794503	82.187	-27.5639
301.966937	82.156	-27.5807
304.155114	82.125	-27.5932
306.359147	82.095	-27.6009
308.579152	82.064	-27.6036
310.815244	82.034	-27.6014
313.067539	82.004	-27.5948
315.336156	81.974	-27.5846
317.621211	81.945	-27.5710
319.922826	81.915	-27.5541
322.241118	81.886	-27.5344
324.576210	81.858	-27.5122
326.928223	81.830	-27.4881
329.297280	81.803	-27.4622
331.683504	81.776	-27.4348
334.087019	81.750	-27.4056
336.507952	81.724	-27.3742
338.946427	81.699	-27.3407
341.402572	81.674	-27.3060
343.876516	81.650	-27.2708
346.368387	81.626	-27.2354
348.878315	81.603	-27.1998
351.406431	81.580	-27.1648
353.952867	81.558	-27.1311
356.517756	81.537	-27.0995
359.101230	81.517	-27.0698
361.703426	81.497	-27.0419
364.324478	81.478	-27.0167
366.964523	81.459	-26.9955
369.623699	81.441	-26.9793
372.302145	81.423	-26.9688
375.000000	81.406	-26.9633
377.717405	81.389	-26.9615
380.454501	81.372	-26.9624
383.211431	81.355	-26.9660
385.988339	81.338	-26.9731
388.785369	81.322	-26.9850
391.602668	81.305	-27.0029
394.440383	81.288	-27.0273
397.298660	81.271	-27.0586
400.177650	81.253	-27.0961
403.077502	81.235	-27.1388
405.998368	81.216	-27.1858
408.940400	81.196	-27.2362
411.903750	81.176	-27.2898
414.888575	81.155	-27.3466
417.895028	81.134	-27.4069
420.923268	81.112	-27.4711
423.973452	81.090	-27.5388
427.045738	81.067	-27.6092
430.140287	81.043	-27.6813
433.257261	81.019	-27.7542
436.396822	80.993	-27.8275
439.559133	80.966	-27.9006
442.744360	80.938	-27.9727
445.952668	80.909	-28.0428
449.184225	80.878	-28.1105
452.439199	80.847	-28.1761
455.717760	80.814	-28.2395
459.020079	80.781	-28.3007
462.346327	80.747	-28.3593
465.696680	80.712	-28.4152
469.071310	80.677	-28.4680
472.470394	80.640	-28.5180
475.894109	80.603	-28.5650
479.342634	80.565	-28.6082
482.816148	80.526	-28.6472
486.314833	80.486	-28.6817
489.838871	80.445	-28.7120
493.388445	80.403	-28.7371
496.963741	80.361	-28.7554
500.564945	80.317	-28.7649
504.192245	80.273	-28.7651
507.845830	80.228	-28.7566
511.525890	80.182	-28.7404
515.232618	80.136	-28.7176
518.966206	80.090	-28.6889
522.726849	80.044	-28.6546
526.514743	79.998	-28.6146
530.330086	79.952	-28.5687
534.173076	79.906	-28.5167
538.043915	79.860	-28.4585
541.942803	79.813	-28.3936
545.869944	79.767	-28.3211
549.825542	79.720	-28.2404
553.809805	79.673	-28.1507
557.822939	79.626	-28.0517
561.865154	79.579	-27.9438
565.936660	79.532	-27.8273
570.037671	79.486	-27.7039
574.168399	79.439	-27.5753
578.329060	79.392	-27.4431
582.519870	79.346	-27.3074
586.741049	79.299	-27.1674
590.992817	79.253	-27.0213
595.275394	79.207	-26.8676
599.589005	79.161	-26.7059
603.933874	79.115	-26.5360
608.310228	79.069	-26.3580
612.718295	79.022	-26.1714
617.158304	78.976	-25.9758
621.630488	78.929	-25.7706
626.135079	78.882	-25.5551
630.672311	78.834	-25.3284
635.242423	78.786	-25.0887
639.845651	78.738	-24.8333
644.482237	78.690	-24.5594
649.152421	78.644	-24.2647
653.856447	78.599	-23.9485
658.594560	78.555	-23.6116
663.367008	78.513	-23.2556
668.174039	78.473	-22.8838
673.015903	78.437	-22.5008
677.892854	78.403	-22.1109
682.805145	78.372	-21.7169
687.753032	78.344	-21.3204
692.736774	78.319	-20.9228
697.756631	78.296	-20.5268
702.812863	78.276	-20.1349
707.905735	78.257	-19.7486
713.035511	78.239	-19.3682
718.202461	78.223	-18.9925
723.406852	78.209	-18.6189
728.648956	78.195	-18.2452
733.929047	78.183	-17.8698
739.247399	78.172	-17.4923
744.604290	78.161	-17.1126
750.000000	78.151	-16.7308
755.434809	78.143	-16.3476
760.909001	78.136	-15.9635
766.422861	78.130	-15.5791
771.976677	78.125	-15.1952
777.570739	78.121	-14.8126
783.205337	78.119	-14.4310
788.880766	78.118	-14.0494
794.597321	78.118	-13.6669
800.355301	78.120	-13.2835
806.155005	78.123	-12.8998
811.996736	78.126	-12.5171
817.880799	78.131	-12.1365
823.807501	78.137	-11.7589
829.777150	78.145	-11.3842
835.790057	78.153	-11.0123
841.846536	78.163	-10.6434
847.946903	78.174	-10.2770
854.091476	78.186	-9.9124
860.280575	78.199	-9.5493
866.514523	78.214	-9.1874
872.793644	78.230	-8.8270
879.118267	78.247	-8.4689
885.488720	78.265	-8.1142
891.905336	78.284	-7.7636
898.368450	78.304	-7.4174
904.878398	78.326	-7.0760
911.435520	78.350	-6.7398
918.040157	78.374	-6.4088
924.692655	78.401	-6.0830
931.393359	78.428	-5.7626
938.142619	78.456	-5.4486
944.940787	78.485	-5.1419
951.788218	78.515	-4.8427
958.685268	78.546	-4.5511
965.632296	78.578	-4.2672
972.629666	78.611	-3.9913
979.677741	78.645	-3.7237
986.776890	78.680	-3.4641
993.927482	78.717	-3.2115
1001.129891	78.755	-2.9652
1008.384491	78.793	-2.7248
1015.691660	78.832	-2.4917
1023.051781	78.872	-2.2672
1030.465236	78.912	-2.0514
1037.932411	78.952	-1.8438
1045.453698	78.993	-1.6437
1053.029486	79.034	-1.4507
1060.660172	79.075	-1.2649
1068.346153	79.116	-1.0873
1076.087829	79.157	-0.9184
1083.885605	79.198	-0.7578
1091.739887	79.239	-0.6041
1099.651084	79.280	-0.4562
1107.619609	79.321	-0.3129
1115.645878	79.361	-0.1738
1123.730308	79.402	-0.0394
1131.873321	79.442	0.0897
1140.075341	79.482	0.2138
1148.336797	79.522	0.3335
1156.658119	79.562	0.4495
1165.039741	79.601	0.5613
1173.482099	79.641	0.6684
1181.985634	79.680	0.7717
1190.550789	79.719	0.8721
1199.178011	79.758	0.9712
1207.867749	79.797	1.0698
1216.620457	79.837	1.1686
1225.436590	79.876	1.2680
1234.316609	79.915	1.3678
1243.260976	79.955	1.4676
1252.270157	79.994	1.5671
1261.344623	80.034	1.6665
1270.484846	80.074	1.7657
1279.691303	80.113	1.8651
1288.964474	80.153	1.9652
1298.304842	80.193	2.0664
1307.712894	80.234	2.1694
1317.189120	80.275	2.2748
1326.734016	80.316	2.3833
1336.348077	80.360	2.4947
1346.031806	80.404	2.6078
1355.785708	80.451	2.7219
1365.610290	80.500	2.8374
1375.506065	80.552	2.9551
1385.473549	80.605	3.0753
1395.513261	80.661	3.1978
1405.625726	80.719	3.3223
1415.811469	80.778	3.4489
1426.071023	80.838	3.5773
1436.404921	80.900	3.7071
1446.813703	80.962	3.8376
1457.297912	81.025	3.9689
1467.858093	81.089	4.1011
1478.494798	81.154	4.2340
1489.208581	81.218	4.3672
1500.000000	81.281	4.5003
1510.869618	81.342	4.6326
1521.818002	81.402	4.7635
1532.845723	81.458	4.8923
1543.953355	81.512	5.0185
1555.141477	81.565	5.1417
1566.410674	81.617	5.2614
1577.761531	81.669	5.3777
1589.194642	81.721	5.4904
1600.710601	81.774	5.5990
1612.310010	81.829	5.7025
1623.993473	81.884	5.8002
1635.761599	81.942	5.8911
1647.615002	82.001	5.9746
1659.554299	82.061	6.0500
1671.580114	82.124	6.1168
1683.693072	82.189	6.1744
1695.893807	82.255	6.2227
1708.182952	82.323	6.2617
1720.561150	82.392	6.2913
1733.029045	82.462	6.3112
1745.587288	82.532	6.3206
1758.236533	82.602	6.3184
1770.977440	82.674	6.3040
1783.810673	82.746	6.2769
1796.736900	82.819	6.2366
1809.756796	82.893	6.1819
1822.871040	82.968	6.1114
1836.080315	83.045	6.0247
1849.385310	83.123	5.9213
1862.786718	83.203	5.8013
1876.285239	83.285	5.6643
1889.881575	83.369	5.5098
1903.576436	83.457	5.3378
1917.370535	83.549	5.1481
1931.264593	83.645	4.9403
1945.259332	83.746	4.7142
1959.355483	83.850	4.4695
1973.553781	83.956	4.2061
1987.854965	84.064	3.9239
2002.259781	84.172	3.6233
2016.768981	84.280	3.3038
2031.383320	84.388	2.9650
2046.103561	84.495	2.6062
2060.930471	84.602	2.2272
2075.864823	84.708	1.8287
2090.907395	84.812	1.4114
2106.058972	84.916	0.9760
2121.320344	85.017	0.5226
2136.692305	85.116	0.0515
2152.175658	85.213	-0.4370
2167.771210	85.307	-0.9417
2183.479774	85.398	-1.4617
2199.302169	85.487	-1.9962
2215.239219	85.573	-2.5447
2231.291755	85.657	-3.1066
2247.460615	85.739	-3.6813
2263.746641	85.818	-4.2677
2280.150683	85.896	-4.8647
2296.673595	85.972	-5.4711
2313.316238	86.046	-6.0859
2330.079481	86.118	-6.7084
2346.964198	86.188	-7.3381
2363.971268	86.257	-7.9751
2381.101578	86.324	-8.6189
2398.356022	86.389	-9.2694
2415.735498	86.453	-9.9260
2433.240913	86.515	-10.5887
2450.873180	86.577	-11.2577
2468.633217	86.637	-11.9335
2486.521951	86.697	-12.6170
2504.540314	86.757	-13.3087
2522.689246	86.815	-14.0094
2540.969692	86.874	-14.7199
2559.382606	86.932	-15.4411
2577.928947	86.990	-16.1739
2596.609683	87.047	-16.9196
2615.425787	87.104	-17.6799
2634.378241	87.162	-18.4569
2653.468031	87.219	-19.2524
2672.696154	87.275	-20.0681
2692.063613	87.332	-20.9059
2711.571415	87.388	-21.7678
2731.220579	87.443	-22.6563
2751.012130	87.497	-23.5738
2770.947098	87.550	-24.5224
2791.026522	87.601	-25.5036
2811.251451	87.649	-26.5188
2831.622938	87.695	-27.5693
2852.142045	87.737	-28.6565
2872.809842	87.775	-29.7817
2893.627406	87.809	-30.9456
2914.595823	87.838	-32.1488
2935.716186	87.862	-33.3912
2956.989596	87.879	-34.6725
2978.417161	87.888	-35.9911
3000.000000	87.890	-37.3447
3021.739237	87.882	-38.7297
3043.636005	87.864	-40.1425
3065.691446	87.835	-41.5786
3087.906710	87.795	-43.0327
3110.282955	87.744	-44.4988
3132.821347	87.680	-45.9700
3155.523062	87.604	-47.4396
3178.389283	87.515	-48.9007
3201.421202	87.413	-50.3462
3224.620020	87.298	-51.7687
3247.986946	87.171	-53.1610
3271.523198	87.032	-54.5165
3295.230004	86.880	-55.8288
3319.108599	86.717	-57.0916
3343.160228	86.543	-58.2993
3367.386145	86.359	-59.4467
3391.787613	86.166	-60.5293
3416.365904	85.965	-61.5434
3441.122300	85.757	-62.4855
3466.058091	85.542	-63.3528
3491.174576	85.320	-64.1430
3516.473066	85.094	-64.8541
3541.954880	84.863	-65.4842
3567.621345	84.627	-66.0320
3593.473800	84.388	-66.4963
3619.513592	84.145	-66.8760
3645.742080	83.900	-67.1702
3672.160630	83.653	-67.3783
3698.770620	83.404	-67.4998
3725.573436	83.154	-67.5341
3752.570477	82.902	-67.4803
3779.763150	82.651	-67.3380
3807.152872	82.398	-67.1062
3834.741071	82.146	-66.7841
3862.529185	81.894	-66.3707
3890.518664	81.643	-65.8651
3918.710966	81.393	-65.2665
3947.107561	81.146	-64.5744
3975.709929	80.903	-63.7878
4004.519563	80.665	-62.9051
4033.537962	80.432	-61.9250
4062.766641	80.207	-60.8470
4092.207123	79.990	-59.6722
4121.860942	79.781	-58.4020
4151.729646	79.583	-57.0381
4181.814790	79.397	-55.5830
4212.117944	79.223	-54.0394
4242.640687	79.063	-52.4108
4273.384610	78.917	-50.7010
4304.351317	78.787	-48.9145
4335.542421	78.674	-47.0563
4366.959549	78.579	-45.1319
4398.604338	78.503	-43.1484
4430.478438	78.450	-41.1148
4462.583511	78.419	-39.0425
4494.921231	78.412	-36.9454
4527.493283	78.432	-34.8400
4560.301365	78.478	-32.7451
4593.347189	78.551	-30.6804
4626.632476	78.651	-28.6671
4660.158962	78.779	-26.7268
4693.928395	78.932	-24.8817
4727.942535	79.111	-23.1538
4762.203156	79.313	-21.5649
4796.712043	79.535	-20.1357
4831.470996	79.774	-18.8844
4866.481826	80.027	-17.8267
4901.746360	80.289	-16.9739
4937.266434	80.557	-16.3326
4973.043902	80.825	-15.9042
5009.080628	81.090	-15.6851
5045.378492	81.345	-15.6674
5081.939384	81.588	-15.8388
5118.765212	81.814	-16.1827
5155.857894	82.020	-16.6792
5193.219366	82.204	-17.3052
5230.851574	82.364	-18.0354
5268.756481	82.498	-18.8428
5306.936062	82.606	-19.7004
5345.392309	82.687	-20.5820
5384.127225	82.743	-21.4628
5423.142830	82.774	-22.3197
5462.441159	82.781	-23.1315
5502.024259	82.767	-23.8797
5541.894195	82.733	-24.5487
5582.053045	82.684	-25.1268
5622.502902	82.620	-25.6060
5663.245876	82.546	-25.9811
5704.284090	82.464	-26.2490
5745.619684	82.375	-26.4082
5787.254813	82.283	-26.4594
5829.191647	82.188	-26.4042
5871.432373	82.094	-26.2458
5913.979192	82.000	-25.9882
5956.834323	81.910	-25.6360
6000.000000	81.824	-25.1941
6043.478473	81.743	-24.6681
6087.272010	81.669	-24.0637
6131.382892	81.602	-23.3871
6175.813420	81.543	-22.6445
6220.565910	81.493	-21.8413
6265.642695	81.452	-20.9823
6311.046124	81.420	-20.0721
6356.778566	81.400	-19.1155
6402.842404	81.390	-18.1174
6449.240040	81.391	-17.0812
6495.973891	81.404	-16.0081
6543.046396	81.429	-14.8966
6590.460007	81.467	-13.7423
6638.217197	81.519	-12.5385
6686.320456	81.589	-11.2774
6734.772290	81.680	-9.9537
6783.575226	81.799	-8.5740
6832.731809	81.953	-7.1681
6882.244600	82.146	-5.7986
6932.116181	82.379	-4.5572
6982.349153	82.646	-3.5417
7032.946133	82.937	-2.8230
7083.909760	83.241	-2.4269
7135.242690	83.546	-2.3434
7186.947600	83.845	-2.5444
7239.027185	84.136	-2.9989
7291.484160	84.416	-3.6820
7344.321260	84.685	-4.5805
7397.541239	84.940	-5.6929
7451.146872	85.179	-7.0238
7505.140954	85.398	-8.5779
7559.526299	85.592	-10.3543
7614.305743	85.753	-12.3423
7669.482141	85.877	-14.5195
7725.058371	85.956	-16.8518
7781.037328	85.987	-19.2941
7837.421932	85.964	-21.7930
7894.215122	85.886	-24.2899
7951.419859	85.754	-26.7247
8009.039125	85.569	-29.0398
8067.075924	85.336	-31.1828
8125.533282	85.060	-33.1098
8184.414245	84.747	-34.7867
8243.721885	84.405	-36.1900
8303.459292	84.041	-37.3065
8363.629581	83.661	-38.1330
8424.235888	83.274	-38.6746
8485.281374	82.885	-38.9432
8546.769221	82.499	-38.9557
8608.702634	82.121	-38.7330
8671.084842	81.755	-38.2982
8733.919097	81.403	-37.6754
8797.208675	81.067	-36.8888
8860.956876	80.749	-35.9621
8925.167022	80.448	-34.9177
8989.842461	80.165	-33.7756
9054.986566	79.898	-32.5537
9120.602731	79.649	-31.2684
9186.694378	79.415	-29.9344
9253.264952	79.195	-28.5645
9320.317925	78.990	-27.1685
9387.856790	78.797	-25.7541
9455.885071	78.615	-24.3272
9524.406312	78.443	-22.8918
9593.424086	78.281	-21.4506
9662.941992	78.126	-20.0036
9732.963653	77.978	-18.5485
9803.492719	77.836	-17.0800
9874.532869	77.698	-15.5910
9946.087805	77.564	-14.0733
10018.161257	77.431	-12.5187
10090.756983	77.301	-10.9189
10163.878768	77.173	-9.2662
10237.530423	77.047	-7.5521
10311.715789	76.924	-5.7681
10386.438732	76.806	-3.9060
10461.703149	76.693	-1.9593
10537.512962	76.587	0.0767
10613.872125	76.491	2.2061
10690.784618	76.405	4.4321
10768.254450	76.333	6.7560
10846.285661	76.276	9.1769
10924.882318	76.236	11.6915
11004.048518	76.216	14.2933
11083.788390	76.218	16.9725
11164.106090	76.244	19.7165
11245.005805	76.298	22.5104
11326.491752	76.383	25.3363
11408.568180	76.502	28.1729
11491.239368	76.656	30.9947
11574.509626	76.849	33.7713
11658.383294	77.081	36.4678
11742.864745	77.353	39.0438
11827.958384	77.666	41.4530
11913.668646	78.018	43.6444
12000.000000	78.406	45.5624
12086.956947	78.825	47.1491
12174.544019	79.270	48.3468
12262.765784	79.731	49.1022
12351.626840	80.197	49.3724
12441.131819	80.654	49.1305
12531.285389	81.088	48.3711
12622.092249	81.483	47.1137
12713.557132	81.824	45.4047
12805.684808	82.098	43.3172
12898.480079	82.293	40.9473
12991.947783	82.405	38.4082
13086.092792	82.431	35.8212
13180.920015	82.374	33.3054
13276.434395	82.244	30.9674
13372.640911	82.050	28.8927
13469.544580	81.809	27.1391
13567.150452	81.534	25.7345
13665.463617	81.243	24.6771
13764.489200	80.947	23.9378
13864.232362	80.660	23.4655
13964.698305	80.391	23.1936
14065.892266	80.146	23.0462
14167.819519	79.930	22.9447
14270.485380	79.741	22.8123
14373.895200	79.579	22.5791
14478.054370	79.436	22.1874
14582.968320	79.307	21.5952
14688.642520	79.183	20.7783
14795.082478	79.055	19.7300
14902.293745	78.915	18.4575
15010.281908	78.758	16.9789
15119.052599	78.580	15.3176
15228.611486	78.381	13.4964
15338.964283	78.161	11.5311
15450.116741	77.923	9.4248
15562.074656	77.670	7.1650
15674.843864	77.401	4.7237
15788.430244	77.114	2.0625
15902.839718	76.800	-0.8577
16018.078250	76.449	-4.0659
16134.151848	76.047	-7.5695
16251.066563	75.578	-11.3469
16368.828491	75.028	-15.3464
16487.443769	74.380	-19.4879
16606.918584	73.623	-23.6624
16727.259161	72.741	-27.7195
16848.471777	71.722	-31.4416
16970.562748	70.555	-34.5230
17093.538442	69.241	-36.6032
17217.405268	67.800	-37.3790
17342.169684	66.268	-36.7215
17467.838194	64.690	-34.7075
17594.417350	63.110	-31.5638
17721.913751	61.567	-27.5745
17850.334044	60.085	-23.0018
17979.684923	58.678	-18.0452
18109.973131	57.350	-12.8290
18241.205462	56.099	-7.4134
18373.388756	54.916	-1.8220
18506.529905	53.795	3.9332
18640.635849	52.727	9.8374
18775.713581	51.704	15.8658
18911.770141	50.716	21.9917
19048.812624	49.752	28.2129
19186.848172	48.808	34.5525
19325.883983	47.882	41.0176
19465.927305	46.987	47.5447
19606.985439	46.150	53.9441
19749.065738	45.420	59.8229
19892.175609	44.865	64.5247
20036.322514	44.561	67.2053
