* Measurement data measured by REW V5.30.4
* Source: EXCL: Microphone (Realtek(R) Audio), MICROPHONE (Master Volume), L, volume: 1.000
* Format: 256k Log Swept Sine, 1 sweep at -15.0 dBFS with no timing reference
* Dated: Jan 14, 2024 12:44:25 AM
* REW Settings:
*  C-weighting compensation: Off
*  Target level: 75.0 dB
* Note: ROSE TECHNICS Ceramics Rock
* Measurement: ROSE TECHNICS Ceramics R
* Smoothing: 1/12 octave
* Frequency Step: 96 ppo
* Start Frequency: 0.36621094 Hz
*
* Freq(Hz) SPL(dB) Phase(degrees)
0.366211 72.306 167.8411
0.368865 72.333 167.7985
0.371538 72.372 167.7356
0.374230 72.420 167.6583
0.376942 72.474 167.5715
0.379673 72.532 167.4789
0.382424 72.593 167.3830
0.385196 72.655 167.2851
0.387987 72.718 167.1861
0.390798 72.782 167.0865
0.393630 72.846 166.9865
0.396483 72.911 166.8862
0.399356 72.977 166.7858
0.402250 73.043 166.6853
0.405165 73.109 166.5846
0.408101 73.176 166.4837
0.411058 73.243 166.3828
0.414037 73.311 166.2817
0.417037 73.380 166.1805
0.420059 73.449 166.0791
0.423103 73.518 165.9776
0.426169 73.588 165.8759
0.429257 73.658 165.7740
0.432367 73.729 165.6720
0.435501 73.801 165.5697
0.438656 73.873 165.4673
0.441835 73.945 165.3646
0.445037 74.018 165.2617
0.448262 74.092 165.1586
0.451510 74.166 165.0552
0.454782 74.240 164.9515
0.458077 74.316 164.8475
0.461397 74.391 164.7431
0.464740 74.468 164.6385
0.468108 74.544 164.5335
0.471500 74.622 164.4281
0.474917 74.700 164.3223
0.478358 74.778 164.2161
0.481825 74.857 164.1095
0.485316 74.937 164.0023
0.488833 75.017 163.8947
0.492375 75.098 163.7866
0.495943 75.179 163.6779
0.499537 75.261 163.5686
0.503157 75.344 163.4587
0.506803 75.427 163.3482
0.510475 75.511 163.2370
0.514174 75.595 163.1251
0.517900 75.680 163.0125
0.521653 75.766 162.8991
0.525433 75.852 162.7849
0.529241 75.939 162.6699
0.533076 76.026 162.5540
0.536939 76.114 162.4372
0.540830 76.203 162.3194
0.544749 76.292 162.2007
0.548696 76.383 162.0809
0.552673 76.473 161.9601
0.556677 76.565 161.8382
0.560711 76.657 161.7152
0.564774 76.749 161.5909
0.568867 76.843 161.4654
0.572989 76.937 161.3387
0.577141 77.031 161.2106
0.581324 77.127 161.0812
0.585536 77.223 160.9503
0.589779 77.320 160.8180
0.594053 77.417 160.6842
0.598358 77.515 160.5488
0.602694 77.614 160.4118
0.607061 77.714 160.2732
0.611460 77.814 160.1328
0.615891 77.915 159.9906
0.620354 78.017 159.8467
0.624849 78.120 159.7009
0.629377 78.223 159.5531
0.633938 78.327 159.4033
0.638532 78.432 159.2515
0.643159 78.538 159.0975
0.647819 78.644 158.9414
0.652514 78.751 158.7831
0.657242 78.859 158.6224
0.662005 78.968 158.4594
0.666802 79.077 158.2940
0.671634 79.187 158.1260
0.676501 79.298 157.9555
0.681403 79.410 157.7824
0.686341 79.523 157.6065
0.691314 79.636 157.4279
0.696324 79.750 157.2465
0.701369 79.865 157.0621
0.706452 79.980 156.8749
0.711571 80.095 156.6847
0.716727 80.210 156.4917
0.721921 80.324 156.2960
0.727153 80.437 156.0978
0.732422 80.547 155.8974
0.737729 80.655 155.6954
0.743075 80.760 155.4922
0.748460 80.864 155.2882
0.753883 80.966 155.0837
0.759346 81.068 154.8789
0.764849 81.169 154.6739
0.770391 81.269 154.4689
0.775974 81.370 154.2639
0.781597 81.470 154.0589
0.787261 81.570 153.8540
0.792965 81.671 153.6491
0.798712 81.771 153.4443
0.804499 81.871 153.2395
0.810329 81.971 153.0348
0.816201 82.071 152.8302
0.822116 82.171 152.6256
0.828073 82.270 152.4210
0.834073 82.370 152.2164
0.840118 82.470 152.0118
0.846205 82.569 151.8072
0.852337 82.669 151.6025
0.858514 82.768 151.3976
0.864735 82.868 151.1927
0.871001 82.967 150.9875
0.877313 83.067 150.7822
0.883670 83.166 150.5765
0.890074 83.265 150.3705
0.896523 83.365 150.1642
0.903020 83.464 149.9575
0.909564 83.563 149.7503
0.916155 83.662 149.5425
0.922793 83.761 149.3341
0.929480 83.860 149.1251
0.936216 83.960 148.9153
0.943000 84.059 148.7047
0.949833 84.158 148.4932
0.956716 84.257 148.2808
0.963649 84.356 148.0673
0.970632 84.455 147.8526
0.977666 84.555 147.6368
0.984750 84.654 147.4196
0.991886 84.753 147.2010
0.999074 84.853 146.9809
1.006313 84.952 146.7592
1.013605 85.052 146.5357
1.020950 85.152 146.3105
1.028349 85.252 146.0832
1.035801 85.352 145.8539
1.043306 85.452 145.6225
1.050867 85.552 145.3887
1.058482 85.653 145.1525
1.066152 85.754 144.9137
1.073878 85.855 144.6722
1.081659 85.956 144.4279
1.089498 86.057 144.1808
1.097393 86.158 143.9307
1.105345 86.260 143.6776
1.113355 86.361 143.4216
1.121422 86.461 143.1628
1.129549 86.562 142.9013
1.137734 86.662 142.6371
1.145978 86.762 142.3705
1.154283 86.861 142.1016
1.162647 86.960 141.8306
1.171072 87.059 141.5575
1.179558 87.157 141.2826
1.188106 87.255 141.0059
1.196715 87.353 140.7277
1.205387 87.450 140.4480
1.214122 87.547 140.1670
1.222920 87.643 139.8848
1.231781 87.740 139.6015
1.240708 87.835 139.3173
1.249698 87.931 139.0323
1.258754 88.026 138.7465
1.267875 88.121 138.4602
1.277063 88.216 138.1733
1.286317 88.310 137.8860
1.295638 88.404 137.5984
1.305027 88.498 137.3107
1.314484 88.592 137.0228
1.324009 88.685 136.7348
1.333603 88.779 136.4470
1.343267 88.872 136.1593
1.353001 88.965 135.8717
1.362805 89.058 135.5845
1.372681 89.150 135.2976
1.382628 89.243 135.0111
1.392647 89.336 134.7250
1.402739 89.428 134.4395
1.412904 89.521 134.1544
1.423142 89.614 133.8698
1.433455 89.706 133.5855
1.443842 89.799 133.3016
1.454305 89.892 133.0176
1.464843 89.984 132.7333
1.475458 90.076 132.4483
1.486150 90.168 132.1623
1.496919 90.259 131.8749
1.507766 90.350 131.5861
1.518692 90.440 131.2957
1.529697 90.530 131.0039
1.540782 90.619 130.7106
1.551947 90.708 130.4160
1.563193 90.796 130.1202
1.574521 90.884 129.8234
1.585931 90.971 129.5256
1.597423 91.057 129.2270
1.608998 91.143 128.9278
1.620658 91.229 128.6280
1.632402 91.314 128.3279
1.644231 91.398 128.0274
1.656146 91.483 127.7268
1.668147 91.566 127.4262
1.680235 91.650 127.1257
1.692410 91.733 126.8254
1.704674 91.816 126.5254
1.717027 91.898 126.2259
1.729469 91.980 125.9269
1.742002 92.062 125.6286
1.754625 92.144 125.3309
1.767340 92.226 125.0341
1.780147 92.307 124.7379
1.793046 92.389 124.4425
1.806040 92.470 124.1475
1.819127 92.550 123.8527
1.832309 92.631 123.5575
1.845587 92.711 123.2615
1.858961 92.790 122.9642
1.872431 92.869 122.6653
1.886000 92.948 122.3645
1.899666 93.025 122.0621
1.913432 93.102 121.7580
1.927298 93.178 121.4526
1.941264 93.254 121.1461
1.955331 93.329 120.8387
1.969500 93.404 120.5309
1.983772 93.477 120.2230
1.998147 93.551 119.9152
2.012626 93.623 119.6080
2.027211 93.696 119.3016
2.041901 93.768 118.9965
2.056697 93.839 118.6930
2.071601 93.910 118.3914
2.086613 93.981 118.0921
2.101733 94.052 117.7954
2.116963 94.122 117.5016
2.132303 94.192 117.2110
2.147755 94.262 116.9236
2.163318 94.332 116.6395
2.178995 94.401 116.3587
2.194785 94.470 116.0806
2.210689 94.539 115.8048
2.226709 94.607 115.5308
2.242844 94.675 115.2580
2.259097 94.742 114.9862
2.275467 94.809 114.7153
2.291956 94.874 114.4453
2.308565 94.940 114.1763
2.325294 95.004 113.9086
2.342144 95.069 113.6422
2.359116 95.132 113.3776
2.376211 95.195 113.1150
2.393430 95.258 112.8546
2.410774 95.321 112.5969
2.428243 95.383 112.3420
2.445839 95.446 112.0903
2.463562 95.508 111.8422
2.481415 95.570 111.5979
2.499396 95.632 111.3577
2.517508 95.694 111.1217
2.535750 95.756 110.8902
2.554126 95.818 110.6630
2.572634 95.880 110.4401
2.591276 95.941 110.2213
2.610054 96.003 110.0061
2.628967 96.064 109.7946
2.648018 96.125 109.5863
2.667206 96.185 109.3813
2.686534 96.245 109.1794
2.706002 96.305 108.9805
2.725610 96.365 108.7845
2.745361 96.425 108.5916
2.765255 96.485 108.4015
2.785294 96.544 108.2144
2.805477 96.604 108.0302
2.825807 96.664 107.8489
2.846284 96.725 107.6707
2.866909 96.785 107.4954
2.887684 96.846 107.3233
2.908609 96.908 107.1545
2.929686 96.969 106.9891
2.950916 97.031 106.8273
2.972299 97.094 106.6692
2.993838 97.156 106.5147
3.015532 97.219 106.3638
3.037384 97.282 106.2161
3.059394 97.345 106.0714
3.081564 97.408 105.9293
3.103894 97.472 105.7895
3.126386 97.536 105.6515
3.149041 97.600 105.5151
3.171861 97.664 105.3798
3.194845 97.729 105.2454
3.217996 97.795 105.1115
3.241315 97.861 104.9781
3.264803 97.928 104.8452
3.288461 97.995 104.7128
3.312291 98.063 104.5813
3.336293 98.131 104.4509
3.360469 98.200 104.3218
3.384820 98.270 104.1939
3.409348 98.339 104.0670
3.434054 98.410 103.9407
3.458938 98.481 103.8145
3.484003 98.552 103.6878
3.509250 98.624 103.5601
3.534679 98.696 103.4308
3.560293 98.769 103.2994
3.586092 98.841 103.1654
3.612079 98.915 103.0285
3.638253 98.988 102.8884
3.664618 99.062 102.7454
3.691173 99.136 102.5994
3.717921 99.211 102.4508
3.744862 99.286 102.2998
3.771999 99.362 102.1463
3.799332 99.438 101.9903
3.826864 99.514 101.8317
3.854595 99.590 101.6702
3.882527 99.666 101.5057
3.910661 99.742 101.3377
3.938999 99.819 101.1662
3.967543 99.895 100.9907
3.996294 99.971 100.8111
4.025252 100.047 100.6274
4.054421 100.123 100.4393
4.083801 100.199 100.2471
4.113394 100.275 100.0509
4.143201 100.350 99.8508
4.173225 100.425 99.6472
4.203466 100.500 99.4402
4.233926 100.575 99.2301
4.264606 100.650 99.0170
4.295509 100.724 98.8013
4.326636 100.797 98.5828
4.357989 100.870 98.3616
4.389569 100.943 98.1376
4.421378 101.014 97.9106
4.453417 101.086 97.6805
4.485688 101.156 97.4475
4.518193 101.226 97.2118
4.550934 101.296 96.9739
4.583912 101.364 96.7342
4.617129 101.433 96.4935
4.650587 101.500 96.2522
4.684287 101.567 96.0108
4.718231 101.633 95.7696
4.752421 101.699 95.5286
4.786859 101.763 95.2878
4.821547 101.827 95.0470
4.856485 101.891 94.8063
4.891677 101.953 94.5657
4.927125 102.015 94.3258
4.962829 102.076 94.0870
4.998791 102.137 93.8498
5.035015 102.197 93.6147
5.071500 102.256 93.3823
5.108251 102.315 93.1527
5.145267 102.374 92.9261
5.182552 102.432 92.7023
5.220107 102.489 92.4813
5.257934 102.546 92.2630
5.296035 102.603 92.0476
5.334412 102.659 91.8351
5.373067 102.715 91.6257
5.412003 102.771 91.4195
5.451221 102.827 91.2169
5.490722 102.883 91.0179
5.530510 102.938 90.8224
5.570587 102.994 90.6305
5.610953 103.050 90.4420
5.651613 103.105 90.2566
5.692567 103.161 90.0740
5.733818 103.217 89.8938
5.775367 103.273 89.7159
5.817218 103.329 89.5401
5.859372 103.385 89.3662
5.901831 103.442 89.1943
5.944598 103.499 89.0241
5.987675 103.556 88.8555
6.031065 103.614 88.6880
6.074768 103.672 88.5212
6.118788 103.730 88.3545
6.163127 103.788 88.1874
6.207788 103.847 88.0198
6.252772 103.906 87.8513
6.298082 103.965 87.6819
6.343721 104.025 87.5115
6.389690 104.085 87.3398
6.435992 104.144 87.1667
6.482630 104.204 86.9918
6.529606 104.264 86.8148
6.576922 104.324 86.6356
6.624581 104.384 86.4540
6.672585 104.444 86.2699
6.720938 104.504 86.0836
6.769640 104.563 85.8950
6.818696 104.623 85.7043
6.868107 104.682 85.5117
6.917876 104.741 85.3172
6.968006 104.799 85.1208
7.018499 104.857 84.9227
7.069358 104.915 84.7231
7.120586 104.972 84.5221
7.172184 105.028 84.3203
7.224157 105.085 84.1180
7.276506 105.140 83.9156
7.329235 105.195 83.7134
7.382345 105.250 83.5115
7.435841 105.304 83.3102
7.489724 105.358 83.1096
7.543997 105.411 82.9102
7.598664 105.464 82.7121
7.653728 105.517 82.5159
7.709189 105.569 82.3216
7.765053 105.621 82.1293
7.821322 105.672 81.9392
7.877998 105.724 81.7511
7.935086 105.775 81.5651
7.992587 105.826 81.3812
8.050504 105.877 81.1993
8.108841 105.928 81.0194
8.167601 105.980 80.8413
8.226787 106.031 80.6647
8.286402 106.082 80.4893
8.346449 106.134 80.3148
8.406931 106.185 80.1409
8.467851 106.237 79.9672
8.529212 106.289 79.7935
8.591018 106.341 79.6194
8.653272 106.394 79.4447
8.715977 106.446 79.2688
8.779137 106.499 79.0915
8.842754 106.551 78.9125
8.906833 106.604 78.7317
8.971375 106.656 78.5488
9.036386 106.709 78.3639
9.101867 106.761 78.1768
9.167823 106.813 77.9875
9.234257 106.865 77.7961
9.301172 106.916 77.6026
9.368572 106.967 77.4073
9.436460 107.017 77.2105
9.504841 107.067 77.0125
9.573717 107.117 76.8135
9.643092 107.166 76.6139
9.712970 107.214 76.4140
9.783354 107.262 76.2143
9.854248 107.309 76.0151
9.925656 107.356 75.8168
9.997581 107.402 75.6197
10.070028 107.448 75.4240
10.143000 107.493 75.2299
10.216500 107.539 75.0376
10.290533 107.583 74.8471
10.365103 107.628 74.6586
10.440212 107.672 74.4719
10.515866 107.717 74.2867
10.592069 107.761 74.1030
10.668823 107.805 73.9204
10.746134 107.850 73.7386
10.824005 107.894 73.5572
10.902440 107.938 73.3759
10.981443 107.982 73.1942
11.061020 108.027 73.0118
11.141172 108.071 72.8283
11.221906 108.115 72.6436
11.303225 108.159 72.4573
11.385133 108.203 72.2693
11.467634 108.246 72.0797
11.550734 108.289 71.8884
11.634435 108.331 71.6959
11.718742 108.373 71.5023
11.803661 108.414 71.3080
11.889195 108.455 71.1136
11.975349 108.494 70.9196
12.062128 108.534 70.7267
12.149535 108.572 70.5355
12.237576 108.610 70.3466
12.326254 108.647 70.1607
12.415575 108.683 69.9783
12.505544 108.719 69.8000
12.596164 108.755 69.6259
12.687441 108.790 69.4564
12.779379 108.826 69.2914
12.871984 108.861 69.1310
12.965260 108.896 68.9748
13.059211 108.932 68.8224
13.153843 108.968 68.6732
13.249161 109.005 68.5265
13.345170 109.042 68.3817
13.441875 109.079 68.2380
13.539280 109.117 68.0943
13.637391 109.155 67.9502
13.736214 109.194 67.8047
13.835752 109.233 67.6574
13.936011 109.272 67.5079
14.036998 109.311 67.3558
14.138716 109.350 67.2010
14.241171 109.388 67.0438
14.344368 109.427 66.8843
14.448313 109.465 66.7230
14.553011 109.503 66.5605
14.658468 109.540 66.3973
14.764689 109.576 66.2343
14.871680 109.612 66.0721
14.979446 109.648 65.9113
15.087994 109.683 65.7526
15.197328 109.718 65.5965
15.307454 109.752 65.4432
15.418378 109.786 65.2929
15.530106 109.821 65.1457
15.642643 109.855 65.0014
15.755996 109.889 64.8597
15.870171 109.924 64.7203
15.985172 109.958 64.5828
16.101007 109.993 64.4468
16.217682 110.028 64.3118
16.335201 110.063 64.1776
16.453573 110.098 64.0439
16.572803 110.134 63.9106
16.692898 110.169 63.7776
16.813862 110.204 63.6451
16.935701 110.239 63.5133
17.058424 110.274 63.3823
17.182035 110.309 63.2524
17.306543 110.344 63.1240
17.431953 110.379 62.9971
17.558273 110.414 62.8719
17.685509 110.449 62.7484
17.813665 110.483 62.6265
17.942751 110.518 62.5060
18.072771 110.554 62.3868
18.203733 110.589 62.2685
18.335646 110.624 62.1510
18.468513 110.659 62.0340
18.602345 110.694 61.9176
18.737144 110.729 61.8017
18.872921 110.764 61.6865
19.009682 110.799 61.5725
19.147434 110.834 61.4598
19.286184 110.868 61.3490
19.425940 110.903 61.2405
19.566708 110.937 61.1343
19.708496 110.971 61.0305
19.851313 111.006 60.9291
19.995163 111.041 60.8295
20.140057 111.076 60.7311
20.285999 111.111 60.6331
20.433001 111.147 60.5345
20.581066 111.182 60.4346
20.730206 111.218 60.3326
20.880424 111.254 60.2281
21.031733 111.290 60.1209
21.184137 111.325 60.0114
21.337646 111.360 59.9000
21.492268 111.394 59.7878
21.648010 111.427 59.6757
21.804880 111.460 59.5649
21.962887 111.492 59.4561
22.122040 111.524 59.3498
22.282345 111.555 59.2463
22.443811 111.587 59.1450
22.606449 111.618 59.0453
22.770266 111.650 58.9462
22.935268 111.682 58.8465
23.101467 111.714 58.7455
23.268869 111.746 58.6427
23.437485 111.777 58.5383
23.607323 111.808 58.4328
23.778391 111.839 58.3275
23.950699 111.869 58.2239
24.124256 111.898 58.1234
24.299070 111.928 58.0269
24.475151 111.958 57.9344
24.652508 111.989 57.8452
24.831150 112.020 57.7571
25.011087 112.053 57.6673
25.192327 112.088 57.5723
25.374882 112.123 57.4689
25.558758 112.159 57.3543
25.743967 112.195 57.2275
25.930519 112.230 57.0889
26.118422 112.263 56.9409
26.307686 112.295 56.7874
26.498322 112.325 56.6334
26.690340 112.353 56.4839
26.883749 112.379 56.3433
27.078560 112.405 56.2143
27.274782 112.432 56.0976
27.472427 112.459 55.9912
27.671503 112.489 55.8916
27.872023 112.521 55.7934
28.073996 112.554 55.6914
28.277431 112.590 55.5807
28.482342 112.626 55.4585
28.688736 112.663 55.3238
28.896626 112.698 55.1778
29.106022 112.733 55.0234
29.316936 112.766 54.8646
29.529379 112.797 54.7055
29.743361 112.828 54.5496
29.958893 112.857 54.3992
30.175987 112.886 54.2557
30.394655 112.915 54.1189
30.614908 112.944 53.9884
30.836756 112.973 53.8627
31.060211 113.003 53.7407
31.285286 113.034 53.6207
31.511992 113.065 53.5013
31.740341 113.097 53.3805
31.970345 113.130 53.2562
32.202015 113.163 53.1265
32.435364 113.197 52.9895
32.670403 113.230 52.8445
32.907146 113.262 52.6921
33.145607 113.292 52.5341
33.385796 113.321 52.3737
33.627724 113.349 52.2144
33.871403 113.375 52.0597
34.116848 113.400 51.9115
34.364071 113.426 51.7702
34.613087 113.451 51.6341
34.863907 113.477 51.5005
35.116547 113.504 51.3659
35.371017 113.531 51.2272
35.627331 113.558 51.0827
35.885502 113.585 50.9319
36.145542 113.612 50.7757
36.407467 113.637 50.6159
36.671291 113.662 50.4542
36.937027 113.686 50.2920
37.204689 113.710 50.1301
37.474289 113.733 49.9684
37.745842 113.757 49.8069
38.019363 113.780 49.6451
38.294868 113.803 49.4826
38.572369 113.826 49.3189
38.851879 113.849 49.1533
39.133415 113.873 48.9847
39.416992 113.897 48.8119
39.702625 113.920 48.6338
39.990326 113.943 48.4504
40.280113 113.966 48.2625
40.571999 113.987 48.0724
40.866001 114.007 47.8828
41.162132 114.027 47.6962
41.460411 114.046 47.5139
41.760849 114.065 47.3356
42.063465 114.084 47.1600
42.368275 114.103 46.9854
42.675293 114.122 46.8111
42.984535 114.140 46.6376
43.296021 114.159 46.4663
43.609760 114.177 46.2977
43.925774 114.195 46.1308
44.244080 114.215 45.9620
44.564690 114.234 45.7866
44.887623 114.253 45.6014
45.212898 114.270 45.4065
45.540531 114.285 45.2063
45.870537 114.298 45.0081
46.202934 114.309 44.8185
46.537739 114.318 44.6400
46.874969 114.329 44.4696
47.214645 114.340 44.3002
47.556782 114.353 44.1234
47.901398 114.365 43.9342
48.248512 114.377 43.7317
48.598141 114.387 43.5186
48.950302 114.395 43.2987
49.305016 114.402 43.0747
49.662300 114.407 42.8480
50.022175 114.411 42.6201
50.384655 114.413 42.3941
50.749763 114.413 42.1746
51.117516 114.412 41.9660
51.487934 114.412 41.7700
51.861038 114.412 41.5845
52.236843 114.414 41.4043
52.615372 114.417 41.2237
52.996643 114.421 41.0391
53.380680 114.424 40.8494
53.767498 114.428 40.6563
54.157120 114.430 40.4622
54.549564 114.431 40.2694
54.944855 114.431 40.0793
55.343006 114.430 39.8920
55.744045 114.429 39.7063
56.147991 114.426 39.5199
56.554863 114.423 39.3301
56.964684 114.418 39.1359
57.377472 114.411 38.9384
57.793251 114.401 38.7405
58.212044 114.390 38.5456
58.633873 114.378 38.3553
59.058758 114.365 38.1682
59.486721 114.352 37.9803
59.917786 114.338 37.7867
60.351974 114.324 37.5846
60.789310 114.308 37.3756
61.229816 114.290 37.1672
61.673512 114.269 36.9702
62.120422 114.247 36.7941
62.570572 114.226 36.6415
63.023983 114.207 36.5061
63.480682 114.192 36.3759
63.940689 114.179 36.2391
64.404030 114.167 36.0887
64.870728 114.156 35.9220
65.340805 114.143 35.7386
65.814293 114.127 35.5405
66.291214 114.107 35.3335
66.771591 114.083 35.1278
67.255447 114.054 34.9340
67.742805 114.023 34.7576
68.233696 113.991 34.5965
68.728142 113.958 34.4451
69.226173 113.924 34.2982
69.727814 113.891 34.1527
70.233093 113.857 34.0046
70.742035 113.822 33.8501
71.254662 113.785 33.6896
71.771004 113.746 33.5316
72.291084 113.703 33.3891
72.814934 113.659 33.2701
73.342583 113.616 33.1722
73.874054 113.574 33.0859
74.409378 113.533 33.0033
74.948578 113.493 32.9231
75.491684 113.452 32.8481
76.038727 113.411 32.7798
76.589737 113.370 32.7160
77.144737 113.328 32.6539
77.703758 113.286 32.5930
78.266830 113.243 32.5354
78.833984 113.198 32.4838
79.405251 113.153 32.4395
79.980652 113.107 32.4019
80.560226 113.061 32.3689
81.143997 113.015 32.3378
81.732002 112.969 32.3071
82.324265 112.921 32.2784
82.920822 112.873 32.2548
83.521698 112.825 32.2384
84.126930 112.777 32.2276
84.736549 112.729 32.2195
85.350586 112.680 32.2125
85.969070 112.630 32.2082
86.592041 112.578 32.2104
87.219521 112.524 32.2224
87.851547 112.468 32.2449
88.488159 112.411 32.2760
89.129379 112.352 32.3127
89.775246 112.291 32.3537
90.425797 112.230 32.3990
91.081062 112.168 32.4478
91.741074 112.107 32.4971
92.405869 112.047 32.5443
93.075478 111.988 32.5897
93.749939 111.930 32.6371
94.429291 111.872 32.6930
95.113564 111.814 32.7642
95.802795 111.756 32.8556
96.497025 111.697 32.9676
97.196281 111.637 33.0962
97.900604 111.575 33.2343
98.610031 111.511 33.3722
99.324600 111.444 33.5001
100.044350 111.374 33.6113
100.769310 111.301 33.7057
101.499527 111.225 33.7914
102.235031 111.148 33.8795
102.975868 111.073 33.9774
103.722076 111.000 34.0917
104.473686 110.929 34.2324
105.230743 110.861 34.4068
105.993286 110.794 34.6130
106.761360 110.726 34.8438
107.534996 110.657 35.0906
108.314240 110.585 35.3395
109.099129 110.508 35.5741
109.889709 110.425 35.7877
110.686012 110.338 35.9911
111.488091 110.247 36.2087
112.295982 110.157 36.4696
113.109726 110.070 36.8003
113.929367 109.989 37.2214
114.754944 109.914 37.7505
115.586502 109.843 38.4001
116.424088 109.777 39.1671
117.267746 109.714 40.0228
118.117516 109.658 40.9072
118.973442 109.609 41.7104
119.835571 109.562 42.2813
120.703949 109.504 42.5221
121.578621 109.422 42.4760
122.459633 109.316 42.2749
123.347023 109.200 42.0305
124.240845 109.088 41.8033
125.141144 108.988 41.6283
126.047966 108.899 41.5406
126.961365 108.819 41.5794
127.881378 108.743 41.7695
128.808060 108.669 42.1009
129.741455 108.592 42.5318
130.681610 108.511 43.0119
131.628586 108.424 43.5014
132.582428 108.332 43.9729
133.543182 108.238 44.4117
134.510895 108.145 44.8219
135.485611 108.054 45.2239
136.467392 107.967 45.6431
137.456284 107.881 46.1004
138.452347 107.794 46.6051
139.455627 107.702 47.1494
140.466187 107.601 47.7112
141.484070 107.492 48.2594
142.509323 107.378 48.7566
143.542007 107.264 49.1647
144.582169 107.159 49.4548
145.629868 107.070 49.6167
146.685165 106.999 49.6689
147.748108 106.939 49.6679
148.818756 106.876 49.7199
149.897156 106.797 49.9811
150.983368 106.697 50.6099
152.077454 106.583 51.6652
153.179474 106.470 53.0385
154.289474 106.365 54.5212
155.407516 106.270 55.9246
156.533661 106.184 57.1419
157.667969 106.109 58.1404
158.810501 106.047 58.9370
159.961304 105.995 59.5914
161.120453 105.948 60.1968
162.287994 105.903 60.8542
163.464005 105.858 61.6359
164.648529 105.816 62.5357
165.841644 105.777 63.4682
167.043396 105.738 64.3505
168.253860 105.693 65.1534
169.473099 105.640 65.8940
170.701172 105.578 66.6112
171.938141 105.509 67.3385
173.184082 105.435 68.0878
174.439041 105.359 68.8523
175.703094 105.282 69.6169
176.976318 105.206 70.3678
178.258759 105.132 71.0967
179.550491 105.059 71.8035
180.851593 104.986 72.5009
182.162125 104.905 73.2207
183.482147 104.814 74.0080
184.811737 104.715 74.8909
186.150955 104.610 75.8517
187.499878 104.506 76.8430
188.858582 104.402 77.8214
190.227127 104.301 78.7609
191.605591 104.200 79.6503
192.994049 104.100 80.4861
194.392563 103.999 81.2740
195.801208 103.897 82.0368
197.220062 103.796 82.8232
198.649200 103.699 83.7007
200.088699 103.613 84.7154
201.538620 103.542 85.8466
202.999054 103.482 87.0298
204.470062 103.427 88.2076
205.951736 103.369 89.3477
207.444153 103.306 90.4390
208.947372 103.237 91.4868
210.461487 103.165 92.5074
211.986572 103.090 93.5212
213.522720 103.014 94.5474
215.069992 102.938 95.6006
216.628479 102.865 96.6856
218.198257 102.796 97.7943
219.779419 102.730 98.9140
221.372025 102.666 100.0377
222.976181 102.602 101.1645
224.591965 102.536 102.2945
226.219452 102.470 103.4265
227.858734 102.402 104.5599
229.509888 102.335 105.6960
231.173004 102.267 106.8373
232.848175 102.201 107.9859
234.535492 102.135 109.1423
236.235031 102.071 110.3048
237.946884 102.005 111.4714
239.671143 101.937 112.6407
241.407898 101.867 113.8131
243.157242 101.795 114.9905
244.919266 101.722 116.1752
246.694046 101.651 117.3696
248.481689 101.580 118.5770
250.282288 101.510 119.8005
252.095932 101.440 121.0408
253.922729 101.371 122.2939
255.762756 101.301 123.5501
257.616119 101.230 124.7949
259.482910 101.159 126.0183
261.363220 101.089 127.2357
263.257172 101.023 128.5033
265.164856 100.966 129.8948
267.086365 100.922 131.4301
269.021790 100.892 133.0456
270.971222 100.868 134.6486
272.934784 100.844 136.1672
274.912567 100.816 137.5685
276.904694 100.784 138.8573
278.911255 100.747 140.0671
280.932373 100.707 141.2417
282.968140 100.665 142.4170
285.018646 100.621 143.6149
287.084015 100.574 144.8418
289.164337 100.525 146.0931
291.259735 100.472 147.3605
293.370331 100.415 148.6400
295.496216 100.355 149.9340
297.637512 100.294 151.2477
299.794312 100.231 152.5852
301.966736 100.168 153.9479
304.154907 100.107 155.3333
306.358948 100.047 156.7364
308.578949 99.987 158.1521
310.815033 99.928 159.5763
313.067322 99.868 161.0077
315.335938 99.808 162.4486
317.621002 99.747 163.9037
319.922607 99.686 165.3765
322.240906 99.625 166.8682
324.575989 99.566 168.3781
326.928009 99.507 169.9052
329.297058 99.449 171.4470
331.683289 99.391 172.9992
334.086792 99.331 174.5577
336.507721 99.272 176.1220
338.946198 99.213 177.6947
341.402344 99.155 179.2793
343.876282 99.098 -179.1216
346.368164 99.043 -177.5064
348.878082 98.988 -175.8751
351.406189 98.935 -174.2307
353.952637 98.883 -172.5776
356.517517 98.830 -170.9189
359.100983 98.778 -169.2546
361.703186 98.725 -167.5828
364.324249 98.673 -165.9008
366.964294 98.621 -164.2067
369.623474 98.570 -162.4994
372.301910 98.519 -160.7791
374.999756 98.469 -159.0449
377.717163 98.420 -157.2948
380.454254 98.372 -155.5279
383.211182 98.326 -153.7457
385.988098 98.280 -151.9513
388.785126 98.235 -150.1472
391.602417 98.191 -148.3336
394.440125 98.148 -146.5095
397.298401 98.105 -144.6749
400.177399 98.065 -142.8320
403.077240 98.026 -140.9845
405.998108 97.988 -139.1339
408.940125 97.951 -137.2790
411.903473 97.915 -135.4179
414.888306 97.881 -133.5506
417.894745 97.847 -131.6768
420.922974 97.815 -129.7935
423.973145 97.783 -127.8966
427.045441 97.752 -125.9828
430.139984 97.721 -124.0522
433.256958 97.690 -122.1077
436.396515 97.660 -120.1533
439.558838 97.631 -118.1926
442.744049 97.602 -116.2266
445.952362 97.574 -114.2545
449.183929 97.547 -112.2753
452.438904 97.521 -110.2893
455.717468 97.495 -108.2971
459.019775 97.470 -106.2991
462.346008 97.445 -104.2957
465.696350 97.421 -102.2866
469.070984 97.396 -100.2712
472.470062 97.372 -98.2479
475.893768 97.350 -96.2148
479.342285 97.329 -94.1711
482.815796 97.309 -92.1172
486.314484 97.289 -90.0553
489.838531 97.270 -87.9873
493.388092 97.251 -85.9139
496.963379 97.232 -83.8344
500.564575 97.213 -81.7473
504.191864 97.194 -79.6519
507.845459 97.177 -77.5473
511.525513 97.160 -75.4330
515.232239 97.144 -73.3080
518.965820 97.128 -71.1722
522.726440 97.112 -69.0263
526.514343 97.096 -66.8718
530.329712 97.080 -64.7112
534.172729 97.064 -62.5460
538.043579 97.048 -60.3766
541.942444 97.032 -58.2015
545.869568 97.016 -56.0193
549.825134 97.001 -53.8273
553.809387 96.986 -51.6237
557.822510 96.972 -49.4072
561.864746 96.959 -47.1774
565.936279 96.948 -44.9337
570.037292 96.937 -42.6752
574.168030 96.927 -40.4022
578.328674 96.916 -38.1157
582.519470 96.905 -35.8173
586.740662 96.894 -33.5080
590.992432 96.884 -31.1873
595.275024 96.873 -28.8568
599.588623 96.863 -26.5193
603.933472 96.853 -24.1771
608.309814 96.844 -21.8278
612.717896 96.835 -19.4664
617.157898 96.826 -17.0896
621.630066 96.817 -14.6969
626.134644 96.809 -12.2899
630.671875 96.801 -9.8704
635.242004 96.793 -7.4380
639.845215 96.785 -4.9910
644.481812 96.777 -2.5282
649.151978 96.770 -0.0503
653.856018 96.764 2.4418
658.594116 96.759 4.9478
663.366577 96.754 7.4681
668.173584 96.751 10.0024
673.015442 96.749 12.5496
677.892395 96.747 15.1080
682.804688 96.746 17.6768
687.752563 96.745 20.2565
692.736328 96.746 22.8490
697.756165 96.747 25.4570
702.812378 96.750 28.0823
707.905273 96.753 30.7253
713.035034 96.758 33.3854
718.201965 96.763 36.0621
723.406372 96.770 38.7540
728.648499 96.777 41.4583
733.928589 96.785 44.1724
739.246948 96.794 46.8948
744.603821 96.805 49.6263
749.999512 96.816 52.3696
755.434326 96.829 55.1270
760.908508 96.842 57.8998
766.422363 96.857 60.6879
771.976196 96.873 63.4907
777.570251 96.890 66.3084
783.204834 96.909 69.1415
788.880249 96.929 71.9891
794.596802 96.951 74.8489
800.354797 96.975 77.7172
806.154480 97.001 80.5919
811.996216 97.027 83.4734
817.880249 97.055 86.3632
823.806946 97.085 89.2626
829.776611 97.116 92.1729
835.789490 97.149 95.0942
841.845947 97.184 98.0267
847.946289 97.221 100.9705
854.090881 97.259 103.9259
860.279968 97.299 106.8924
866.513916 97.340 109.8688
872.793030 97.382 112.8535
879.117676 97.425 115.8450
885.488098 97.470 118.8421
891.904724 97.516 121.8439
898.367859 97.564 124.8502
904.877808 97.612 127.8616
911.434937 97.662 130.8787
918.039551 97.714 133.9014
924.692017 97.767 136.9299
931.392700 97.821 139.9646
938.141968 97.877 143.0050
944.940125 97.934 146.0500
951.787537 97.993 149.0984
958.684570 98.052 152.1501
965.631592 98.113 155.2048
972.628967 98.174 158.2620
979.677063 98.236 161.3218
986.776184 98.298 164.3848
993.926758 98.360 167.4520
1001.129150 98.422 170.5231
1008.383728 98.485 173.5977
1015.690918 98.549 176.6761
1023.051025 98.614 179.7584
1030.464478 98.679 -177.1552
1037.931641 98.744 -174.0640
1045.452881 98.809 -170.9670
1053.028687 98.873 -167.8625
1060.659424 98.938 -164.7489
1068.345459 99.001 -161.6239
1076.087158 99.065 -158.4849
1083.884888 99.129 -155.3301
1091.739136 99.193 -152.1583
1099.650269 99.259 -148.9691
1107.618774 99.326 -145.7632
1115.645020 99.395 -142.5429
1123.729492 99.467 -139.3125
1131.872559 99.542 -136.0775
1140.074585 99.620 -132.8442
1148.336060 99.699 -129.6195
1156.657349 99.781 -126.4095
1165.038940 99.863 -123.2183
1173.481323 99.945 -120.0469
1181.984863 100.026 -116.8922
1190.550049 100.105 -113.7492
1199.177246 100.181 -110.6104
1207.866943 100.255 -107.4682
1216.619629 100.326 -104.3161
1225.435791 100.395 -101.1495
1234.315796 100.461 -97.9659
1243.260132 100.526 -94.7629
1252.269287 100.589 -91.5397
1261.343750 100.651 -88.2967
1270.484009 100.713 -85.0352
1279.690430 100.775 -81.7562
1288.963623 100.837 -78.4600
1298.303955 100.898 -75.1472
1307.712036 100.960 -71.8181
1317.188232 101.021 -68.4730
1326.733154 101.083 -65.1131
1336.347168 101.145 -61.7392
1346.030884 101.207 -58.3520
1355.784790 101.269 -54.9518
1365.609375 101.331 -51.5382
1375.505127 101.393 -48.1104
1385.472656 101.455 -44.6677
1395.512329 101.517 -41.2097
1405.624756 101.580 -37.7374
1415.810547 101.643 -34.2516
1426.070068 101.707 -30.7532
1436.403931 101.771 -27.2415
1446.812744 101.836 -23.7162
1457.296997 101.900 -20.1771
1467.857178 101.965 -16.6238
1478.493896 102.031 -13.0563
1489.207642 102.096 -9.4744
1499.999023 102.161 -5.8777
1510.868652 102.227 -2.2656
1521.817017 102.293 1.3625
1532.844727 102.359 5.0069
1543.952393 102.426 8.6667
1555.140503 102.493 12.3407
1566.409668 102.561 16.0280
1577.760498 102.629 19.7289
1589.193604 102.697 23.4443
1600.709595 102.767 27.1760
1612.308960 102.837 30.9250
1623.992432 102.907 34.6913
1635.760498 102.978 38.4738
1647.613892 103.049 42.2721
1659.553223 103.121 46.0858
1671.578979 103.194 49.9148
1683.691895 103.268 53.7596
1695.892578 103.342 57.6204
1708.181763 103.417 61.4987
1720.559937 103.493 65.3964
1733.027832 103.570 69.3154
1745.586060 103.648 73.2565
1758.235352 103.727 77.2200
1770.976196 103.808 81.2051
1783.809448 103.891 85.2115
1796.735718 103.976 89.2385
1809.755615 104.065 93.2848
1822.869873 104.157 97.3470
1836.079102 104.252 101.4199
1849.384033 104.352 105.4963
1862.785400 104.455 109.5682
1876.283936 104.561 113.6283
1889.880249 104.669 117.6720
1903.575073 104.778 121.6972
1917.369141 104.886 125.7053
1931.263184 104.993 129.7004
1945.257935 105.099 133.6895
1959.354126 105.201 137.6804
1973.552368 105.301 141.6812
1987.853516 105.399 145.7000
2002.258301 105.494 149.7441
2016.767456 105.588 153.8209
2031.381836 105.680 157.9365
2046.102051 105.771 162.0973
2060.928955 105.863 166.3088
2075.863281 105.957 170.5771
2090.905762 106.055 174.9072
2106.057373 106.158 179.3035
2121.318848 106.269 -176.2341
2136.690918 106.391 -171.7114
2152.174316 106.525 -167.1423
2167.769775 106.674 -162.5491
2183.478271 106.839 -157.9608
2199.300537 107.019 -153.4111
2215.237549 107.213 -148.9338
2231.290039 107.417 -144.5569
2247.458984 107.629 -140.2998
2263.745117 107.843 -136.1707
2280.149170 108.056 -132.1665
2296.672119 108.265 -128.2753
2313.314697 108.467 -124.4779
2330.077881 108.660 -120.7512
2346.962646 108.843 -117.0720
2363.969727 109.016 -113.4180
2381.100098 109.181 -109.7710
2398.354492 109.337 -106.1172
2415.733887 109.488 -102.4469
2433.239258 109.634 -98.7554
2450.871582 109.777 -95.0419
2468.631592 109.918 -91.3096
2486.520264 110.058 -87.5648
2504.538574 110.199 -83.8164
2522.687500 110.340 -80.0747
2540.968018 110.481 -76.3506
2559.380859 110.622 -72.6527
2577.927246 110.762 -68.9878
2596.607910 110.900 -65.3599
2615.424072 111.034 -61.7695
2634.376465 111.164 -58.2153
2653.466309 111.288 -54.6938
2672.694336 111.407 -51.1997
2692.061768 111.519 -47.7283
2711.569580 111.624 -44.2743
2731.218750 111.722 -40.8331
2751.010254 111.813 -37.4003
2770.945312 111.896 -33.9725
2791.024658 111.973 -30.5464
2811.249512 112.043 -27.1194
2831.621094 112.105 -23.6893
2852.140137 112.161 -20.2557
2872.807861 112.210 -16.8181
2893.625488 112.253 -13.3772
2914.593994 112.289 -9.9343
2935.714355 112.317 -6.4901
2956.987793 112.338 -3.0438
2978.415283 112.351 0.4067
2999.998047 112.355 3.8656
3021.737305 112.350 7.3378
3043.634033 112.336 10.8287
3065.689453 112.313 14.3439
3087.904785 112.281 17.8890
3110.281006 112.240 21.4697
3132.819336 112.190 25.0911
3155.520996 112.132 28.7579
3178.387207 112.066 32.4742
3201.419189 111.994 36.2435
3224.617920 111.915 40.0685
3247.984863 111.830 43.9512
3271.520996 111.740 47.8920
3295.227783 111.646 51.8904
3319.106445 111.549 55.9452
3343.157959 111.448 60.0555
3367.383789 111.344 64.2213
3391.785156 111.238 68.4424
3416.363525 111.129 72.7195
3441.119873 111.019 77.0519
3466.055664 110.908 81.4382
3491.172119 110.795 85.8761
3516.470703 110.683 90.3625
3541.952393 110.570 94.8940
3567.618896 110.457 99.4683
3593.471436 110.344 104.0828
3619.511230 110.231 108.7365
3645.739746 110.117 113.4290
3672.158203 110.004 118.1606
3698.768066 109.891 122.9321
3725.570801 109.779 127.7424
3752.567871 109.667 132.5887
3779.760498 109.557 137.4669
3807.150146 109.448 142.3713
3834.738281 109.340 147.2961
3862.526367 109.233 152.2358
3890.515869 109.127 157.1859
3918.708252 109.021 162.1426
3947.104736 108.915 167.1033
3975.707031 108.807 172.0669
4004.516602 108.698 177.0331
4033.534912 108.586 -177.9980
4062.763672 108.471 -173.0259
4092.204102 108.352 -168.0490
4121.857910 108.229 -163.0646
4151.726562 108.100 -158.0690
4181.811523 107.966 -153.0569
4212.114746 107.826 -148.0227
4242.637695 107.680 -142.9597
4273.381836 107.528 -137.8604
4304.348633 107.370 -132.7177
4335.539551 107.206 -127.5248
4366.956543 107.037 -122.2764
4398.601074 106.862 -116.9674
4430.475098 106.684 -111.5942
4462.580078 106.502 -106.1541
4494.917969 106.317 -100.6445
4527.490234 106.129 -95.0626
4560.298340 105.940 -89.4052
4593.344238 105.750 -83.6700
4626.629395 105.560 -77.8560
4660.155762 105.370 -71.9634
4693.925293 105.182 -65.9934
4727.939453 104.997 -59.9480
4762.200195 104.815 -53.8307
4796.708984 104.636 -47.6456
4831.467773 104.461 -41.3973
4866.478516 104.291 -35.0908
4901.743164 104.126 -28.7307
4937.263184 103.966 -22.3223
4973.040527 103.811 -15.8694
5009.077148 103.662 -9.3760
5045.375000 103.518 -2.8444
5081.936035 103.380 3.7219
5118.761719 103.247 10.3196
5155.854492 103.119 16.9457
5193.215820 102.996 23.5958
5230.848145 102.878 30.2675
5268.752930 102.764 36.9587
5306.932617 102.654 43.6688
5345.388672 102.549 50.3979
5384.123535 102.446 57.1470
5423.139160 102.348 63.9170
5462.437500 102.252 70.7109
5502.020508 102.160 77.5311
5541.890625 102.072 84.3789
5582.049316 101.988 91.2567
5622.499023 101.908 98.1654
5663.242188 101.832 105.1062
5704.280273 101.761 112.0781
5745.615723 101.695 119.0809
5787.250977 101.635 126.1138
5829.187988 101.580 133.1763
5871.428711 101.530 140.2678
5913.975586 101.487 147.3879
5956.830566 101.449 154.5350
5999.996094 101.418 161.7085
6043.474609 101.394 168.9065
6087.268066 101.378 176.1278
6131.378906 101.368 -176.6272
6175.809570 101.367 -169.3574
6220.562012 101.375 -162.0634
6265.638672 101.391 -154.7462
6311.041992 101.417 -147.4080
6356.774414 101.453 -140.0500
6402.838379 101.499 -132.6744
6449.235840 101.557 -125.2833
6495.969727 101.628 -117.8799
6543.041992 101.711 -110.4675
6590.455566 101.809 -103.0491
6638.212891 101.920 -95.6271
6686.315918 102.046 -88.2036
6734.767578 102.187 -80.7811
6783.570312 102.346 -73.3627
6832.727051 102.523 -65.9521
6882.239746 102.719 -58.5552
6932.111328 102.937 -51.1793
6982.344238 103.179 -43.8347
7032.941406 103.447 -36.5352
7083.904785 103.742 -29.2991
7135.237793 104.068 -22.1500
7186.942871 104.425 -15.1194
7239.022461 104.817 -8.2465
7291.479492 105.243 -1.5804
7344.316406 105.705 4.8185
7397.536133 106.200 10.8788
7451.141602 106.724 16.5201
7505.135742 107.272 21.6564
7559.520996 107.833 26.2042
7614.300293 108.396 30.0905
7669.476562 108.943 33.2620
7725.052734 109.457 35.6941
7781.031738 109.917 37.3979
7837.416504 110.303 38.4254
7894.209473 110.594 38.8718
7951.414062 110.774 38.8733
8009.033203 110.828 38.6010
8067.069824 110.752 38.2493
8125.527344 110.545 38.0205
8184.408203 110.213 38.1067
8243.715820 109.771 38.6758
8303.453125 109.235 39.8600
8363.623047 108.626 41.7496
8424.229492 107.964 44.3923
8485.275391 107.269 47.7953
8546.763672 106.562 51.9294
8608.697266 105.857 56.7389
8671.079102 105.167 62.1487
8733.913086 104.503 68.0742
8797.202148 103.872 74.4292
8860.950195 103.277 81.1335
8925.160156 102.721 88.1162
8989.835938 102.203 95.3176
9054.980469 101.724 102.6895
9120.596680 101.281 110.1938
9186.688477 100.874 117.8013
9253.258789 100.501 125.4883
9320.311523 100.160 133.2373
9387.850586 99.850 141.0359
9455.878906 99.569 148.8745
9524.400391 99.318 156.7456
9593.417969 99.094 164.6436
9662.935547 98.898 172.5625
9732.957031 98.728 -179.5024
9803.486328 98.584 -171.5562
9874.526367 98.466 -163.6035
9946.081055 98.374 -155.6499
10018.154297 98.308 -147.7012
10090.750000 98.269 -139.7629
10163.872070 98.256 -131.8413
10237.523438 98.272 -123.9409
10311.708984 98.315 -116.0676
10386.431641 98.389 -108.2280
10461.696289 98.493 -100.4299
10537.505859 98.629 -92.6819
10613.865234 98.798 -84.9937
10690.777344 99.002 -77.3767
10768.247070 99.243 -69.8445
10846.278320 99.521 -62.4138
10924.875000 99.839 -55.1057
11004.041016 100.198 -47.9458
11083.781250 100.601 -40.9668
11164.098633 101.047 -34.2080
11244.998047 101.539 -27.7190
11326.484375 102.075 -21.5562
11408.560547 102.653 -15.7866
11491.231445 103.271 -10.4829
11574.501953 103.921 -5.7207
11658.375977 104.594 -1.5732
11742.857422 105.277 1.8967
11827.951172 105.956 4.6448
11913.661133 106.612 6.6521
11999.992188 107.227 7.9333
12086.949219 107.784 8.5386
12174.536133 108.265 8.5569
12262.757812 108.656 8.1135
12351.619141 108.950 7.3618
12441.124023 109.144 6.4729
12531.277344 109.243 5.6182
12622.083984 109.258 4.9526
12713.548828 109.210 4.5972
12805.676758 109.120 4.6240
12898.471680 109.014 5.0471
12991.939453 108.917 5.8186
13086.083984 108.852 6.8323
13180.911133 108.834 7.9355
13276.425781 108.871 8.9453
13372.631836 108.962 9.6689
13469.535156 109.096 9.9260
13567.140625 109.252 9.5728
13665.454102 109.401 8.5234
13764.479492 109.511 6.7639
13864.222656 109.548 4.3582
13964.688477 109.482 1.4404
14065.882812 109.291 -1.7961
14167.809570 108.962 -5.1206
14270.475586 108.491 -8.2881
14373.885742 107.885 -11.0615
14478.044922 107.161 -13.2241
14582.958984 106.341 -14.5825
14688.632812 105.453 -14.9578
14795.072266 104.537 -14.1804
14902.283203 103.644 -12.1045
15010.271484 102.853 -8.6772
15119.041992 102.261 -4.0864
15228.600586 101.973 1.0635
15338.953125 102.046 5.7617
15450.105469 102.444 8.9297
15562.063477 103.051 9.8484
15674.833008 103.725 8.3062
15788.418945 104.337 4.4688
15902.828125 104.794 -1.2993
16018.066406 105.033 -8.5488
16134.139648 105.016 -16.8020
16251.054688 104.727 -25.5889
16368.816406 104.167 -34.4724
16487.431641 103.348 -43.0757
16606.906250 102.295 -51.0969
16727.246094 101.036 -58.3118
16848.458984 99.601 -64.5681
16970.550781 98.022 -69.7744
17093.527344 96.326 -73.8906
17217.394531 94.542 -76.9175
17342.158203 92.695 -78.8916
17467.826172 90.810 -79.8772
17594.404297 88.909 -79.9600
17721.900391 87.014 -79.2412
17850.320312 85.144 -77.8333
17979.671875 83.316 -75.8547
18109.960938 81.541 -73.4360
18241.193359 79.823 -70.7063
18373.376953 78.161 -67.7610
18506.517578 76.552 -64.6475
18640.623047 74.995 -61.3828
18775.701172 73.491 -57.9780
18911.757812 72.037 -54.4512
19048.800781 70.629 -50.8184
19186.835938 69.264 -47.0752
19325.871094 67.942 -43.2031
19465.914062 66.672 -39.2000
19606.972656 65.484 -35.1455
19749.052734 64.433 -31.2957
19892.162109 63.617 -28.1375
20036.308594 63.161 -26.3113
