* Measurement data measured by REW V5.30.4
* Source: EXCL: Microphone (Realtek(R) Audio), MICROPHONE (Master Volume), L, volume: 1.000
* Format: 256k Log Swept Sine, 1 sweep at -15.0 dBFS with no timing reference
* Dated: Jan 14, 2024 12:45:04 AM
* REW Settings:
*  C-weighting compensation: Off
*  Target level: 75.0 dB
* Note: ROSE TECHNICS Ceramics Rock Hifi
* Measurement: ROSE TECHNICS Ceramics H
* Smoothing: 1/12 octave
* Frequency Step: 96 ppo
* Start Frequency: 0.36621094 Hz
*
* Freq(Hz) SPL(dB) Phase(degrees)
0.366211 71.757 -172.7555
0.368865 71.785 -172.8334
0.371538 71.827 -172.9485
0.374230 71.878 -173.0903
0.376942 71.936 -173.2499
0.379673 71.997 -173.4207
0.382424 72.062 -173.5984
0.385196 72.127 -173.7802
0.387987 72.194 -173.9648
0.390798 72.262 -174.1512
0.393630 72.331 -174.3389
0.396483 72.400 -174.5276
0.399356 72.469 -174.7172
0.402250 72.540 -174.9077
0.405165 72.610 -175.0989
0.408101 72.681 -175.2908
0.411058 72.753 -175.4834
0.414037 72.825 -175.6766
0.417037 72.898 -175.8704
0.420059 72.971 -176.0648
0.423103 73.045 -176.2597
0.426169 73.119 -176.4552
0.429257 73.194 -176.6512
0.432367 73.269 -176.8477
0.435501 73.345 -177.0446
0.438656 73.422 -177.2421
0.441835 73.499 -177.4399
0.445037 73.576 -177.6382
0.448262 73.655 -177.8369
0.451510 73.733 -178.0360
0.454782 73.813 -178.2355
0.458077 73.893 -178.4354
0.461397 73.973 -178.6357
0.464740 74.054 -178.8364
0.468108 74.136 -179.0374
0.471500 74.218 -179.2388
0.474917 74.301 -179.4407
0.478358 74.384 -179.6429
0.481825 74.468 -179.8455
0.485316 74.553 179.9515
0.488833 74.638 179.7480
0.492375 74.724 179.5441
0.495943 74.810 179.3398
0.499537 74.897 179.1350
0.503157 74.985 178.9297
0.506803 75.074 178.7239
0.510475 75.163 178.5175
0.514174 75.252 178.3106
0.517900 75.343 178.1031
0.521653 75.434 177.8950
0.525433 75.525 177.6862
0.529241 75.617 177.4767
0.533076 75.710 177.2665
0.536939 75.804 177.0556
0.540830 75.898 176.8438
0.544749 75.993 176.6312
0.548696 76.089 176.4177
0.552673 76.186 176.2032
0.556677 76.283 175.9877
0.560711 76.380 175.7712
0.564774 76.479 175.5536
0.568867 76.578 175.3349
0.572989 76.678 175.1149
0.577141 76.779 174.8937
0.581324 76.880 174.6711
0.585536 76.982 174.4471
0.589779 77.085 174.2217
0.594053 77.189 173.9948
0.598358 77.293 173.7661
0.602694 77.398 173.5359
0.607061 77.504 173.3039
0.611460 77.611 173.0700
0.615891 77.718 172.8342
0.620354 77.826 172.5965
0.624849 77.935 172.3566
0.629377 78.045 172.1146
0.633938 78.156 171.8704
0.638532 78.267 171.6237
0.643159 78.379 171.3746
0.647819 78.492 171.1230
0.652514 78.606 170.8688
0.657242 78.721 170.6118
0.662005 78.836 170.3519
0.666802 78.953 170.0891
0.671634 79.070 169.8232
0.676501 79.188 169.5542
0.681403 79.307 169.2818
0.686341 79.426 169.0060
0.691314 79.547 168.7267
0.696324 79.668 168.4438
0.701369 79.790 168.1571
0.706452 79.912 167.8666
0.711571 80.034 167.5723
0.716727 80.156 167.2740
0.721921 80.277 166.9720
0.727153 80.396 166.6665
0.732422 80.512 166.3578
0.737729 80.624 166.0465
0.743075 80.734 165.7330
0.748460 80.842 165.4178
0.753883 80.948 165.1014
0.759346 81.052 164.7840
0.764849 81.157 164.4659
0.770391 81.260 164.1471
0.775974 81.363 163.8280
0.781597 81.466 163.5085
0.787261 81.569 163.1888
0.792965 81.671 162.8690
0.798712 81.773 162.5490
0.804499 81.875 162.2291
0.810329 81.977 161.9092
0.816201 82.078 161.5894
0.822116 82.180 161.2697
0.828073 82.281 160.9501
0.834073 82.382 160.6308
0.840118 82.482 160.3116
0.846205 82.583 159.9927
0.852337 82.683 159.6740
0.858514 82.783 159.3556
0.864735 82.883 159.0373
0.871001 82.982 158.7192
0.877313 83.082 158.4014
0.883670 83.181 158.0837
0.890074 83.280 157.7661
0.896523 83.379 157.4486
0.903020 83.478 157.1311
0.909564 83.577 156.8137
0.916155 83.676 156.4961
0.922793 83.774 156.1784
0.929480 83.873 155.8605
0.936216 83.971 155.5424
0.943000 84.069 155.2238
0.949833 84.167 154.9048
0.956716 84.265 154.5853
0.963649 84.363 154.2651
0.970632 84.461 153.9442
0.977666 84.559 153.6224
0.984750 84.657 153.2997
0.991886 84.755 152.9759
0.999074 84.854 152.6508
1.006313 84.952 152.3243
1.013605 85.050 151.9964
1.020950 85.149 151.6667
1.028349 85.247 151.3353
1.035801 85.346 151.0019
1.043306 85.445 150.6663
1.050867 85.544 150.3284
1.058482 85.643 149.9879
1.066152 85.743 149.6447
1.073878 85.843 149.2985
1.081659 85.943 148.9491
1.089498 86.043 148.5962
1.097393 86.144 148.2396
1.105345 86.244 147.8789
1.113355 86.344 147.5142
1.121422 86.444 147.1453
1.129549 86.544 146.7722
1.137734 86.643 146.3953
1.145978 86.741 146.0145
1.154283 86.840 145.6302
1.162647 86.937 145.2426
1.171072 87.035 144.8520
1.179558 87.132 144.4586
1.188106 87.228 144.0627
1.196715 87.324 143.6644
1.205387 87.420 143.2642
1.214122 87.515 142.8621
1.222920 87.610 142.4586
1.231781 87.704 142.0536
1.240708 87.798 141.6476
1.249698 87.892 141.2407
1.258754 87.985 140.8332
1.267875 88.078 140.4252
1.277063 88.170 140.0169
1.286317 88.262 139.6086
1.295638 88.354 139.2004
1.305027 88.446 138.7925
1.314484 88.537 138.3851
1.324009 88.628 137.9784
1.333603 88.719 137.5725
1.343267 88.810 137.1676
1.353001 88.900 136.7638
1.362805 88.991 136.3612
1.372681 89.081 135.9601
1.382628 89.171 135.5604
1.392647 89.261 135.1624
1.402739 89.351 134.7661
1.412904 89.440 134.3715
1.423142 89.530 133.9786
1.433455 89.620 133.5873
1.443842 89.710 133.1973
1.454305 89.799 132.8082
1.464843 89.889 132.4196
1.475458 89.978 132.0305
1.486150 90.067 131.6406
1.496919 90.155 131.2491
1.507766 90.243 130.8559
1.518692 90.330 130.4608
1.529697 90.416 130.0639
1.540782 90.502 129.6651
1.551947 90.587 129.2647
1.563193 90.671 128.8629
1.574521 90.755 128.4597
1.585931 90.839 128.0555
1.597423 90.922 127.6503
1.608998 91.004 127.2444
1.620658 91.085 126.8380
1.632402 91.167 126.4313
1.644231 91.247 126.0245
1.656146 91.327 125.6178
1.668147 91.407 125.2112
1.680235 91.486 124.8052
1.692410 91.565 124.3997
1.704674 91.644 123.9950
1.717027 91.722 123.5913
1.729469 91.800 123.1887
1.742002 91.877 122.7874
1.754625 91.954 122.3875
1.767340 92.032 121.9890
1.780147 92.108 121.5919
1.793046 92.185 121.1962
1.806040 92.261 120.8016
1.819127 92.338 120.4077
1.832309 92.413 120.0137
1.845587 92.488 119.6189
1.858961 92.563 119.2226
1.872431 92.637 118.8243
1.886000 92.710 118.4239
1.899666 92.783 118.0212
1.913432 92.855 117.6164
1.927298 92.926 117.2098
1.941264 92.996 116.8016
1.955331 93.066 116.3924
1.969500 93.135 115.9825
1.983772 93.203 115.5723
1.998147 93.271 115.1622
2.012626 93.338 114.7528
2.027211 93.405 114.3444
2.041901 93.471 113.9375
2.056697 93.537 113.5326
2.071601 93.602 113.1302
2.086613 93.667 112.7306
2.101733 93.732 112.3344
2.116963 93.796 111.9420
2.132303 93.861 111.5536
2.147755 93.925 111.1696
2.163318 93.989 110.7900
2.178995 94.052 110.4146
2.194785 94.115 110.0430
2.210689 94.178 109.6745
2.226709 94.241 109.3083
2.242844 94.302 108.9441
2.259097 94.364 108.5812
2.275467 94.424 108.2194
2.291956 94.484 107.8588
2.308565 94.543 107.4994
2.325294 94.601 107.1414
2.342144 94.659 106.7850
2.359116 94.717 106.4306
2.376211 94.774 106.0784
2.393430 94.831 105.7286
2.410774 94.887 105.3817
2.428243 94.943 105.0381
2.445839 95.000 104.6980
2.463562 95.056 104.3618
2.481415 95.112 104.0299
2.499396 95.168 103.7026
2.517508 95.224 103.3802
2.535750 95.280 103.0628
2.554126 95.336 102.7505
2.572634 95.392 102.4432
2.591276 95.448 102.1407
2.610054 95.504 101.8427
2.628967 95.560 101.5490
2.648018 95.615 101.2592
2.667206 95.670 100.9731
2.686534 95.725 100.6905
2.706002 95.780 100.4112
2.725610 95.834 100.1351
2.745361 95.889 99.8620
2.765255 95.943 99.5918
2.785294 95.998 99.3244
2.805477 96.053 99.0596
2.825807 96.108 98.7974
2.846284 96.164 98.5378
2.866909 96.219 98.2808
2.887684 96.276 98.0264
2.908609 96.332 97.7748
2.929686 96.390 97.5263
2.950916 96.447 97.2811
2.972299 96.505 97.0394
2.993838 96.564 96.8011
3.015532 96.622 96.5662
3.037384 96.681 96.3344
3.059394 96.740 96.1054
3.081564 96.800 95.8786
3.103894 96.860 95.6537
3.126386 96.920 95.4300
3.149041 96.980 95.2072
3.171861 97.041 94.9848
3.194845 97.103 94.7622
3.217996 97.164 94.5393
3.241315 97.227 94.3156
3.264803 97.290 94.0912
3.288461 97.353 93.8662
3.312291 97.417 93.6409
3.336293 97.481 93.4155
3.360469 97.546 93.1903
3.384820 97.612 92.9654
3.409348 97.678 92.7404
3.434054 97.744 92.5153
3.458938 97.811 92.2893
3.484003 97.879 92.0622
3.509250 97.946 91.8333
3.534679 98.014 91.6021
3.560293 98.082 91.3680
3.586092 98.150 91.1306
3.612079 98.218 90.8894
3.638253 98.286 90.6443
3.664618 98.355 90.3950
3.691173 98.423 90.1418
3.717921 98.492 89.8848
3.744862 98.561 89.6242
3.771999 98.630 89.3602
3.799332 98.699 89.0930
3.826864 98.768 88.8227
3.854595 98.837 88.5494
3.882527 98.906 88.2730
3.910661 98.974 87.9937
3.938999 99.043 87.7114
3.967543 99.111 87.4258
3.996294 99.178 87.1369
4.025252 99.245 86.8444
4.054421 99.311 86.5481
4.083801 99.377 86.2479
4.113394 99.443 85.9440
4.143201 99.508 85.6366
4.173225 99.572 85.3261
4.203466 99.636 85.0131
4.233926 99.700 84.6981
4.264606 99.762 84.3817
4.295509 99.824 84.0644
4.326636 99.886 83.7465
4.357989 99.946 83.4281
4.389569 100.006 83.1091
4.421378 100.065 82.7893
4.453417 100.123 82.4684
4.485688 100.180 82.1465
4.518193 100.236 81.8238
4.550934 100.292 81.5007
4.583912 100.347 81.1780
4.617129 100.401 80.8564
4.650587 100.454 80.5365
4.684287 100.507 80.2192
4.718231 100.559 79.9047
4.752421 100.610 79.5934
4.786859 100.661 79.2851
4.821547 100.711 78.9797
4.856485 100.760 78.6771
4.891677 100.808 78.3772
4.927125 100.856 78.0802
4.962829 100.903 77.7864
4.998791 100.950 77.4962
5.035015 100.997 77.2098
5.071500 101.044 76.9278
5.108251 101.090 76.6503
5.145267 101.136 76.3774
5.182552 101.182 76.1092
5.220107 101.228 75.8455
5.257934 101.274 75.5859
5.296035 101.319 75.3301
5.334412 101.365 75.0777
5.373067 101.411 74.8285
5.412003 101.456 74.5821
5.451221 101.503 74.3383
5.490722 101.549 74.0973
5.530510 101.596 73.8589
5.570587 101.644 73.6230
5.610953 101.691 73.3893
5.651613 101.739 73.1572
5.692567 101.788 72.9261
5.733818 101.836 72.6953
5.775367 101.885 72.4639
5.817218 101.935 72.2314
5.859372 101.985 71.9975
5.901831 102.035 71.7620
5.944598 102.086 71.5248
5.987675 102.137 71.2857
6.031065 102.188 71.0443
6.074768 102.239 70.8000
6.118788 102.291 70.5524
6.163127 102.342 70.3008
6.207788 102.394 70.0448
6.252772 102.445 69.7842
6.298082 102.496 69.5190
6.343721 102.547 69.2491
6.389690 102.598 68.9748
6.435992 102.649 68.6960
6.482630 102.698 68.4131
6.529606 102.748 68.1259
6.576922 102.796 67.8345
6.624581 102.844 67.5388
6.672585 102.891 67.2390
6.720938 102.937 66.9354
6.769640 102.982 66.6285
6.818696 103.026 66.3189
6.868107 103.069 66.0073
6.917876 103.111 65.6942
6.968006 103.152 65.3799
7.018499 103.192 65.0647
7.069358 103.230 64.7489
7.120586 103.268 64.4329
7.172184 103.304 64.1174
7.224157 103.339 63.8032
7.276506 103.373 63.4910
7.329235 103.406 63.1813
7.382345 103.438 62.8743
7.435841 103.469 62.5703
7.489724 103.499 62.2696
7.543997 103.528 61.9724
7.598664 103.556 61.6791
7.653728 103.584 61.3901
7.709189 103.611 61.1057
7.765053 103.637 60.8258
7.821322 103.663 60.5504
7.877998 103.688 60.2795
7.935086 103.713 60.0128
7.992587 103.738 59.7502
8.050504 103.762 59.4915
8.108841 103.786 59.2367
8.167601 103.811 58.9854
8.226787 103.835 58.7373
8.286402 103.859 58.4921
8.346449 103.882 58.2491
8.406931 103.906 58.0081
8.467851 103.930 57.7686
8.529212 103.954 57.5305
8.591018 103.978 57.2933
8.653272 104.002 57.0568
8.715977 104.025 56.8206
8.779137 104.049 56.5844
8.842754 104.072 56.3480
8.906833 104.095 56.1111
8.971375 104.118 55.8739
9.036386 104.141 55.6362
9.101867 104.163 55.3979
9.167823 104.185 55.1593
9.234257 104.206 54.9200
9.301172 104.228 54.6805
9.368572 104.248 54.4407
9.436460 104.268 54.2009
9.504841 104.288 53.9613
9.573717 104.307 53.7220
9.643092 104.326 53.4832
9.712970 104.344 53.2450
9.783354 104.362 53.0076
9.854248 104.379 52.7711
9.925656 104.395 52.5358
9.997581 104.412 52.3017
10.070028 104.428 52.0687
10.143000 104.443 51.8370
10.216500 104.458 51.6065
10.290533 104.473 51.3773
10.365103 104.487 51.1494
10.440212 104.501 50.9225
10.515866 104.515 50.6969
10.592069 104.528 50.4723
10.668823 104.541 50.2486
10.746134 104.553 50.0259
10.824005 104.566 49.8043
10.902440 104.577 49.5836
10.981443 104.589 49.3639
11.061020 104.600 49.1454
11.141172 104.610 48.9280
11.221906 104.620 48.7121
11.303225 104.629 48.4977
11.385133 104.638 48.2851
11.467634 104.647 48.0745
11.550734 104.654 47.8662
11.634435 104.662 47.6604
11.718742 104.668 47.4576
11.803661 104.675 47.2579
11.889195 104.680 47.0616
11.975349 104.685 46.8691
12.062128 104.690 46.6806
12.149535 104.694 46.4965
12.237576 104.698 46.3169
12.326254 104.702 46.1421
12.415575 104.705 45.9724
12.505544 104.708 45.8079
12.596164 104.710 45.6488
12.687441 104.712 45.4954
12.779379 104.714 45.3477
12.871984 104.716 45.2059
12.965260 104.718 45.0701
13.059211 104.720 44.9403
13.153843 104.722 44.8165
13.249161 104.724 44.6988
13.345170 104.726 44.5870
13.441875 104.728 44.4809
13.539280 104.731 44.3804
13.637391 104.733 44.2852
13.736214 104.736 44.1949
13.835752 104.740 44.1093
13.936011 104.743 44.0278
14.036998 104.747 43.9501
14.138716 104.752 43.8759
14.241171 104.756 43.8047
14.344368 104.761 43.7363
14.448313 104.766 43.6705
14.553011 104.771 43.6073
14.658468 104.776 43.5468
14.764689 104.781 43.4893
14.871680 104.785 43.4350
14.979446 104.790 43.3846
15.087994 104.794 43.3385
15.197328 104.798 43.2975
15.307454 104.802 43.2622
15.418378 104.805 43.2331
15.530106 104.809 43.2105
15.642643 104.813 43.1948
15.755996 104.817 43.1859
15.870171 104.821 43.1834
15.985172 104.826 43.1867
16.101007 104.831 43.1951
16.217682 104.838 43.2073
16.335201 104.844 43.2222
16.453573 104.852 43.2384
16.572803 104.860 43.2548
16.692898 104.869 43.2704
16.813862 104.877 43.2847
16.935701 104.886 43.2972
17.058424 104.894 43.3083
17.182035 104.902 43.3187
17.306543 104.909 43.3298
17.431953 104.915 43.3433
17.558273 104.920 43.3610
17.685509 104.924 43.3852
17.813665 104.927 43.4177
17.942751 104.930 43.4604
18.072771 104.932 43.5146
18.203733 104.935 43.5807
18.335646 104.938 43.6587
18.468513 104.943 43.7477
18.602345 104.948 43.8459
18.737144 104.956 43.9511
18.872921 104.965 44.0608
19.009682 104.977 44.1720
19.147434 104.990 44.2821
19.286184 105.005 44.3889
19.425940 105.021 44.4909
19.566708 105.038 44.5872
19.708496 105.055 44.6776
19.851313 105.073 44.7630
19.995163 105.091 44.8443
20.140057 105.109 44.9230
20.285999 105.127 45.0006
20.433001 105.146 45.0779
20.581066 105.165 45.1555
20.730206 105.185 45.2333
20.880424 105.205 45.3103
21.031733 105.227 45.3850
21.184137 105.250 45.4557
21.337646 105.274 45.5206
21.492268 105.299 45.5780
21.648010 105.324 45.6273
21.804880 105.349 45.6683
21.962887 105.374 45.7022
22.122040 105.398 45.7307
22.282345 105.421 45.7565
22.443811 105.443 45.7822
22.606449 105.465 45.8106
22.770266 105.486 45.8437
22.935268 105.507 45.8825
23.101467 105.529 45.9270
23.268869 105.552 45.9760
23.437485 105.577 46.0273
23.607323 105.602 46.0782
23.778391 105.629 46.1258
23.950699 105.657 46.1677
24.124256 105.685 46.2023
24.299070 105.714 46.2292
24.475151 105.742 46.2491
24.652508 105.770 46.2636
24.831150 105.796 46.2753
25.011087 105.822 46.2867
25.192327 105.847 46.3002
25.374882 105.871 46.3179
25.558758 105.895 46.3410
25.743967 105.918 46.3702
25.930519 105.942 46.4056
26.118422 105.966 46.4471
26.307686 105.991 46.4946
26.498322 106.017 46.5476
26.690340 106.043 46.6058
26.883749 106.071 46.6682
27.078560 106.101 46.7332
27.274782 106.132 46.7981
27.472427 106.166 46.8589
27.671503 106.202 46.9109
27.872023 106.241 46.9487
28.073996 106.280 46.9673
28.277431 106.321 46.9633
28.482342 106.361 46.9352
28.688736 106.400 46.8840
28.896626 106.436 46.8135
29.106022 106.469 46.7295
29.316936 106.499 46.6388
29.529379 106.526 46.5480
29.743361 106.550 46.4626
29.958893 106.572 46.3860
30.175987 106.593 46.3188
30.394655 106.613 46.2601
30.614908 106.634 46.2074
30.836756 106.655 46.1580
31.060211 106.676 46.1102
31.285286 106.696 46.0635
31.511992 106.716 46.0189
31.740341 106.735 45.9782
31.970345 106.754 45.9432
32.202015 106.774 45.9146
32.435364 106.794 45.8914
32.670403 106.816 45.8709
32.907146 106.838 45.8488
33.145607 106.863 45.8208
33.385796 106.888 45.7831
33.627724 106.912 45.7341
33.871403 106.937 45.6741
34.116848 106.960 45.6058
34.364071 106.981 45.5331
34.613087 107.001 45.4601
34.863907 107.019 45.3900
35.116547 107.037 45.3243
35.371017 107.054 45.2625
35.627331 107.072 45.2024
35.885502 107.089 45.1413
36.145542 107.107 45.0765
36.407467 107.125 45.0063
36.671291 107.141 44.9306
36.937027 107.157 44.8509
37.204689 107.171 44.7693
37.474289 107.184 44.6885
37.745842 107.196 44.6099
38.019363 107.207 44.5340
38.294868 107.218 44.4602
38.572369 107.229 44.3871
38.851879 107.239 44.3134
39.133415 107.249 44.2384
39.416992 107.258 44.1625
39.702625 107.266 44.0869
39.990326 107.273 44.0129
40.280113 107.280 43.9415
40.571999 107.286 43.8727
40.866001 107.292 43.8058
41.162132 107.298 43.7395
41.460411 107.304 43.6727
41.760849 107.309 43.6046
42.063465 107.313 43.5350
42.368275 107.316 43.4644
42.675293 107.318 43.3940
42.984535 107.319 43.3259
43.296021 107.317 43.2643
43.609760 107.313 43.2142
43.925774 107.308 43.1812
44.244080 107.302 43.1691
44.564690 107.298 43.1772
44.887623 107.296 43.1996
45.212898 107.296 43.2267
45.540531 107.299 43.2480
45.870537 107.302 43.2576
46.202934 107.305 43.2558
46.537739 107.307 43.2497
46.874969 107.306 43.2487
47.214645 107.305 43.2591
47.556782 107.306 43.2797
47.901398 107.309 43.3025
48.248512 107.314 43.3157
48.598141 107.320 43.3103
48.950302 107.326 43.2838
49.305016 107.330 43.2403
49.662300 107.332 43.1872
50.022175 107.332 43.1307
50.384655 107.330 43.0726
50.749763 107.328 43.0108
51.117516 107.325 42.9425
51.487934 107.320 42.8680
51.861038 107.313 42.7927
52.236843 107.302 42.7264
52.615372 107.290 42.6797
52.996643 107.277 42.6588
53.380680 107.266 42.6620
53.767498 107.258 42.6785
54.157120 107.254 42.6921
54.549564 107.252 42.6885
54.944855 107.249 42.6628
55.343006 107.242 42.6227
55.744045 107.230 42.5861
56.147991 107.213 42.5729
56.554863 107.192 42.5973
56.964684 107.171 42.6636
57.377472 107.151 42.7684
57.793251 107.135 42.9029
58.212044 107.123 43.0544
58.633873 107.116 43.2055
59.058758 107.114 43.3343
59.486721 107.114 43.4216
59.917786 107.113 43.4601
60.351974 107.107 43.4613
60.789310 107.093 43.4512
61.229816 107.074 43.4573
61.673512 107.053 43.4937
62.120422 107.034 43.5550
62.570572 107.019 43.6218
63.023983 107.006 43.6763
63.480682 106.993 43.7146
63.940689 106.977 43.7504
64.404030 106.958 43.8059
64.870728 106.938 43.8986
65.340805 106.920 44.0294
65.814293 106.906 44.1835
66.291214 106.896 44.3401
66.771591 106.888 44.4852
67.255447 106.878 44.6165
67.742805 106.865 44.7375
68.233696 106.849 44.8499
68.728142 106.829 44.9516
69.226173 106.805 45.0423
69.727814 106.775 45.1248
70.233093 106.740 45.2013
70.742035 106.700 45.2707
71.254662 106.655 45.3369
71.771004 106.605 45.4209
72.291084 106.551 45.5566
72.814934 106.502 45.7635
73.342583 106.465 46.0194
73.874054 106.447 46.2654
74.409378 106.442 46.4445
74.948578 106.444 46.5386
75.491684 106.445 46.5694
76.038727 106.443 46.5728
76.589737 106.437 46.5779
77.144737 106.428 46.6031
77.703758 106.417 46.6592
78.266830 106.404 46.7493
78.833984 106.390 46.8684
79.405251 106.373 47.0087
79.980652 106.354 47.1653
80.560226 106.332 47.3367
81.143997 106.306 47.5220
81.732002 106.278 47.7183
82.324265 106.247 47.9206
82.920822 106.215 48.1217
83.521698 106.182 48.3140
84.126930 106.149 48.4918
84.736549 106.115 48.6541
85.350586 106.079 48.8044
85.969070 106.043 48.9499
86.592041 106.005 49.1016
87.219521 105.967 49.2704
87.851547 105.930 49.4618
88.488159 105.895 49.6736
89.129379 105.862 49.8994
89.775246 105.830 50.1315
90.425797 105.798 50.3625
91.081062 105.765 50.5861
91.741074 105.730 50.8002
92.405869 105.692 51.0078
93.075478 105.651 51.2142
93.749939 105.609 51.4254
94.429291 105.568 51.6454
95.113564 105.529 51.8756
95.802795 105.494 52.1157
96.497025 105.462 52.3679
97.196281 105.432 52.6392
97.900604 105.402 52.9407
98.610031 105.371 53.2848
99.324600 105.337 53.6798
100.044350 105.300 54.1247
100.769310 105.261 54.6076
101.499527 105.219 55.1016
102.235031 105.177 55.5661
102.975868 105.134 55.9624
103.722076 105.088 56.2718
104.473686 105.041 56.4932
105.230743 104.991 56.6357
105.993286 104.938 56.7259
106.761360 104.882 56.8106
107.534996 104.823 56.9410
108.314240 104.763 57.1516
109.099129 104.702 57.4502
109.889709 104.641 57.8185
110.686012 104.578 58.2208
111.488091 104.516 58.6142
112.295982 104.457 58.9573
113.109726 104.407 59.2179
113.929367 104.377 59.3819
114.754944 104.376 59.4548
115.586502 104.415 59.4482
116.424088 104.494 59.3680
117.267746 104.604 59.2120
118.117516 104.718 58.9761
118.973442 104.794 58.7024
119.835571 104.793 58.5650
120.703949 104.703 58.8334
121.578621 104.545 59.6585
122.459633 104.357 60.9284
123.347023 104.168 62.3629
124.240845 103.994 63.6795
125.141144 103.842 64.6833
126.047966 103.714 65.3030
126.961365 103.609 65.5870
127.881378 103.528 65.6631
128.808060 103.472 65.6820
129.741455 103.434 65.7636
130.681610 103.404 65.9733
131.628586 103.364 66.3428
132.582428 103.297 66.9118
133.543182 103.197 67.7369
134.510895 103.075 68.8422
135.485611 102.952 70.1429
136.467392 102.848 71.4442
137.456284 102.766 72.5640
138.452347 102.697 73.4616
139.455627 102.637 74.2134
140.466187 102.582 74.8961
141.484070 102.530 75.5450
142.509323 102.472 76.1802
143.542007 102.399 76.8252
144.582169 102.306 77.4977
145.629868 102.192 78.1926
146.685165 102.060 78.8851
147.748108 101.913 79.5631
148.818756 101.755 80.2581
149.897156 101.598 81.0388
150.983368 101.459 81.9619
152.077454 101.353 83.0233
153.179474 101.282 84.1851
154.289474 101.237 85.4440
155.407516 101.201 86.8299
156.533661 101.164 88.3582
157.667969 101.117 89.9913
158.810501 101.061 91.6324
159.961304 101.000 93.1651
161.120453 100.948 94.5104
162.287994 100.924 95.6397
163.464005 100.950 96.5410
164.648529 101.032 97.1763
165.841644 101.155 97.5592
167.043396 101.290 97.8242
168.253860 101.410 98.1287
169.473099 101.497 98.5518
170.701172 101.540 99.0877
171.938141 101.537 99.6989
173.184082 101.496 100.3567
174.439041 101.432 101.0471
175.703094 101.364 101.7643
176.976318 101.302 102.5025
178.258759 101.253 103.2574
179.550491 101.212 104.0362
180.851593 101.174 104.8503
182.162125 101.136 105.7009
183.482147 101.095 106.5823
184.811737 101.052 107.4903
186.150955 101.006 108.4217
187.499878 100.961 109.3727
188.858582 100.917 110.3383
190.227127 100.875 111.3100
191.605591 100.837 112.2769
192.994049 100.802 113.2320
194.392563 100.769 114.1785
195.801208 100.738 115.1266
197.220062 100.707 116.0840
198.649200 100.674 117.0520
200.088699 100.639 118.0296
201.538620 100.601 119.0172
202.999054 100.561 120.0172
204.470062 100.521 121.0338
205.951736 100.482 122.0719
207.444153 100.446 123.1306
208.947372 100.412 124.2013
210.461487 100.380 125.2750
211.986572 100.347 126.3481
213.522720 100.314 127.4204
215.069992 100.280 128.4901
216.628479 100.247 129.5545
218.198257 100.215 130.6136
219.779419 100.185 131.6725
221.372025 100.155 132.7396
222.976181 100.126 133.8221
224.591965 100.097 134.9219
226.219452 100.068 136.0390
227.858734 100.039 137.1750
229.509888 100.008 138.3338
231.173004 99.975 139.5159
232.848175 99.941 140.7124
234.535492 99.908 141.9052
236.235031 99.878 143.0727
237.946884 99.850 144.2016
239.671143 99.825 145.2982
241.407898 99.799 146.3847
243.157242 99.770 147.4795
244.919266 99.738 148.5889
246.694046 99.702 149.7135
248.481689 99.663 150.8580
250.282288 99.625 152.0311
252.095932 99.590 153.2382
253.922729 99.558 154.4706
255.762756 99.531 155.7066
257.616119 99.509 156.9270
259.482910 99.493 158.1318
261.363220 99.484 159.3493
263.257172 99.479 160.6329
265.164856 99.479 162.0308
267.086365 99.483 163.5363
269.021790 99.493 165.0844
270.971222 99.506 166.6010
272.934784 99.520 168.0376
274.912567 99.532 169.3763
276.904694 99.537 170.6244
278.911255 99.535 171.8098
280.932373 99.526 172.9659
282.968140 99.511 174.1158
285.018646 99.492 175.2716
287.084015 99.470 176.4401
289.164337 99.446 177.6266
291.259735 99.419 178.8352
293.370331 99.391 -179.9328
295.496216 99.363 -178.6797
297.637512 99.336 -177.4112
299.794312 99.310 -176.1320
301.966736 99.285 -174.8420
304.154907 99.261 -173.5370
306.358948 99.239 -172.2137
308.578949 99.217 -170.8727
310.815033 99.195 -169.5164
313.067322 99.172 -168.1476
315.335938 99.149 -166.7676
317.621002 99.124 -165.3771
319.922607 99.098 -163.9780
322.240906 99.072 -162.5715
324.575989 99.044 -161.1577
326.928009 99.017 -159.7363
329.297058 98.990 -158.3085
331.683289 98.964 -156.8736
334.086792 98.940 -155.4288
336.507721 98.917 -153.9710
338.946198 98.895 -152.4991
341.402344 98.874 -151.0137
343.876282 98.855 -149.5156
346.368164 98.836 -148.0056
348.878082 98.818 -146.4854
351.406189 98.800 -144.9568
353.952637 98.782 -143.4200
356.517517 98.764 -141.8744
359.100983 98.745 -140.3193
361.703186 98.727 -138.7548
364.324249 98.709 -137.1810
366.964294 98.691 -135.5969
369.623474 98.674 -134.0018
372.301910 98.656 -132.3963
374.999756 98.639 -130.7817
377.717163 98.623 -129.1584
380.454254 98.607 -127.5261
383.211182 98.592 -125.8854
385.988098 98.578 -124.2376
388.785126 98.565 -122.5824
391.602417 98.554 -120.9192
394.440125 98.542 -119.2477
397.298401 98.531 -117.5674
400.177399 98.520 -115.8769
403.077240 98.509 -114.1749
405.998108 98.499 -112.4605
408.940125 98.489 -110.7346
411.903473 98.479 -108.9992
414.888306 98.471 -107.2566
417.894745 98.463 -105.5077
420.922974 98.456 -103.7528
423.973145 98.450 -101.9915
427.045441 98.444 -100.2239
430.139984 98.438 -98.4483
433.256958 98.433 -96.6618
436.396515 98.429 -94.8626
439.558838 98.426 -93.0528
442.744049 98.424 -91.2364
445.952362 98.423 -89.4154
449.183929 98.422 -87.5899
452.438904 98.421 -85.7584
455.717468 98.419 -83.9194
459.019775 98.418 -82.0720
462.346008 98.416 -80.2161
465.696350 98.415 -78.3524
469.070984 98.414 -76.4810
472.470062 98.414 -74.6021
475.893768 98.415 -72.7160
479.342285 98.415 -70.8233
482.815796 98.415 -68.9235
486.314484 98.416 -67.0150
489.838531 98.418 -65.0975
493.388092 98.421 -63.1716
496.963379 98.424 -61.2380
500.564575 98.428 -59.2970
504.191864 98.432 -57.3484
507.845459 98.437 -55.3921
511.525513 98.441 -53.4277
515.232239 98.445 -51.4542
518.965820 98.449 -49.4707
522.726440 98.453 -47.4768
526.514343 98.458 -45.4730
530.329712 98.463 -43.4603
534.172729 98.468 -41.4392
538.043579 98.474 -39.4103
541.942444 98.479 -37.3742
545.869568 98.484 -35.3314
549.825134 98.489 -33.2821
553.809387 98.495 -31.2260
557.822510 98.500 -29.1619
561.864746 98.506 -27.0873
565.936279 98.511 -24.9997
570.037292 98.516 -22.8979
574.168030 98.522 -20.7830
578.328674 98.527 -18.6565
582.519470 98.534 -16.5204
586.740662 98.541 -14.3754
590.992432 98.548 -12.2205
595.275024 98.555 -10.0548
599.588623 98.563 -7.8776
603.933472 98.571 -5.6891
608.309814 98.578 -3.4892
612.717896 98.586 -1.2783
617.157898 98.594 0.9422
621.630066 98.602 3.1716
626.134644 98.609 5.4105
630.671875 98.617 7.6607
635.242004 98.625 9.9228
639.845215 98.634 12.1967
644.481812 98.644 14.4831
649.151978 98.654 16.7825
653.856018 98.665 19.0957
658.594116 98.676 21.4226
663.366577 98.688 23.7629
668.173584 98.700 26.1152
673.015442 98.713 28.4782
677.892395 98.726 30.8520
682.804688 98.739 33.2383
687.752563 98.752 35.6386
692.736328 98.766 38.0538
697.756165 98.780 40.4835
702.812378 98.794 42.9263
707.905273 98.809 45.3808
713.035034 98.823 47.8468
718.201965 98.838 50.3255
723.406372 98.854 52.8185
728.648499 98.872 55.3263
733.928589 98.890 57.8486
739.246948 98.910 60.3846
744.603821 98.930 62.9335
749.999512 98.950 65.4949
755.434326 98.971 68.0681
760.908508 98.992 70.6525
766.422363 99.015 73.2484
771.976196 99.038 75.8564
777.570251 99.062 78.4772
783.204834 99.087 81.1115
788.880249 99.113 83.7596
794.596802 99.139 86.4218
800.354797 99.167 89.0984
806.154480 99.196 91.7895
811.996216 99.226 94.4944
817.880249 99.258 97.2118
823.806946 99.291 99.9409
829.776611 99.325 102.6810
835.789490 99.361 105.4313
841.845947 99.397 108.1913
847.946289 99.435 110.9602
854.090881 99.473 113.7379
860.279968 99.513 116.5251
866.513916 99.553 119.3227
872.793030 99.595 122.1312
879.117676 99.638 124.9504
885.488098 99.682 127.7797
891.904724 99.728 130.6186
898.367859 99.774 133.4661
904.877808 99.822 136.3219
911.434937 99.870 139.1859
918.039551 99.919 142.0569
924.692017 99.970 144.9333
931.392700 100.021 147.8150
938.141968 100.074 150.7031
944.940125 100.128 153.5993
951.787537 100.183 156.5044
958.684570 100.239 159.4176
965.631592 100.295 162.3372
972.628967 100.353 165.2624
979.677063 100.411 168.1930
986.776184 100.469 171.1288
993.926758 100.528 174.0694
1001.129150 100.587 177.0144
1008.383728 100.647 179.9639
1015.690918 100.706 -177.0812
1023.051025 100.766 -174.1192
1030.464478 100.825 -171.1487
1037.931641 100.885 -168.1686
1045.452881 100.945 -165.1783
1053.028687 101.005 -162.1777
1060.659424 101.065 -159.1661
1068.345459 101.125 -156.1421
1076.087158 101.185 -153.1037
1083.884888 101.246 -150.0491
1091.739136 101.308 -146.9771
1099.650269 101.370 -143.8874
1107.618774 101.435 -140.7804
1115.645020 101.501 -137.6572
1123.729492 101.570 -134.5197
1131.872559 101.641 -131.3727
1140.074585 101.716 -128.2237
1148.336060 101.794 -125.0806
1156.657349 101.873 -121.9499
1165.038940 101.954 -118.8356
1173.481323 102.034 -115.7397
1181.984863 102.114 -112.6605
1190.550049 102.192 -109.5936
1199.177246 102.267 -106.5322
1207.866943 102.340 -103.4692
1216.619629 102.411 -100.3988
1225.435791 102.479 -97.3161
1234.315796 102.545 -94.2177
1243.260132 102.610 -91.1011
1252.269287 102.674 -87.9648
1261.343750 102.737 -84.8088
1270.484009 102.800 -81.6342
1279.690430 102.862 -78.4418
1288.963623 102.924 -75.2322
1298.303955 102.986 -72.0060
1307.712036 103.048 -68.7638
1317.188232 103.110 -65.5063
1326.733154 103.172 -62.2343
1336.347168 103.235 -58.9476
1346.030884 103.298 -55.6465
1355.784790 103.362 -52.3314
1365.609375 103.426 -49.0023
1375.505127 103.491 -45.6598
1385.472656 103.556 -42.3039
1395.512329 103.622 -38.9349
1405.624756 103.688 -35.5536
1415.810547 103.754 -32.1609
1426.070068 103.821 -28.7584
1436.403931 103.888 -25.3459
1446.812744 103.956 -21.9225
1457.296997 104.023 -18.4874
1467.857178 104.091 -15.0402
1478.493896 104.158 -11.5808
1489.207642 104.226 -8.1096
1499.999023 104.293 -4.6267
1510.868652 104.360 -1.1317
1521.817017 104.427 2.3763
1532.844727 104.495 5.8979
1543.952393 104.562 9.4337
1555.140503 104.630 12.9836
1566.409668 104.698 16.5481
1577.760498 104.766 20.1272
1589.193604 104.834 23.7209
1600.709595 104.903 27.3296
1612.308960 104.972 30.9531
1623.992432 105.042 34.5916
1635.760498 105.111 38.2450
1647.613892 105.181 41.9135
1659.553223 105.251 45.5975
1671.578979 105.322 49.2981
1683.691895 105.392 53.0164
1695.892578 105.463 56.7528
1708.181763 105.534 60.5078
1720.559937 105.606 64.2820
1733.027832 105.679 68.0763
1745.586060 105.753 71.8922
1758.235352 105.828 75.7313
1770.976196 105.905 79.5941
1783.809448 105.984 83.4813
1796.735718 106.065 87.3922
1809.755615 106.149 91.3248
1822.869873 106.236 95.2756
1836.079102 106.327 99.2394
1849.384033 106.423 103.2088
1862.785400 106.521 107.1762
1876.283936 106.623 111.1341
1889.880249 106.728 115.0768
1903.575073 106.833 119.0007
1917.369141 106.939 122.9058
1931.263184 107.043 126.7954
1945.257935 107.146 130.6754
1959.354126 107.247 134.5529
1973.552368 107.345 138.4355
1987.853516 107.440 142.3312
2002.258301 107.533 146.2469
2016.767456 107.624 150.1892
2031.381836 107.713 154.1642
2046.102051 107.801 158.1780
2060.928955 107.889 162.2371
2075.863281 107.979 166.3480
2090.905762 108.071 170.5169
2106.057373 108.168 174.7478
2121.318848 108.271 179.0417
2136.690918 108.384 -176.6055
2152.174316 108.508 -172.2053
2167.769775 108.646 -167.7766
2183.478271 108.798 -163.3458
2199.300537 108.965 -158.9445
2215.237549 109.145 -154.6066
2231.290039 109.336 -150.3622
2247.458984 109.535 -146.2337
2263.745117 109.737 -142.2324
2280.149170 109.939 -138.3578
2296.672119 110.136 -134.6000
2313.314697 110.325 -130.9404
2330.077881 110.505 -127.3560
2346.962646 110.674 -123.8226
2363.969727 110.833 -120.3173
2381.100098 110.982 -116.8205
2398.354492 111.121 -113.3167
2415.733887 111.253 -109.7946
2433.239258 111.379 -106.2477
2450.871582 111.501 -102.6735
2468.631592 111.620 -99.0736
2486.520264 111.738 -95.4525
2504.538574 111.855 -91.8181
2522.687500 111.971 -88.1801
2540.968018 112.088 -84.5491
2559.380859 112.205 -80.9351
2577.927246 112.321 -77.3457
2596.607910 112.435 -73.7862
2615.424072 112.545 -70.2583
2634.376465 112.652 -66.7607
2653.466309 112.753 -63.2901
2672.694336 112.849 -59.8420
2692.061768 112.938 -56.4117
2711.569580 113.021 -52.9949
2731.218750 113.097 -49.5871
2751.010254 113.167 -46.1841
2770.945312 113.229 -42.7822
2791.024658 113.285 -39.3778
2811.249512 113.334 -35.9683
2831.621094 113.377 -32.5516
2852.140137 113.413 -29.1272
2872.807861 113.444 -25.6948
2893.625488 113.468 -22.2555
2914.593994 113.486 -18.8104
2935.714355 113.497 -15.3602
2956.987793 113.501 -11.9046
2978.415283 113.498 -8.4426
2999.998047 113.487 -4.9713
3021.737305 113.468 -1.4871
3043.634033 113.440 2.0149
3065.689453 113.403 5.5405
3087.904785 113.358 9.0956
3110.281006 113.304 12.6862
3132.819336 113.242 16.3174
3155.520996 113.173 19.9940
3178.387207 113.096 23.7203
3201.419189 113.013 27.5000
3224.617920 112.924 31.3357
3247.984863 112.830 35.2286
3271.520996 112.732 39.1788
3295.227783 112.630 43.1863
3319.106445 112.524 47.2496
3343.157959 112.416 51.3678
3367.383789 112.305 55.5408
3391.785156 112.192 59.7679
3416.363525 112.077 64.0494
3441.119873 111.961 68.3849
3466.055664 111.845 72.7729
3491.172119 111.728 77.2108
3516.470703 111.611 81.6956
3541.952393 111.495 86.2232
3567.618896 111.380 90.7906
3593.471436 111.265 95.3951
3619.511230 111.150 100.0352
3645.739746 111.036 104.7106
3672.158203 110.922 109.4213
3698.768066 110.810 114.1666
3725.570801 110.698 118.9453
3752.567871 110.588 123.7542
3779.760498 110.479 128.5891
3807.150146 110.373 133.4448
3834.738281 110.268 138.3147
3862.526367 110.165 143.1925
3890.515869 110.063 148.0728
3918.708252 109.961 152.9507
3947.104736 109.860 157.8225
3975.707031 109.758 162.6853
4004.516602 109.654 167.5364
4033.534912 109.549 172.3745
4062.763672 109.440 177.1996
4092.204102 109.327 -177.9872
4121.857910 109.209 -173.1843
4151.726562 109.085 -168.3893
4181.811523 108.955 -163.5991
4212.114746 108.818 -158.8092
4242.637695 108.672 -154.0134
4273.381836 108.518 -149.2043
4304.348633 108.355 -144.3735
4335.539551 108.183 -139.5126
4366.956543 108.002 -134.6135
4398.601074 107.812 -129.6692
4430.475098 107.614 -124.6738
4462.580078 107.407 -119.6204
4494.917969 107.192 -114.5026
4527.490234 106.969 -109.3127
4560.298340 106.738 -104.0430
4593.344238 106.501 -98.6859
4626.629395 106.259 -93.2350
4660.155762 106.012 -87.6847
4693.925293 105.762 -82.0311
4727.939453 105.510 -76.2721
4762.200195 105.257 -70.4077
4796.708984 105.005 -64.4391
4831.467773 104.754 -58.3683
4866.478516 104.505 -52.1982
4901.743164 104.261 -45.9325
4937.263184 104.020 -39.5759
4973.040527 103.784 -33.1327
5009.077148 103.553 -26.6079
5045.375000 103.328 -20.0067
5081.936035 103.110 -13.3345
5118.761719 102.899 -6.5968
5155.854492 102.694 0.2012
5193.215820 102.497 7.0532
5230.848145 102.308 13.9539
5268.752930 102.125 20.8990
5306.932617 101.950 27.8853
5345.388672 101.782 34.9104
5384.123535 101.621 41.9735
5423.139160 101.467 49.0741
5462.437500 101.321 56.2119
5502.020508 101.182 63.3856
5541.890625 101.051 70.5938
5582.049316 100.928 77.8352
5622.499023 100.812 85.1090
5663.242188 100.704 92.4141
5704.280273 100.605 99.7480
5745.615723 100.513 107.1089
5787.250977 100.429 114.4948
5829.187988 100.354 121.9033
5871.428711 100.287 129.3326
5913.975586 100.229 136.7810
5956.830566 100.179 144.2454
5999.996094 100.137 151.7234
6043.474609 100.103 159.2123
6087.268066 100.078 166.7103
6131.378906 100.061 174.2185
6175.809570 100.053 -178.2622
6220.562012 100.055 -170.7312
6265.638672 100.066 -163.1882
6311.041992 100.086 -155.6338
6356.774414 100.118 -148.0696
6402.838379 100.159 -140.4985
6449.235840 100.213 -132.9231
6495.969727 100.278 -125.3452
6543.041992 100.355 -117.7664
6590.455566 100.445 -110.1870
6638.212891 100.548 -102.6079
6686.315918 100.666 -95.0295
6734.767578 100.798 -87.4525
6783.570312 100.946 -79.8795
6832.727051 101.112 -72.3131
6882.239746 101.296 -64.7573
6932.111328 101.502 -57.2180
6982.344238 101.730 -49.7039
7032.941406 101.982 -42.2267
7083.904785 102.263 -34.8035
7135.237793 102.572 -27.4563
7186.942871 102.914 -20.2159
7239.022461 103.290 -13.1210
7291.479492 103.702 -6.2203
7344.316406 104.149 0.4249
7397.536133 104.630 6.7428
7451.141602 105.141 12.6511
7505.135742 105.677 18.0625
7559.520996 106.227 22.8915
7614.300293 106.780 27.0631
7669.476562 107.319 30.5219
7725.052734 107.827 33.2418
7781.031738 108.281 35.2329
7837.416504 108.663 36.5476
7894.209473 108.952 37.2820
7951.414062 109.130 37.5746
8009.033203 109.185 37.5989
8067.069824 109.110 37.5514
8125.527344 108.907 37.6360
8184.408203 108.582 38.0461
8243.715820 108.149 38.9501
8303.453125 107.626 40.4786
8363.623047 107.033 42.7208
8424.229492 106.391 45.7203
8485.275391 105.721 49.4796
8546.763672 105.041 53.9646
8608.697266 104.368 59.1130
8671.079102 103.714 64.8445
8733.913086 103.088 71.0699
8797.202148 102.497 77.7002
8860.950195 101.944 84.6530
8925.160156 101.430 91.8561
8989.835938 100.957 99.2501
9054.980469 100.522 106.7881
9120.596680 100.123 114.4341
9186.688477 99.760 122.1617
9253.258789 99.430 129.9509
9320.311523 99.132 137.7870
9387.850586 98.864 145.6586
9455.878906 98.625 153.5580
9524.400391 98.414 161.4777
9593.417969 98.229 169.4108
9662.935547 98.069 177.3512
9732.957031 97.935 -174.7054
9803.486328 97.826 -166.7615
9874.526367 97.741 -158.8193
9946.081055 97.681 -150.8809
10018.154297 97.646 -142.9491
10090.750000 97.636 -135.0295
10163.872070 97.652 -127.1289
10237.523438 97.695 -119.2529
10311.708984 97.765 -111.4066
10386.431641 97.865 -103.5963
10461.696289 97.994 -95.8292
10537.505859 98.154 -88.1128
10613.865234 98.347 -80.4556
10690.777344 98.573 -72.8672
10768.247070 98.835 -65.3602
10846.278320 99.135 -57.9514
10924.875000 99.474 -50.6619
11004.041016 99.854 -43.5179
11083.781250 100.278 -36.5516
11164.098633 100.746 -29.8021
11244.998047 101.260 -23.3175
11326.484375 101.819 -17.1561
11408.560547 102.422 -11.3854
11491.231445 103.066 -6.0806
11574.501953 103.744 -1.3209
11658.375977 104.446 2.8158
11742.857422 105.160 6.2621
11827.951172 105.871 8.9683
11913.661133 106.560 10.9111
11999.992188 107.208 12.1016
12086.949219 107.796 12.5885
12174.536133 108.306 12.4598
12262.757812 108.723 11.8413
12351.619141 109.038 10.8903
12441.124023 109.248 9.7837
12531.277344 109.357 8.7026
12622.083984 109.378 7.8127
12713.548828 109.329 7.2450
12805.676758 109.234 7.0811
12898.471680 109.120 7.3416
12991.939453 109.014 7.9832
13086.083984 108.940 8.9009
13180.911133 108.914 9.9392
13276.425781 108.946 10.9098
13372.631836 109.037 11.6121
13469.535156 109.175 11.8558
13567.140625 109.339 11.4877
13665.454102 109.500 10.4125
13764.479492 109.625 8.6094
13864.222656 109.678 6.1365
13964.688477 109.628 3.1262
14065.882812 109.452 -0.2274
14167.809570 109.135 -3.6893
14270.475586 108.672 -7.0093
14373.885742 108.072 -9.9438
14478.044922 107.350 -12.2729
14582.958984 106.530 -13.8032
14688.632812 105.639 -14.3629
14795.072266 104.718 -13.7965
14902.283203 103.815 -11.9747
15010.271484 103.003 -8.8499
15119.041992 102.375 -4.5828
15228.600586 102.032 0.2953
15338.953125 102.040 4.8574
15450.105469 102.377 8.0533
15562.063477 102.938 9.1200
15674.833008 103.583 7.7747
15788.418945 104.180 4.1296
15902.828125 104.631 -1.4753
16018.066406 104.866 -8.5944
16134.139648 104.847 -16.7419
16251.054688 104.554 -25.4354
16368.816406 103.989 -34.2281
16487.431641 103.167 -42.7383
16606.906250 102.110 -50.6643
16727.246094 100.850 -57.7847
16848.458984 99.415 -63.9504
16970.550781 97.837 -69.0725
17093.527344 96.144 -73.1108
17217.394531 94.364 -76.0657
17342.158203 92.523 -77.9719
17467.826172 90.644 -78.8950
17594.404297 88.752 -78.9237
17721.900391 86.869 -78.1659
17850.320312 85.016 -76.7400
17979.671875 83.211 -74.7701
18109.960938 81.465 -72.3805
18241.193359 79.778 -69.6832
18373.376953 78.144 -66.7623
18506.517578 76.558 -63.6755
18640.623047 75.019 -60.4662
18775.701172 73.526 -57.1665
18911.757812 72.077 -53.7926
19048.800781 70.673 -50.3381
19186.835938 69.309 -46.7719
19325.871094 67.987 -43.0568
19465.914062 66.716 -39.1937
19606.972656 65.524 -35.2747
19749.052734 64.469 -31.5555
19892.162109 63.649 -28.5089
20036.308594 63.191 -26.7500
