* Measurement data measured by REW V5.31
* Source: EXCL: Microphone (USB Sound Device        ), no input selected, R, volume: 0.390
* Format: 256k Log Swept Sine, 1 sweep at -15.0 dBFS with no timing reference
* Dated: Jan 3, 2025 11:20:23 AM
* REW Settings:
*  C-weighting compensation: Off
*  Target level: 75.0 dB
* Note: SGOR Luna
* Measurement: SGOR Luna
* Smoothing: 1/12 octave
* Frequency Step: 96 ppo
* Start Frequency: 0.36621094 Hz
*
* Freq(Hz) SPL(dB) Phase(degrees)
0.366211 94.548 156.2091
0.368865 94.542 156.1844
0.371538 94.534 156.1475
0.374230 94.523 156.1011
0.376942 94.511 156.0476
0.379673 94.497 155.9888
0.382424 94.484 155.9258
0.385196 94.470 155.8594
0.387987 94.455 155.7899
0.390798 94.441 155.7175
0.393630 94.426 155.6424
0.396483 94.412 155.5646
0.399356 94.397 155.4841
0.402250 94.382 155.4008
0.405165 94.367 155.3149
0.408101 94.352 155.2262
0.411058 94.336 155.1347
0.414037 94.321 155.0405
0.417037 94.305 154.9433
0.420059 94.290 154.8434
0.423103 94.274 154.7405
0.426169 94.258 154.6348
0.429257 94.242 154.5261
0.432368 94.226 154.4145
0.435501 94.210 154.2998
0.438656 94.193 154.1822
0.441835 94.177 154.0615
0.445037 94.160 153.9378
0.448262 94.144 153.8109
0.451510 94.127 153.6810
0.454782 94.110 153.5480
0.458077 94.093 153.4118
0.461397 94.076 153.2724
0.464740 94.058 153.1299
0.468108 94.041 152.9841
0.471500 94.024 152.8351
0.474917 94.006 152.6829
0.478358 93.988 152.5274
0.481825 93.970 152.3686
0.485316 93.952 152.2066
0.488833 93.934 152.0412
0.492375 93.915 151.8726
0.495943 93.897 151.7006
0.499537 93.878 151.5253
0.503157 93.860 151.3467
0.506803 93.841 151.1647
0.510475 93.822 150.9794
0.514175 93.803 150.7908
0.517900 93.783 150.5988
0.521653 93.764 150.4035
0.525434 93.744 150.2049
0.529241 93.725 150.0030
0.533076 93.705 149.7977
0.536939 93.685 149.5892
0.540830 93.665 149.3773
0.544749 93.645 149.1622
0.548696 93.624 148.9439
0.552673 93.604 148.7224
0.556677 93.583 148.4977
0.560711 93.562 148.2699
0.564774 93.541 148.0389
0.568867 93.520 147.8049
0.572989 93.498 147.5678
0.577141 93.477 147.3278
0.581324 93.455 147.0848
0.585536 93.433 146.8390
0.589779 93.412 146.5904
0.594053 93.389 146.3390
0.598358 93.367 146.0850
0.602694 93.345 145.8284
0.607061 93.322 145.5692
0.611460 93.299 145.3077
0.615891 93.276 145.0439
0.620354 93.253 144.7778
0.624849 93.230 144.5097
0.629377 93.207 144.2395
0.633938 93.183 143.9675
0.638532 93.159 143.6938
0.643159 93.135 143.4184
0.647819 93.111 143.1416
0.652514 93.087 142.8636
0.657242 93.062 142.5844
0.662005 93.038 142.3042
0.666802 93.013 142.0233
0.671634 92.988 141.7418
0.676501 92.963 141.4599
0.681403 92.937 141.1778
0.686341 92.912 140.8958
0.691314 92.886 140.6141
0.696324 92.860 140.3328
0.701370 92.834 140.0522
0.706452 92.807 139.7725
0.711571 92.780 139.4937
0.716728 92.752 139.2158
0.721921 92.723 138.9386
0.727153 92.692 138.6615
0.732422 92.659 138.3837
0.737729 92.625 138.1042
0.743075 92.588 137.8218
0.748460 92.549 137.5355
0.753883 92.510 137.2447
0.759346 92.469 136.9486
0.764849 92.427 136.6471
0.770391 92.385 136.3397
0.775974 92.342 136.0264
0.781597 92.299 135.7070
0.787261 92.255 135.3814
0.792966 92.211 135.0496
0.798712 92.166 134.7114
0.804500 92.120 134.3669
0.810329 92.074 134.0159
0.816201 92.027 133.6585
0.822116 91.979 133.2945
0.828073 91.931 132.9240
0.834074 91.882 132.5469
0.840118 91.833 132.1631
0.846206 91.782 131.7728
0.852338 91.731 131.3758
0.858514 91.679 130.9722
0.864735 91.626 130.5619
0.871001 91.572 130.1451
0.877313 91.517 129.7217
0.883670 91.461 129.2919
0.890074 91.404 128.8555
0.896524 91.346 128.4129
0.903020 91.287 127.9639
0.909564 91.227 127.5088
0.916155 91.165 127.0477
0.922794 91.102 126.5807
0.929481 91.038 126.1080
0.936216 90.973 125.6298
0.943000 90.906 125.1464
0.949834 90.837 124.6579
0.956717 90.768 124.1646
0.963649 90.696 123.6669
0.970632 90.623 123.1652
0.977666 90.548 122.6597
0.984750 90.472 122.1508
0.991886 90.393 121.6392
0.999074 90.313 121.1252
1.006314 90.231 120.6093
1.013606 90.147 120.0923
1.020951 90.060 119.5746
1.028349 89.972 119.0570
1.035801 89.881 118.5403
1.043307 89.788 118.0251
1.050867 89.693 117.5123
1.058482 89.595 117.0028
1.066152 89.495 116.4973
1.073878 89.393 115.9966
1.081660 89.289 115.5013
1.089498 89.183 115.0117
1.097393 89.076 114.5277
1.105345 88.969 114.0491
1.113355 88.862 113.5750
1.121423 88.756 113.1048
1.129549 88.651 112.6376
1.137734 88.547 112.1730
1.145979 88.445 111.7103
1.154283 88.344 111.2490
1.162647 88.244 110.7888
1.171072 88.145 110.3293
1.179558 88.046 109.8699
1.188106 87.946 109.4104
1.196715 87.846 108.9503
1.205387 87.744 108.4892
1.214122 87.641 108.0267
1.222920 87.535 107.5623
1.231782 87.427 107.0956
1.240708 87.316 106.6261
1.249699 87.200 106.1533
1.258754 87.081 105.6766
1.267876 86.956 105.1955
1.277063 86.825 104.7095
1.286318 86.688 104.2180
1.295639 86.544 103.7204
1.305027 86.392 103.2161
1.314484 86.231 102.7044
1.324009 86.062 102.1847
1.333604 85.882 101.6563
1.343268 85.691 101.1185
1.353002 85.489 100.5708
1.362806 85.274 100.0124
1.372681 85.046 99.4426
1.382628 84.803 98.8610
1.392647 84.545 98.2670
1.402739 84.270 97.6602
1.412904 83.978 97.0402
1.423142 83.666 96.4072
1.433455 83.334 95.7615
1.443843 82.980 95.1037
1.454305 82.599 94.4353
1.464844 82.190 93.7580
1.475459 81.746 93.0739
1.486150 81.266 92.3848
1.496920 80.745 91.6920
1.507767 80.182 90.9962
1.518693 79.575 90.2972
1.529698 78.927 89.5943
1.540783 78.238 88.8866
1.551948 77.510 88.1725
1.563194 76.746 87.4502
1.574521 75.949 86.7173
1.585931 75.122 85.9713
1.597423 74.267 85.2086
1.608999 73.390 84.4254
1.620658 72.494 83.6167
1.632402 71.584 82.7764
1.644232 70.663 81.8968
1.656146 69.738 80.9681
1.668147 68.814 79.9776
1.680235 67.896 78.9084
1.692411 66.992 77.7380
1.704675 66.108 76.4348
1.717028 65.252 74.9543
1.729470 64.433 73.2307
1.742003 63.660 71.1634
1.754626 62.943 68.5905
1.767341 62.295 65.2356
1.780147 61.728 60.5893
1.793047 61.255 53.6212
1.806040 60.890 42.0387
1.819128 60.645 20.8027
1.832310 60.530 -14.3704
1.845587 60.552 -47.8965
1.858961 60.712 -67.4756
1.872432 61.005 -78.5054
1.886001 61.425 -85.4944
1.899667 61.961 -90.4325
1.913433 62.600 -94.2133
1.927299 63.330 -97.2783
1.941265 64.137 -99.8658
1.955332 65.007 -102.1149
1.969501 65.929 -104.1116
1.983773 66.889 -105.9120
1.998148 67.876 -107.5541
2.012627 68.878 -109.0647
2.027212 69.884 -110.4632
2.041902 70.883 -111.7641
2.056698 71.866 -112.9782
2.071602 72.823 -114.1143
2.086614 73.744 -115.1793
2.101734 74.621 -116.1792
2.116964 75.446 -117.1195
2.132304 76.212 -118.0061
2.147756 76.914 -118.8461
2.163320 77.548 -119.6483
2.178996 78.114 -120.4242
2.194786 78.614 -121.1882
2.210690 79.053 -121.9561
2.226710 79.436 -122.7425
2.242845 79.771 -123.5579
2.259098 80.061 -124.4076
2.275468 80.311 -125.2926
2.291957 80.523 -126.2109
2.308566 80.701 -127.1583
2.325295 80.846 -128.1298
2.342145 80.963 -129.1194
2.359117 81.052 -130.1212
2.376212 81.117 -131.1286
2.393431 81.161 -132.1354
2.410775 81.187 -133.1353
2.428244 81.197 -134.1219
2.445840 81.196 -135.0892
2.463564 81.186 -136.0315
2.481416 81.170 -136.9439
2.499397 81.153 -137.8229
2.517509 81.135 -138.6670
2.535752 81.119 -139.4782
2.554127 81.104 -140.2620
2.572635 81.091 -141.0282
2.591277 81.075 -141.7887
2.610055 81.056 -142.5546
2.628968 81.030 -143.3343
2.648019 80.996 -144.1325
2.667208 80.952 -144.9511
2.686535 80.898 -145.7896
2.706003 80.831 -146.6453
2.725612 80.753 -147.5142
2.745363 80.662 -148.3909
2.765257 80.557 -149.2687
2.785295 80.439 -150.1397
2.805478 80.306 -150.9950
2.825808 80.158 -151.8244
2.846285 79.993 -152.6175
2.866910 79.811 -153.3636
2.887685 79.610 -154.0531
2.908611 79.388 -154.6788
2.929688 79.142 -155.2370
2.950917 78.869 -155.7276
2.972301 78.566 -156.1526
2.993839 78.234 -156.5139
3.015534 77.872 -156.8117
3.037386 77.483 -157.0432
3.059396 77.071 -157.2030
3.081565 76.638 -157.2826
3.103896 76.192 -157.2702
3.126388 75.739 -157.1504
3.149043 75.284 -156.9038
3.171862 74.835 -156.5063
3.194847 74.401 -155.9279
3.217998 73.988 -155.1320
3.241317 73.604 -154.0732
3.264805 73.255 -152.6962
3.288463 72.944 -150.9331
3.312293 72.672 -148.7030
3.336295 72.438 -145.9137
3.360471 72.241 -142.4696
3.384822 72.077 -138.2852
3.409350 71.945 -133.3075
3.434056 71.846 -127.5474
3.458940 71.778 -121.1144
3.484005 71.743 -114.2345
3.509252 71.742 -107.2306
3.534681 71.776 -100.4563
3.560295 71.848 -94.2141
3.586094 71.961 -88.6999
3.612081 72.119 -83.9939
3.638255 72.326 -80.0858
3.664620 72.586 -76.9103
3.691175 72.902 -74.3773
3.717923 73.273 -72.3920
3.744864 73.695 -70.8662
3.772001 74.158 -69.7214
3.799335 74.652 -68.8902
3.826866 75.164 -68.3153
3.854597 75.683 -67.9495
3.882529 76.196 -67.7543
3.910664 76.692 -67.6997
3.939002 77.163 -67.7630
3.967546 77.599 -67.9290
3.996296 77.998 -68.1890
4.025255 78.356 -68.5400
4.054423 78.675 -68.9817
4.083804 78.958 -69.5130
4.113396 79.208 -70.1285
4.143204 79.430 -70.8177
4.173227 79.625 -71.5667
4.203468 79.796 -72.3593
4.233928 79.947 -73.1795
4.264609 80.078 -74.0121
4.295512 80.193 -74.8449
4.326639 80.292 -75.6696
4.357992 80.377 -76.4834
4.389572 80.447 -77.2891
4.421380 80.502 -78.0941
4.453419 80.541 -78.9068
4.485691 80.564 -79.7319
4.518196 80.570 -80.5688
4.550936 80.559 -81.4111
4.583914 80.533 -82.2480
4.617131 80.490 -83.0659
4.650589 80.433 -83.8498
4.684289 80.361 -84.5851
4.718233 80.276 -85.2598
4.752424 80.175 -85.8661
4.786862 80.059 -86.4012
4.821549 79.928 -86.8658
4.856488 79.781 -87.2608
4.891680 79.619 -87.5853
4.927127 79.445 -87.8352
4.962831 79.261 -88.0031
4.998794 79.069 -88.0783
5.035017 78.873 -88.0478
5.071503 78.673 -87.8961
5.108253 78.472 -87.6071
5.145270 78.269 -87.1654
5.182555 78.065 -86.5582
5.220110 77.861 -85.7785
5.257937 77.658 -84.8266
5.296038 77.461 -83.7099
5.334415 77.275 -82.4430
5.373071 77.106 -81.0456
5.412006 76.959 -79.5411
5.451224 76.841 -77.9529
5.490725 76.757 -76.3025
5.530514 76.707 -74.6089
5.570590 76.693 -72.8930
5.610957 76.712 -71.1819
5.651616 76.760 -69.5097
5.692570 76.832 -67.9146
5.733821 76.925 -66.4342
5.775370 77.033 -65.1013
5.817221 77.154 -63.9404
5.859375 77.286 -62.9655
5.901834 77.428 -62.1801
5.944602 77.579 -61.5799
5.987679 77.737 -61.1558
6.031068 77.897 -60.8966
6.074771 78.056 -60.7913
6.118792 78.210 -60.8305
6.163131 78.353 -61.0072
6.207792 78.483 -61.3169
6.252776 78.599 -61.7565
6.298086 78.699 -62.3207
6.343725 78.784 -62.9998
6.389694 78.854 -63.7787
6.435996 78.908 -64.6390
6.482634 78.946 -65.5627
6.529610 78.968 -66.5352
6.576926 78.973 -67.5479
6.624585 78.960 -68.5976
6.672590 78.930 -69.6840
6.720942 78.884 -70.8038
6.769645 78.820 -71.9484
6.818700 78.742 -73.1041
6.868111 78.648 -74.2550
6.917881 78.540 -75.3863
6.968010 78.419 -76.4875
7.018504 78.285 -77.5530
7.069362 78.138 -78.5804
7.120590 77.981 -79.5663
7.172189 77.815 -80.5047
7.224161 77.644 -81.3862
7.276511 77.469 -82.1996
7.329239 77.293 -82.9340
7.382350 77.118 -83.5818
7.435845 76.946 -84.1410
7.489729 76.779 -84.6158
7.544002 76.621 -85.0146
7.598669 76.477 -85.3475
7.653732 76.349 -85.6242
7.709194 76.242 -85.8525
7.765058 76.157 -86.0408
7.821327 76.095 -86.2024
7.878004 76.057 -86.3569
7.935091 76.043 -86.5292
7.992592 76.053 -86.7440
8.050510 76.086 -87.0219
8.108847 76.142 -87.3763
8.167607 76.220 -87.8148
8.226793 76.317 -88.3430
8.286408 76.429 -88.9660
8.346454 76.553 -89.6885
8.406936 76.686 -90.5132
8.467856 76.825 -91.4385
8.529218 76.968 -92.4573
8.591024 77.114 -93.5579
8.653278 77.260 -94.7265
8.715983 77.405 -95.9496
8.779143 77.546 -97.2160
8.842760 77.682 -98.5157
8.906839 77.812 -99.8378
8.971381 77.937 -101.1686
9.036392 78.056 -102.4922
9.101873 78.168 -103.7936
9.167829 78.274 -105.0606
9.234263 78.374 -106.2846
9.301178 78.469 -107.4580
9.368578 78.559 -108.5723
9.436467 78.646 -109.6189
9.504847 78.730 -110.5900
9.573723 78.812 -111.4807
9.643099 78.895 -112.2893
9.712976 78.978 -113.0166
9.783361 79.062 -113.6646
9.854255 79.150 -114.2358
9.925663 79.242 -114.7337
9.997588 79.339 -115.1634
10.070035 79.441 -115.5325
10.143007 79.548 -115.8501
10.216507 79.660 -116.1256
10.290540 79.777 -116.3673
10.365109 79.898 -116.5825
10.440219 80.023 -116.7781
10.515873 80.151 -116.9608
10.592076 80.279 -117.1364
10.668830 80.408 -117.3092
10.746141 80.536 -117.4812
10.824012 80.663 -117.6530
10.902447 80.786 -117.8240
10.981451 80.906 -117.9932
11.061027 81.022 -118.1588
11.141180 81.133 -118.3185
11.221913 81.238 -118.4692
11.303232 81.339 -118.6078
11.385140 81.435 -118.7316
11.467641 81.526 -118.8388
11.550741 81.613 -118.9283
11.634442 81.696 -118.9998
11.718750 81.775 -119.0533
11.803669 81.851 -119.0902
11.889203 81.924 -119.1124
11.975357 81.996 -119.1233
12.062136 82.064 -119.1263
12.149543 82.131 -119.1250
12.237583 82.195 -119.1229
12.326262 82.257 -119.1234
12.415583 82.316 -119.1297
12.505552 82.372 -119.1442
12.596172 82.423 -119.1684
12.687449 82.471 -119.2025
12.779387 82.514 -119.2465
12.871992 82.552 -119.2993
12.965268 82.584 -119.3594
13.059220 82.612 -119.4246
13.153852 82.634 -119.4928
13.249170 82.652 -119.5617
13.345179 82.665 -119.6299
13.441884 82.674 -119.6967
13.539289 82.680 -119.7619
13.637401 82.684 -119.8266
13.736223 82.687 -119.8931
13.835761 82.688 -119.9647
13.936021 82.689 -120.0457
14.037007 82.690 -120.1410
14.138725 82.692 -120.2557
14.241180 82.694 -120.3952
14.344377 82.696 -120.5642
14.448323 82.698 -120.7665
14.553021 82.700 -121.0048
14.658478 82.700 -121.2806
14.764700 82.699 -121.5938
14.871691 82.696 -121.9429
14.979457 82.691 -122.3252
15.088005 82.683 -122.7369
15.197339 82.673 -123.1737
15.307465 82.662 -123.6309
15.418389 82.649 -124.1041
15.530117 82.636 -124.5893
15.642655 82.623 -125.0836
15.756008 82.612 -125.5849
15.870182 82.604 -126.0925
15.985184 82.599 -126.6069
16.101019 82.598 -127.1294
16.217694 82.603 -127.6623
16.335214 82.613 -128.2076
16.453586 82.628 -128.7677
16.572815 82.648 -129.3439
16.692909 82.673 -129.9368
16.813872 82.702 -130.5454
16.935713 82.734 -131.1676
17.058436 82.770 -131.8000
17.182048 82.807 -132.4378
17.306556 82.847 -133.0757
17.431967 82.888 -133.7078
17.558286 82.930 -134.3284
17.685521 82.974 -134.9322
17.813677 83.019 -135.5148
17.942762 83.066 -136.0726
18.072783 83.115 -136.6035
18.203746 83.166 -137.1062
18.335658 83.219 -137.5804
18.468526 83.274 -138.0268
18.602356 83.331 -138.4462
18.737156 83.388 -138.8397
18.872934 83.447 -139.2085
19.009695 83.506 -139.5534
19.147447 83.565 -139.8750
19.286197 83.623 -140.1742
19.425953 83.681 -140.4514
19.566721 83.737 -140.7076
19.708510 83.792 -140.9440
19.851326 83.845 -141.1624
19.995177 83.896 -141.3647
20.140070 83.946 -141.5535
20.286013 83.992 -141.7313
20.433014 84.037 -141.9007
20.581080 84.078 -142.0636
20.730219 84.115 -142.2216
20.880439 84.149 -142.3759
21.031747 84.179 -142.5269
21.184152 84.205 -142.6749
21.337661 84.227 -142.8204
21.492282 84.245 -142.9642
21.648024 84.260 -143.1077
21.804895 84.271 -143.2534
21.962902 84.281 -143.4045
22.122054 84.288 -143.5648
22.282360 84.294 -143.7384
22.443827 84.297 -143.9290
22.606464 84.298 -144.1395
22.770280 84.298 -144.3716
22.935283 84.295 -144.6257
23.101481 84.289 -144.9008
23.268884 84.282 -145.1950
23.437500 84.273 -145.5059
23.607338 84.263 -145.8315
23.778406 84.253 -146.1702
23.950714 84.243 -146.5220
24.124271 84.236 -146.8876
24.299086 84.230 -147.2689
24.475167 84.227 -147.6676
24.652524 84.227 -148.0853
24.831166 84.229 -148.5221
25.011103 84.233 -148.9763
25.192344 84.238 -149.4443
25.374898 84.245 -149.9207
25.558775 84.253 -150.3990
25.743984 84.263 -150.8725
25.930536 84.274 -151.3349
26.118439 84.287 -151.7817
26.307704 84.303 -152.2104
26.498341 84.323 -152.6203
26.690359 84.346 -153.0129
26.883768 84.372 -153.3905
27.078579 84.401 -153.7560
27.274801 84.433 -154.1116
27.472446 84.466 -154.4586
27.671522 84.499 -154.7974
27.872042 84.531 -155.1269
28.074014 84.562 -155.4455
28.277450 84.591 -155.7513
28.482360 84.618 -156.0429
28.688755 84.642 -156.3192
28.896645 84.664 -156.5804
29.106042 84.683 -156.8272
29.316957 84.699 -157.0613
29.529400 84.713 -157.2848
29.743382 84.724 -157.5002
29.958915 84.733 -157.7097
30.176009 84.739 -157.9157
30.394677 84.743 -158.1203
30.614929 84.744 -158.3252
30.836778 84.744 -158.5324
31.060234 84.742 -158.7438
31.285309 84.739 -158.9617
31.512015 84.736 -159.1887
31.740364 84.732 -159.4276
31.970368 84.729 -159.6812
32.202039 84.726 -159.9518
32.435388 84.723 -160.2407
32.670428 84.720 -160.5477
32.907171 84.718 -160.8713
33.145630 84.716 -161.2087
33.385817 84.714 -161.5565
33.627745 84.713 -161.9110
33.871425 84.713 -162.2695
34.116871 84.715 -162.6296
34.364096 84.718 -162.9900
34.613113 84.723 -163.3495
34.863934 84.729 -163.7067
35.116572 84.736 -164.0598
35.371041 84.744 -164.4064
35.627354 84.753 -164.7439
35.885525 84.761 -165.0702
36.145566 84.770 -165.3842
36.407492 84.779 -165.6857
36.671316 84.788 -165.9758
36.937051 84.797 -166.2557
37.204712 84.805 -166.5270
37.474313 84.812 -166.7912
37.745867 84.818 -167.0493
38.019389 84.822 -167.3026
38.294893 84.824 -167.5529
38.572394 84.825 -167.8016
38.851905 84.824 -168.0502
39.133442 84.820 -168.2992
39.417019 84.814 -168.5481
39.702651 84.806 -168.7956
39.990353 84.797 -169.0403
40.280140 84.787 -169.2821
40.572026 84.776 -169.5226
40.866028 84.767 -169.7650
41.162160 84.758 -170.0135
41.460438 84.749 -170.2710
41.760877 84.741 -170.5384
42.063494 84.733 -170.8129
42.368303 84.724 -171.0898
42.675322 84.714 -171.3640
42.984565 84.706 -171.6326
43.296048 84.699 -171.8965
43.609789 84.694 -172.1604
43.925804 84.691 -172.4304
44.244108 84.689 -172.7115
44.564719 84.686 -173.0040
44.887654 84.682 -173.3037
45.212928 84.676 -173.6033
45.540560 84.668 -173.8958
45.870565 84.659 -174.1777
46.202962 84.650 -174.4507
46.537768 84.641 -174.7201
46.875000 84.634 -174.9919
47.214676 84.626 -175.2690
47.556813 84.617 -175.5500
47.901429 84.607 -175.8300
48.248542 84.596 -176.1032
48.598171 84.584 -176.3652
48.950334 84.574 -176.6150
49.305048 84.564 -176.8539
49.662333 84.556 -177.0851
50.022206 84.550 -177.3125
50.384688 84.546 -177.5394
50.749796 84.542 -177.7687
51.117550 84.539 -178.0022
51.487969 84.536 -178.2401
51.861072 84.530 -178.4810
52.236879 84.523 -178.7213
52.615409 84.513 -178.9567
52.996681 84.501 -179.1823
53.380717 84.487 -179.3948
53.767536 84.472 -179.5931
54.157158 84.457 -179.7801
54.549603 84.443 -179.9618
54.944892 84.430 179.8539
55.343045 84.417 179.6607
55.744084 84.405 179.4559
56.148028 84.392 179.2417
56.554900 84.378 179.0230
56.964720 84.364 178.8052
57.377510 84.350 178.5911
57.793291 84.338 178.3804
58.212085 84.328 178.1697
58.633914 84.319 177.9536
59.058799 84.312 177.7268
59.486764 84.304 177.4861
59.917829 84.295 177.2327
60.352019 84.282 176.9732
60.789354 84.267 176.7168
61.229859 84.248 176.4715
61.673556 84.228 176.2402
62.120468 84.206 176.0197
62.570618 84.185 175.8042
63.024031 84.163 175.5884
63.480729 84.141 175.3706
63.940736 84.118 175.1512
64.404077 84.095 174.9318
64.870776 84.073 174.7142
65.340856 84.051 174.5003
65.814343 84.030 174.2908
66.291261 84.011 174.0849
66.771635 83.993 173.8798
67.255489 83.977 173.6728
67.742850 83.961 173.4632
68.233743 83.946 173.2527
68.728193 83.929 173.0439
69.226226 83.911 172.8389
69.727867 83.892 172.6398
70.233144 83.871 172.4495
70.742083 83.849 172.2698
71.254709 83.827 172.0996
71.771050 83.806 171.9330
72.291132 83.785 171.7621
72.814984 83.765 171.5817
73.342631 83.744 171.3912
73.874102 83.721 171.1950
74.409424 83.698 170.9991
74.948626 83.675 170.8083
75.491734 83.651 170.6256
76.038779 83.629 170.4518
76.589787 83.608 170.2857
77.144788 83.590 170.1237
77.703811 83.573 169.9614
78.266885 83.557 169.7941
78.834039 83.542 169.6191
79.405303 83.528 169.4357
79.980706 83.512 169.2449
80.560280 83.495 169.0489
81.144053 83.477 168.8500
81.732056 83.457 168.6508
82.324320 83.435 168.4535
82.920876 83.411 168.2569
83.521755 83.386 168.0569
84.126988 83.359 167.8502
84.736607 83.328 167.6398
85.350643 83.293 167.4349
85.969129 83.255 167.2441
86.592097 83.215 167.0697
87.219579 83.175 166.9097
87.851608 83.135 166.7613
88.488217 83.097 166.6226
89.129439 83.060 166.4913
89.775308 83.024 166.3656
90.425856 82.990 166.2455
91.081119 82.957 166.1316
91.741131 82.925 166.0234
92.405925 82.894 165.9193
93.075536 82.864 165.8169
93.750000 82.834 165.7126
94.429351 82.804 165.6026
95.113625 82.773 165.4845
95.802858 82.741 165.3600
96.497085 82.708 165.2347
97.196342 82.675 165.1134
97.900667 82.643 164.9967
98.610096 82.612 164.8835
99.324665 82.582 164.7763
100.044413 82.553 164.6810
100.769376 82.525 164.5995
101.499592 82.499 164.5270
102.235100 82.473 164.4564
102.975938 82.446 164.3826
103.722144 82.417 164.3032
104.473757 82.387 164.2171
105.230817 82.355 164.1230
105.993363 82.322 164.0199
106.761435 82.289 163.9083
107.535072 82.257 163.7911
108.314315 82.227 163.6729
109.099206 82.197 163.5597
109.889783 82.168 163.4578
110.686090 82.139 163.3709
111.488167 82.107 163.2977
112.296056 82.071 163.2304
113.109800 82.030 163.1562
113.929440 81.981 163.0616
114.755020 81.926 162.9348
115.586582 81.864 162.7665
116.424170 81.797 162.5532
117.267827 81.726 162.3082
118.117598 81.655 162.0729
118.973527 81.587 161.9155
119.835658 81.534 161.8912
120.704037 81.505 161.9857
121.578708 81.503 162.1235
122.459718 81.518 162.2408
123.347111 81.538 162.3209
124.240935 81.554 162.3708
125.141236 81.560 162.4006
126.048061 81.555 162.4175
126.961458 81.540 162.4199
127.881473 81.520 162.3994
128.808154 81.496 162.3493
129.741551 81.471 162.2725
130.681712 81.445 162.1800
131.628686 81.418 162.0869
132.582521 81.389 162.0076
133.543269 81.357 161.9500
134.510979 81.324 161.9124
135.485701 81.289 161.8853
136.467486 81.253 161.8562
137.456386 81.217 161.8156
138.452451 81.181 161.7607
139.455735 81.147 161.6954
140.466288 81.113 161.6266
141.484165 81.080 161.5609
142.509418 81.048 161.5013
143.542100 81.014 161.4482
144.582265 80.979 161.4028
145.629968 80.942 161.3665
146.685262 80.903 161.3396
147.748204 80.863 161.3212
148.818849 80.821 161.3127
149.897251 80.777 161.3191
150.983469 80.732 161.3448
152.077557 80.685 161.3902
153.179574 80.638 161.4503
154.289576 80.592 161.5184
155.407622 80.549 161.5871
156.533770 80.510 161.6466
157.668078 80.477 161.6857
158.810606 80.449 161.6994
159.961413 80.423 161.6931
161.120559 80.397 161.6763
162.288105 80.370 161.6563
163.464112 80.340 161.6365
164.648640 80.307 161.6187
165.841752 80.271 161.6051
167.043510 80.233 161.6007
168.253976 80.193 161.6115
169.473213 80.153 161.6411
170.701286 80.113 161.6893
171.938258 80.073 161.7531
173.184194 80.032 161.8283
174.439158 79.992 161.9101
175.703216 79.952 161.9938
176.976434 79.913 162.0758
178.258878 79.876 162.1546
179.550615 79.840 162.2309
180.851713 79.805 162.3073
182.162239 79.771 162.3877
183.482262 79.738 162.4756
184.811850 79.707 162.5726
186.151073 79.677 162.6788
187.500000 79.648 162.7957
188.858702 79.620 162.9253
190.227250 79.592 163.0634
191.605715 79.563 163.1980
192.994169 79.531 163.3170
194.392685 79.496 163.4201
195.801334 79.458 163.5173
197.220191 79.419 163.6170
198.649330 79.382 163.7224
200.088825 79.346 163.8340
201.538751 79.313 163.9521
202.999184 79.281 164.0747
204.470200 79.251 164.1957
205.951875 79.224 164.3087
207.444287 79.198 164.4102
208.947514 79.174 164.4999
210.461634 79.150 164.5801
211.986726 79.125 164.6549
213.522869 79.099 164.7296
215.070144 79.070 164.8094
216.628631 79.040 164.8980
218.198411 79.009 164.9963
219.779567 78.978 165.1021
221.372180 78.949 165.2106
222.976334 78.921 165.3156
224.592112 78.894 165.4120
226.219600 78.867 165.4984
227.858880 78.840 165.5770
229.510039 78.812 165.6524
231.173164 78.783 165.7295
232.848340 78.754 165.8121
234.535655 78.725 165.9015
236.235197 78.694 165.9956
237.947054 78.663 166.0897
239.671317 78.631 166.1787
241.408074 78.598 166.2603
243.157416 78.564 166.3378
244.919435 78.529 166.4215
246.694223 78.494 166.5254
248.481871 78.458 166.6594
250.282473 78.422 166.8252
252.096123 78.386 167.0172
253.922915 78.352 167.2259
255.762945 78.319 167.4391
257.616309 78.290 167.6441
259.483103 78.262 167.8301
261.363424 78.236 167.9929
263.257372 78.210 168.1354
265.165043 78.183 168.2664
267.086538 78.155 168.3961
269.021957 78.126 168.5337
270.971401 78.096 168.6846
272.934972 78.066 168.8499
274.912771 78.037 169.0279
276.904902 78.009 169.2153
278.911469 77.982 169.4082
280.932577 77.957 169.6023
282.968330 77.934 169.7929
285.018835 77.913 169.9750
287.084199 77.894 170.1440
289.164530 77.876 170.2964
291.259935 77.858 170.4313
293.370525 77.837 170.5533
295.496408 77.812 170.6707
297.637697 77.785 170.7914
299.794503 77.755 170.9204
301.966937 77.725 171.0587
304.155114 77.693 171.2056
306.359147 77.663 171.3599
308.579152 77.632 171.5208
310.815244 77.603 171.6872
313.067539 77.573 171.8584
315.336156 77.543 172.0352
317.621211 77.513 172.2196
319.922826 77.481 172.4139
322.241118 77.450 172.6193
324.576210 77.420 172.8347
326.928223 77.390 173.0574
329.297280 77.363 173.2839
331.683504 77.336 173.5114
334.087019 77.311 173.7385
336.507952 77.286 173.9639
338.946427 77.261 174.1862
341.402572 77.235 174.4056
343.876516 77.210 174.6235
346.368387 77.183 174.8409
348.878315 77.157 175.0590
351.406431 77.131 175.2786
353.952867 77.105 175.5012
356.517756 77.079 175.7272
359.101230 77.053 175.9559
361.703426 77.028 176.1868
364.324478 77.004 176.4204
366.964523 76.980 176.6578
369.623699 76.956 176.8992
372.302145 76.933 177.1448
375.000000 76.910 177.3939
377.717405 76.886 177.6455
380.454501 76.863 177.8987
383.211431 76.841 178.1533
385.988339 76.819 178.4098
388.785369 76.797 178.6684
391.602668 76.777 178.9290
394.440383 76.756 179.1915
397.298660 76.736 179.4555
400.177650 76.716 179.7201
403.077502 76.697 179.9850
405.998368 76.678 -179.7501
408.940400 76.659 -179.4854
411.903750 76.640 -179.2203
414.888575 76.621 -178.9523
417.895028 76.601 -178.6784
420.923268 76.582 -178.3958
423.973452 76.563 -178.1033
427.045738 76.545 -177.8017
430.140287 76.528 -177.4941
433.257261 76.512 -177.1853
436.396822 76.497 -176.8788
439.559133 76.484 -176.5750
442.744360 76.472 -176.2735
445.952668 76.461 -175.9767
449.184225 76.453 -175.6907
452.439199 76.445 -175.4233
455.717760 76.437 -175.1777
459.020079 76.427 -174.9493
462.346327 76.413 -174.7265
465.696680 76.397 -174.4977
469.071310 76.378 -174.2561
472.470394 76.359 -173.9994
475.894109 76.339 -173.7289
479.342634 76.320 -173.4493
482.816148 76.301 -173.1670
486.314833 76.282 -172.8845
489.838871 76.262 -172.5974
493.388445 76.241 -172.2989
496.963741 76.220 -171.9851
500.564945 76.201 -171.6587
504.192245 76.184 -171.3270
507.845830 76.169 -170.9974
511.525890 76.155 -170.6733
515.232618 76.140 -170.3535
518.966206 76.126 -170.0331
522.726849 76.110 -169.7066
526.514743 76.095 -169.3695
530.330086 76.080 -169.0208
534.173076 76.066 -168.6641
538.043915 76.054 -168.3056
541.942803 76.042 -167.9485
545.869944 76.031 -167.5916
549.825542 76.020 -167.2337
553.809805 76.010 -166.8759
557.822939 76.001 -166.5207
561.865154 75.993 -166.1692
565.936660 75.986 -165.8191
570.037671 75.978 -165.4671
574.168399 75.969 -165.1103
578.329060 75.960 -164.7481
582.519870 75.951 -164.3810
586.741049 75.940 -164.0082
590.992817 75.930 -163.6269
595.275394 75.919 -163.2352
599.589005 75.909 -162.8354
603.933874 75.901 -162.4337
608.310228 75.894 -162.0352
612.718295 75.889 -161.6417
617.158304 75.883 -161.2499
621.630488 75.877 -160.8521
626.135079 75.871 -160.4404
630.672311 75.867 -160.0121
635.242423 75.864 -159.5714
639.845651 75.863 -159.1241
644.482237 75.864 -158.6721
649.152421 75.866 -158.2145
653.856447 75.872 -157.7536
658.594560 75.880 -157.2978
663.367008 75.892 -156.8589
668.174039 75.904 -156.4454
673.015903 75.917 -156.0555
677.892854 75.928 -155.6798
682.805145 75.936 -155.3079
687.753032 75.942 -154.9323
692.736774 75.947 -154.5481
697.756631 75.950 -154.1516
702.812863 75.954 -153.7415
707.905735 75.958 -153.3208
713.035511 75.964 -152.8932
718.202461 75.971 -152.4613
723.406852 75.979 -152.0253
728.648956 75.987 -151.5851
733.929047 75.995 -151.1404
739.247399 76.005 -150.6913
744.604290 76.015 -150.2376
750.000000 76.026 -149.7799
755.434809 76.039 -149.3185
760.909001 76.052 -148.8528
766.422861 76.067 -148.3819
771.976677 76.082 -147.9053
777.570739 76.099 -147.4233
783.205337 76.117 -146.9376
788.880766 76.136 -146.4489
794.597321 76.156 -145.9551
800.355301 76.178 -145.4534
806.155005 76.203 -144.9445
811.996736 76.232 -144.4342
817.880799 76.264 -143.9320
823.807501 76.300 -143.4475
829.777150 76.338 -142.9884
835.790057 76.376 -142.5558
841.846536 76.413 -142.1422
847.946903 76.448 -141.7370
854.091476 76.481 -141.3327
860.280575 76.513 -140.9253
866.514523 76.545 -140.5108
872.793644 76.576 -140.0854
879.118267 76.609 -139.6497
885.488720 76.643 -139.2096
891.905336 76.679 -138.7701
898.368450 76.715 -138.3313
904.878398 76.753 -137.8899
911.435520 76.791 -137.4439
918.040157 76.831 -136.9948
924.692655 76.873 -136.5461
931.393359 76.916 -136.1018
938.142619 76.961 -135.6666
944.940787 77.007 -135.2426
951.788218 77.055 -134.8282
958.685268 77.102 -134.4199
965.632296 77.150 -134.0143
972.629666 77.199 -133.6091
979.677741 77.248 -133.2041
986.776890 77.297 -132.8007
993.927482 77.347 -132.3973
1001.129891 77.398 -131.9880
1008.384491 77.451 -131.5675
1015.691660 77.506 -131.1372
1023.051781 77.565 -130.7038
1030.465236 77.629 -130.2762
1037.932411 77.696 -129.8661
1045.453698 77.766 -129.4861
1053.029486 77.836 -129.1419
1060.660172 77.905 -128.8299
1068.346153 77.973 -128.5411
1076.087829 78.039 -128.2658
1083.885605 78.103 -127.9975
1091.739887 78.167 -127.7338
1099.651084 78.229 -127.4744
1107.619609 78.291 -127.2178
1115.645878 78.352 -126.9621
1123.730308 78.412 -126.7062
1131.873321 78.472 -126.4495
1140.075341 78.532 -126.1922
1148.336797 78.591 -125.9349
1156.658119 78.651 -125.6773
1165.039741 78.711 -125.4178
1173.482099 78.772 -125.1544
1181.985634 78.836 -124.8873
1190.550789 78.902 -124.6226
1199.178011 78.971 -124.3720
1207.867749 79.042 -124.1483
1216.620457 79.114 -123.9576
1225.436590 79.184 -123.7961
1234.316609 79.253 -123.6539
1243.260976 79.318 -123.5210
1252.270157 79.381 -123.3892
1261.344623 79.441 -123.2541
1270.484846 79.501 -123.1144
1279.691303 79.559 -122.9693
1288.964474 79.616 -122.8181
1298.304842 79.673 -122.6621
1307.712894 79.729 -122.5045
1317.189120 79.786 -122.3486
1326.734016 79.843 -122.1963
1336.348077 79.899 -122.0471
1346.031806 79.953 -121.8984
1355.785708 80.006 -121.7463
1365.610290 80.059 -121.5864
1375.506065 80.110 -121.4129
1385.473549 80.161 -121.2196
1395.513261 80.214 -121.0044
1405.625726 80.269 -120.7723
1415.811469 80.329 -120.5356
1426.071023 80.393 -120.3098
1436.404921 80.459 -120.1041
1446.813703 80.527 -119.9181
1457.297912 80.593 -119.7457
1467.858093 80.659 -119.5808
1478.494798 80.724 -119.4194
1489.208581 80.789 -119.2585
1500.000000 80.853 -119.0947
1510.869618 80.917 -118.9242
1521.818002 80.982 -118.7433
1532.845723 81.046 -118.5491
1543.953355 81.113 -118.3392
1555.141477 81.183 -118.1130
1566.410674 81.257 -117.8750
1577.761531 81.338 -117.6366
1589.194642 81.425 -117.4138
1600.710601 81.517 -117.2188
1612.310010 81.614 -117.0568
1623.993473 81.712 -116.9286
1635.761599 81.813 -116.8334
1647.615002 81.914 -116.7714
1659.554299 82.016 -116.7430
1671.580114 82.118 -116.7476
1683.693072 82.219 -116.7855
1695.893807 82.318 -116.8569
1708.182952 82.415 -116.9604
1720.561150 82.509 -117.0912
1733.029045 82.599 -117.2417
1745.587288 82.686 -117.4025
1758.236533 82.769 -117.5640
1770.977440 82.852 -117.7192
1783.810673 82.935 -117.8680
1796.736900 83.020 -118.0194
1809.756796 83.108 -118.1879
1822.871040 83.197 -118.3858
1836.080315 83.286 -118.6184
1849.385310 83.373 -118.8866
1862.786718 83.458 -119.1886
1876.285239 83.539 -119.5217
1889.881575 83.617 -119.8822
1903.576436 83.690 -120.2657
1917.370535 83.759 -120.6679
1931.264593 83.823 -121.0851
1945.259332 83.884 -121.5166
1959.355483 83.940 -121.9667
1973.553781 83.992 -122.4418
1987.854965 84.037 -122.9432
2002.259781 84.073 -123.4628
2016.768981 84.098 -123.9848
2031.383320 84.113 -124.4896
2046.103561 84.117 -124.9575
2060.930471 84.113 -125.3728
2075.864823 84.102 -125.7253
2090.907395 84.088 -126.0103
2106.058972 84.071 -126.2260
2121.320344 84.055 -126.3720
2136.692305 84.042 -126.4489
2152.175658 84.034 -126.4608
2167.771210 84.034 -126.4187
2183.479774 84.044 -126.3439
2199.302169 84.064 -126.2615
2215.239219 84.093 -126.1923
2231.291755 84.128 -126.1486
2247.460615 84.168 -126.1344
2263.746641 84.209 -126.1473
2280.150683 84.251 -126.1800
2296.673595 84.294 -126.2227
2313.316238 84.337 -126.2668
2330.079481 84.383 -126.3100
2346.964198 84.434 -126.3604
2363.971268 84.489 -126.4325
2381.101578 84.548 -126.5398
2398.356022 84.609 -126.6906
2415.735498 84.669 -126.8881
2433.240913 84.728 -127.1308
2450.873180 84.783 -127.4144
2468.633217 84.833 -127.7328
2486.521951 84.876 -128.0768
2504.540314 84.911 -128.4323
2522.689246 84.938 -128.7809
2540.969692 84.958 -129.1036
2559.382606 84.973 -129.3880
2577.928947 84.987 -129.6312
2596.609683 85.000 -129.8356
2615.425787 85.015 -130.0043
2634.378241 85.031 -130.1406
2653.468031 85.052 -130.2479
2672.696154 85.077 -130.3308
2692.063613 85.110 -130.3966
2711.571415 85.150 -130.4588
2731.220579 85.200 -130.5392
2751.012130 85.257 -130.6633
2770.947098 85.319 -130.8512
2791.026522 85.383 -131.1112
2811.251451 85.444 -131.4398
2831.622938 85.499 -131.8249
2852.142045 85.546 -132.2501
2872.809842 85.585 -132.6973
2893.627406 85.614 -133.1463
2914.595823 85.636 -133.5757
2935.716186 85.652 -133.9687
2956.989596 85.666 -134.3196
2978.417161 85.681 -134.6328
3000.000000 85.698 -134.9182
3021.739237 85.719 -135.1870
3043.636005 85.743 -135.4483
3065.691446 85.771 -135.7068
3087.906710 85.802 -135.9648
3110.282955 85.837 -136.2267
3132.821347 85.877 -136.5018
3155.523062 85.921 -136.8013
3178.389283 85.968 -137.1337
3201.421202 86.017 -137.5033
3224.620020 86.067 -137.9117
3247.986946 86.117 -138.3585
3271.523198 86.165 -138.8405
3295.230004 86.212 -139.3503
3319.108599 86.258 -139.8799
3343.160228 86.304 -140.4276
3367.386145 86.352 -140.9999
3391.787613 86.402 -141.6086
3416.365904 86.455 -142.2658
3441.122300 86.508 -142.9803
3466.058091 86.561 -143.7565
3491.174576 86.613 -144.5986
3516.473066 86.664 -145.5158
3541.954880 86.713 -146.5220
3567.621345 86.758 -147.6312
3593.473800 86.796 -148.8541
3619.513592 86.822 -150.1966
3645.742080 86.832 -151.6579
3672.160630 86.821 -153.2279
3698.770620 86.784 -154.8859
3725.573436 86.719 -156.6066
3752.570477 86.622 -158.3638
3779.763150 86.493 -160.1311
3807.152872 86.327 -161.8782
3834.741071 86.124 -163.5663
3862.529185 85.882 -165.1478
3890.518664 85.603 -166.5721
3918.710966 85.288 -167.7923
3947.107561 84.944 -168.7673
3975.709929 84.575 -169.4622
4004.519563 84.187 -169.8485
4033.537962 83.787 -169.9040
4062.766641 83.383 -169.6094
4092.207123 82.982 -168.9476
4121.860942 82.593 -167.9114
4151.729646 82.227 -166.5109
4181.814790 81.894 -164.7755
4212.117944 81.603 -162.7493
4242.640687 81.361 -160.4830
4273.384610 81.173 -158.0345
4304.351317 81.046 -155.4722
4335.542421 80.980 -152.8744
4366.959549 80.974 -150.3225
4398.604338 81.025 -147.8927
4430.478438 81.125 -145.6478
4462.583511 81.267 -143.6286
4494.921231 81.442 -141.8561
4527.493283 81.643 -140.3407
4560.301365 81.865 -139.0882
4593.347189 82.099 -138.0986
4626.632476 82.340 -137.3618
4660.158962 82.584 -136.8606
4693.928395 82.827 -136.5788
4727.942535 83.068 -136.5053
4762.203156 83.303 -136.6351
4796.712043 83.530 -136.9671
4831.470996 83.745 -137.4983
4866.481826 83.944 -138.2182
4901.746360 84.122 -139.1096
4937.266434 84.278 -140.1529
4973.043902 84.407 -141.3265
5009.080628 84.507 -142.6029
5045.378492 84.576 -143.9477
5081.939384 84.613 -145.3234
5118.765212 84.619 -146.6954
5155.857894 84.598 -148.0353
5193.219366 84.550 -149.3232
5230.851574 84.480 -150.5440
5268.756481 84.388 -151.6831
5306.936062 84.278 -152.7279
5345.392309 84.150 -153.6700
5384.127225 84.008 -154.5039
5423.142830 83.852 -155.2215
5462.441159 83.685 -155.8107
5502.024259 83.508 -156.2595
5541.894195 83.326 -156.5607
5582.053045 83.141 -156.7160
5622.502902 82.958 -156.7340
5663.245876 82.778 -156.6252
5704.284090 82.604 -156.4007
5745.619684 82.436 -156.0732
5787.254813 82.276 -155.6543
5829.191647 82.123 -155.1499
5871.432373 81.977 -154.5599
5913.979192 81.839 -153.8820
5956.834323 81.710 -153.1164
6000.000000 81.591 -152.2681
6043.478473 81.485 -151.3445
6087.272010 81.393 -150.3547
6131.382892 81.315 -149.3111
6175.813420 81.252 -148.2279
6220.565910 81.203 -147.1147
6265.642695 81.167 -145.9736
6311.046124 81.144 -144.8017
6356.778566 81.135 -143.5963
6402.842404 81.141 -142.3589
6449.240040 81.163 -141.0938
6495.973891 81.203 -139.8081
6543.046396 81.262 -138.5122
6590.460007 81.339 -137.2167
6638.217197 81.435 -135.9284
6686.320456 81.550 -134.6497
6734.772290 81.686 -133.3813
6783.575226 81.845 -132.1272
6832.731809 82.029 -130.8961
6882.244600 82.241 -129.7030
6932.116181 82.482 -128.5697
6982.349153 82.754 -127.5215
7032.946133 83.058 -126.5822
7083.909760 83.396 -125.7743
7135.242690 83.768 -125.1231
7186.947600 84.177 -124.6624
7239.027185 84.624 -124.4363
7291.484160 85.108 -124.5016
7344.321260 85.627 -124.9256
7397.541239 86.175 -125.7792
7451.146872 86.741 -127.1284
7505.140954 87.314 -129.0296
7559.526299 87.877 -131.5266
7614.305743 88.413 -134.6447
7669.482141 88.901 -138.3841
7725.058371 89.320 -142.7143
7781.037328 89.647 -147.5667
7837.421932 89.864 -152.8297
7894.215122 89.955 -158.3520
7951.419859 89.913 -163.9561
8009.039125 89.739 -169.4570
8067.075924 89.443 -174.6827
8125.533282 89.040 -179.4939
8184.414245 88.549 176.2072
8243.721885 87.991 172.4782
8303.459292 87.388 169.3439
8363.629581 86.756 166.8031
8424.235888 86.114 164.8365
8485.281374 85.475 163.4087
8546.769221 84.854 162.4680
8608.702634 84.260 161.9502
8671.084842 83.701 161.7881
8733.919097 83.180 161.9193
8797.208675 82.699 162.2916
8860.956876 82.258 162.8636
8925.167022 81.859 163.5986
8989.842461 81.500 164.4598
9054.986566 81.182 165.4115
9120.602731 80.903 166.4217
9186.694378 80.662 167.4649
9253.264952 80.459 168.5211
9320.317925 80.293 169.5685
9387.856790 80.165 170.5770
9455.885071 80.075 171.5074
9524.406312 80.021 172.3174
9593.424086 79.999 172.9682
9662.941992 80.007 173.4293
9732.963653 80.038 173.6743
9803.492719 80.088 173.6776
9874.532869 80.150 173.4153
9946.087805 80.218 172.8713
10018.161257 80.282 172.0430
10090.756983 80.335 170.9411
10163.878768 80.370 169.5839
10237.530423 80.381 167.9925
10311.715789 80.361 166.1905
10386.438732 80.304 164.2093
10461.703149 80.204 162.0919
10537.512962 80.058 159.8896
10613.872125 79.864 157.6546
10690.784618 79.620 155.4346
10768.254450 79.329 153.2737
10846.285661 78.990 151.2169
10924.882318 78.604 149.3114
11004.048518 78.175 147.6024
11083.788390 77.706 146.1294
11164.106090 77.200 144.9276
11245.005805 76.661 144.0363
11326.491752 76.093 143.5042
11408.568180 75.500 143.3874
11491.239368 74.891 143.7416
11574.509626 74.276 144.6142
11658.383294 73.670 146.0390
11742.864745 73.088 148.0259
11827.958384 72.552 150.5437
11913.668646 72.079 153.5055
12000.000000 71.686 156.7727
12086.956947 71.381 160.1816
12174.544019 71.164 163.5748
12262.765784 71.027 166.8247
12351.626840 70.956 169.8427
12441.131819 70.938 172.5829
12531.285389 70.956 175.0424
12622.092249 70.999 177.2521
12713.557132 71.060 179.2595
12805.684808 71.134 -178.8879
12898.480079 71.222 -177.1489
12991.947783 71.324 -175.4917
13086.092792 71.445 -173.8979
13180.920015 71.589 -172.3675
13276.434395 71.759 -170.9155
13372.640911 71.960 -169.5644
13469.544580 72.194 -168.3399
13567.150452 72.463 -167.2746
13665.463617 72.768 -166.4094
13764.489200 73.108 -165.7871
13864.232362 73.482 -165.4490
13964.698305 73.888 -165.4373
14065.892266 74.322 -165.7985
14167.819519 74.779 -166.5790
14270.485380 75.251 -167.8206
14373.895200 75.730 -169.5613
14478.054370 76.204 -171.8335
14582.968320 76.660 -174.6558
14688.642520 77.083 -178.0235
14795.082478 77.457 178.0928
14902.293745 77.771 173.7443
15010.281908 78.012 169.0010
15119.052599 78.175 163.9464
15228.611486 78.256 158.6664
15338.964283 78.256 153.2412
15450.116741 78.178 147.7405
15562.074656 78.027 142.2216
15674.843864 77.807 136.7264
15788.430244 77.525 131.2817
15902.839718 77.184 125.9045
16018.078250 76.786 120.6068
16134.151848 76.333 115.3998
16251.066563 75.822 110.2996
16368.828491 75.249 105.3376
16487.443769 74.610 100.5686
16606.918584 73.902 96.0679
16727.259161 73.124 91.9223
16848.471777 72.282 88.2174
16970.562748 71.387 85.0201
17093.538442 70.452 82.3660
17217.405268 69.495 80.2557
17342.169684 68.532 78.6556
17467.838194 67.580 77.5006
17594.417350 66.652 76.7018
17721.913751 65.754 76.1580
17850.334044 64.891 75.7715
17979.684923 64.057 75.4716
18109.973131 63.244 75.2280
18241.205462 62.440 75.0433
18373.388756 61.639 74.9396
18506.529905 60.833 74.9501
18640.635849 60.021 75.1069
18775.713581 59.203 75.4255
18911.770141 58.379 75.9044
19048.812624 57.553 76.5349
19186.848172 56.726 77.3108
19325.883983 55.906 78.2267
19465.927305 55.109 79.2670
19606.985439 54.364 80.3875
19749.065738 53.717 81.4919
19892.175609 53.229 82.4209
20036.322514 52.964 82.9681
