* Measurement data measured by REW V5.30.9
* Source: EXCL: Microphone (USB Sound Device        ), MICROPHONE (Master Volume), L, volume: 0.560
* Format: 256k Log Swept Sine, 1 sweep at -10.0 dBFS with no timing reference
* Dated: Mar 3, 2024 1:50:45 AM
* REW Settings:
*  C-weighting compensation: Off
*  Target level: 75.0 dB
* Note: Raptor Toes L
* Measurement: L Raptor Toes
* Smoothing: 1/12 octave
* Frequency Step: 96 ppo
* Start Frequency: 0.36621094 Hz
*
* Freq(Hz) SPL(dB) Phase(degrees)
0.366211 95.343 -51.7228
0.368865 95.348 -51.7788
0.371538 95.354 -51.8626
0.374230 95.362 -51.9676
0.376942 95.371 -52.0881
0.379673 95.381 -52.2200
0.382424 95.391 -52.3605
0.385196 95.402 -52.5081
0.387987 95.412 -52.6617
0.390798 95.423 -52.8208
0.393630 95.434 -52.9851
0.396483 95.445 -53.1545
0.399356 95.456 -53.3290
0.402250 95.467 -53.5085
0.405165 95.478 -53.6931
0.408101 95.489 -53.8827
0.411058 95.500 -54.0774
0.414037 95.512 -54.2772
0.417037 95.523 -54.4821
0.420059 95.535 -54.6921
0.423103 95.547 -54.9072
0.426169 95.558 -55.1275
0.429257 95.570 -55.3529
0.432367 95.582 -55.5835
0.435501 95.594 -55.8192
0.438656 95.606 -56.0601
0.441835 95.618 -56.3062
0.445037 95.631 -56.5575
0.448262 95.643 -56.8138
0.451510 95.655 -57.0754
0.454782 95.668 -57.3420
0.458077 95.680 -57.6138
0.461397 95.693 -57.8906
0.464740 95.706 -58.1725
0.468108 95.719 -58.4595
0.471500 95.732 -58.7514
0.474917 95.745 -59.0483
0.478358 95.758 -59.3502
0.481825 95.771 -59.6570
0.485316 95.785 -59.9686
0.488833 95.798 -60.2850
0.492375 95.812 -60.6061
0.495943 95.825 -60.9320
0.499537 95.839 -61.2625
0.503157 95.853 -61.5975
0.506803 95.867 -61.9371
0.510475 95.881 -62.2810
0.514174 95.895 -62.6294
0.517900 95.909 -62.9820
0.521653 95.924 -63.3387
0.525433 95.938 -63.6996
0.529241 95.953 -64.0645
0.533076 95.968 -64.4333
0.536939 95.982 -64.8059
0.540830 95.997 -65.1821
0.544749 96.012 -65.5620
0.548696 96.027 -65.9454
0.552673 96.043 -66.3321
0.556677 96.058 -66.7221
0.560711 96.073 -67.1152
0.564774 96.089 -67.5113
0.568867 96.105 -67.9103
0.572989 96.120 -68.3120
0.577141 96.136 -68.7163
0.581324 96.152 -69.1231
0.585536 96.168 -69.5322
0.589779 96.185 -69.9435
0.594053 96.201 -70.3568
0.598358 96.217 -70.7721
0.602694 96.234 -71.1890
0.607061 96.251 -71.6075
0.611460 96.268 -72.0275
0.615891 96.285 -72.4488
0.620354 96.302 -72.8711
0.624849 96.319 -73.2944
0.629377 96.336 -73.7186
0.633938 96.354 -74.1433
0.638532 96.371 -74.5686
0.643159 96.389 -74.9942
0.647819 96.407 -75.4199
0.652514 96.425 -75.8457
0.657242 96.443 -76.2713
0.662005 96.461 -76.6965
0.666802 96.480 -77.1213
0.671634 96.498 -77.5455
0.676501 96.517 -77.9688
0.681403 96.535 -78.3913
0.686341 96.554 -78.8126
0.691314 96.573 -79.2327
0.696324 96.592 -79.6514
0.701369 96.612 -80.0687
0.706452 96.631 -80.4845
0.711571 96.650 -80.8989
0.716727 96.669 -81.3121
0.721921 96.688 -81.7245
0.727153 96.706 -82.1367
0.732422 96.724 -82.5498
0.737729 96.741 -82.9649
0.743075 96.757 -83.3831
0.748460 96.773 -83.8055
0.753883 96.788 -84.2326
0.759346 96.803 -84.6650
0.764849 96.818 -85.1028
0.770391 96.832 -85.5461
0.775974 96.847 -85.9948
0.781597 96.861 -86.4489
0.787261 96.876 -86.9082
0.792965 96.890 -87.3726
0.798712 96.905 -87.8420
0.804499 96.919 -88.3163
0.810329 96.934 -88.7951
0.816201 96.948 -89.2784
0.822116 96.962 -89.7659
0.828073 96.976 -90.2574
0.834073 96.990 -90.7528
0.840118 97.004 -91.2518
0.846205 97.018 -91.7543
0.852337 97.031 -92.2599
0.858514 97.045 -92.7684
0.864735 97.059 -93.2797
0.871001 97.072 -93.7934
0.877313 97.085 -94.3093
0.883670 97.098 -94.8272
0.890074 97.111 -95.3468
0.896523 97.123 -95.8677
0.903020 97.136 -96.3898
0.909564 97.148 -96.9128
0.916155 97.160 -97.4363
0.922793 97.172 -97.9601
0.929480 97.184 -98.4839
0.936216 97.195 -99.0073
0.943000 97.206 -99.5301
0.949833 97.217 -100.0520
0.956716 97.228 -100.5727
0.963649 97.238 -101.0918
0.970632 97.248 -101.6090
0.977666 97.258 -102.1240
0.984750 97.267 -102.6366
0.991886 97.276 -103.1462
0.999074 97.285 -103.6527
1.006313 97.293 -104.1557
1.013605 97.301 -104.6548
1.020950 97.308 -105.1498
1.028349 97.315 -105.6403
1.035801 97.322 -106.1259
1.043306 97.328 -106.6064
1.050867 97.333 -107.0814
1.058482 97.338 -107.5508
1.066152 97.343 -108.0144
1.073878 97.347 -108.4721
1.081659 97.350 -108.9242
1.089498 97.353 -109.3713
1.097393 97.355 -109.8142
1.105345 97.357 -110.2541
1.113355 97.358 -110.6924
1.121422 97.359 -111.1302
1.129549 97.358 -111.5685
1.137734 97.358 -112.0078
1.145978 97.356 -112.4487
1.154283 97.354 -112.8914
1.162647 97.352 -113.3362
1.171072 97.349 -113.7831
1.179558 97.345 -114.2321
1.188106 97.340 -114.6833
1.196715 97.335 -115.1368
1.205387 97.329 -115.5923
1.214122 97.323 -116.0500
1.222920 97.316 -116.5097
1.231781 97.308 -116.9713
1.240708 97.299 -117.4346
1.249698 97.290 -117.8995
1.258754 97.280 -118.3658
1.267875 97.270 -118.8333
1.277063 97.258 -119.3017
1.286317 97.246 -119.7706
1.295638 97.233 -120.2398
1.305027 97.220 -120.7088
1.314484 97.206 -121.1772
1.324009 97.191 -121.6446
1.333603 97.175 -122.1103
1.343267 97.159 -122.5739
1.353001 97.141 -123.0347
1.362805 97.123 -123.4920
1.372681 97.105 -123.9451
1.382628 97.085 -124.3932
1.392647 97.065 -124.8353
1.402739 97.044 -125.2708
1.412904 97.022 -125.6986
1.423142 96.999 -126.1180
1.433455 96.975 -126.5282
1.443842 96.951 -126.9286
1.454305 96.925 -127.3191
1.464843 96.898 -127.6997
1.475458 96.870 -128.0710
1.486150 96.841 -128.4337
1.496919 96.810 -128.7883
1.507766 96.778 -129.1356
1.518692 96.744 -129.4757
1.529697 96.708 -129.8090
1.540782 96.671 -130.1354
1.551947 96.632 -130.4551
1.563193 96.592 -130.7679
1.574521 96.551 -131.0737
1.585931 96.508 -131.3723
1.597423 96.464 -131.6637
1.608998 96.419 -131.9476
1.620658 96.373 -132.2237
1.632402 96.326 -132.4918
1.644231 96.278 -132.7516
1.656146 96.230 -133.0027
1.668147 96.180 -133.2449
1.680235 96.131 -133.4777
1.692410 96.081 -133.7007
1.704674 96.031 -133.9134
1.717027 95.980 -134.1154
1.729469 95.930 -134.3062
1.742002 95.879 -134.4851
1.754625 95.829 -134.6515
1.767340 95.780 -134.8047
1.780147 95.730 -134.9438
1.793046 95.682 -135.0681
1.806040 95.633 -135.1761
1.819127 95.585 -135.2666
1.832309 95.537 -135.3379
1.845587 95.489 -135.3884
1.858961 95.439 -135.4166
1.872431 95.389 -135.4212
1.886000 95.338 -135.4017
1.899666 95.286 -135.3575
1.913432 95.232 -135.2885
1.927298 95.179 -135.1949
1.941264 95.124 -135.0770
1.955331 95.069 -134.9350
1.969500 95.015 -134.7695
1.983772 94.960 -134.5812
1.998147 94.907 -134.3706
2.012626 94.854 -134.1387
2.027211 94.803 -133.8864
2.041901 94.754 -133.6147
2.056697 94.707 -133.3250
2.071601 94.662 -133.0186
2.086613 94.621 -132.6969
2.101733 94.583 -132.3617
2.116963 94.549 -132.0144
2.132303 94.519 -131.6564
2.147755 94.494 -131.2889
2.163318 94.474 -130.9121
2.178995 94.460 -130.5255
2.194785 94.451 -130.1272
2.210689 94.448 -129.7145
2.226709 94.450 -129.2846
2.242844 94.458 -128.8355
2.259097 94.472 -128.3666
2.275467 94.490 -127.8788
2.291956 94.514 -127.3740
2.308565 94.542 -126.8548
2.325294 94.575 -126.3247
2.342144 94.613 -125.7873
2.359116 94.654 -125.2465
2.376211 94.700 -124.7063
2.393430 94.749 -124.1710
2.410774 94.802 -123.6447
2.428243 94.858 -123.1316
2.445839 94.918 -122.6356
2.463562 94.980 -122.1608
2.481415 95.044 -121.7106
2.499396 95.111 -121.2880
2.517508 95.181 -120.8954
2.535750 95.253 -120.5340
2.554126 95.329 -120.2036
2.572634 95.408 -119.9029
2.591276 95.491 -119.6297
2.610054 95.578 -119.3821
2.628967 95.670 -119.1583
2.648018 95.766 -118.9576
2.667206 95.867 -118.7795
2.686534 95.971 -118.6242
2.706002 96.079 -118.4918
2.725610 96.190 -118.3828
2.745361 96.302 -118.2976
2.765255 96.416 -118.2367
2.785294 96.530 -118.2005
2.805477 96.645 -118.1894
2.825807 96.758 -118.2039
2.846284 96.871 -118.2447
2.866909 96.981 -118.3124
2.887684 97.089 -118.4075
2.908609 97.195 -118.5311
2.929686 97.298 -118.6836
2.950916 97.399 -118.8656
2.972299 97.498 -119.0770
2.993838 97.596 -119.3169
3.015532 97.692 -119.5840
3.037384 97.787 -119.8762
3.059394 97.881 -120.1914
3.081564 97.973 -120.5270
3.103894 98.064 -120.8807
3.126386 98.153 -121.2500
3.149041 98.239 -121.6327
3.171861 98.324 -122.0266
3.194845 98.406 -122.4301
3.217996 98.485 -122.8419
3.241315 98.560 -123.2617
3.264803 98.633 -123.6898
3.288461 98.702 -124.1276
3.312291 98.768 -124.5775
3.336293 98.830 -125.0415
3.360469 98.889 -125.5210
3.384820 98.945 -126.0161
3.409348 98.997 -126.5255
3.434054 99.045 -127.0469
3.458938 99.090 -127.5777
3.484003 99.133 -128.1144
3.509250 99.172 -128.6538
3.534679 99.208 -129.1923
3.560293 99.241 -129.7270
3.586092 99.270 -130.2553
3.612079 99.297 -130.7755
3.638253 99.321 -131.2872
3.664618 99.341 -131.7913
3.691173 99.358 -132.2899
3.717921 99.371 -132.7850
3.744862 99.381 -133.2781
3.771999 99.386 -133.7693
3.799332 99.389 -134.2576
3.826864 99.388 -134.7412
3.854595 99.384 -135.2173
3.882527 99.378 -135.6825
3.910661 99.369 -136.1329
3.938999 99.359 -136.5642
3.967543 99.346 -136.9722
3.996294 99.332 -137.3532
4.025252 99.316 -137.7052
4.054421 99.298 -138.0297
4.083801 99.278 -138.3317
4.113394 99.256 -138.6175
4.143201 99.231 -138.8918
4.173225 99.205 -139.1572
4.203466 99.178 -139.4136
4.233926 99.150 -139.6593
4.264606 99.122 -139.8914
4.295509 99.095 -140.1062
4.326636 99.069 -140.2995
4.357989 99.045 -140.4678
4.389569 99.022 -140.6079
4.421378 99.001 -140.7180
4.453417 98.981 -140.7978
4.485688 98.963 -140.8489
4.518193 98.947 -140.8739
4.550934 98.933 -140.8764
4.583912 98.921 -140.8605
4.617129 98.912 -140.8306
4.650587 98.906 -140.7907
4.684287 98.904 -140.7444
4.718231 98.905 -140.6942
4.752421 98.911 -140.6411
4.786859 98.921 -140.5853
4.821547 98.936 -140.5264
4.856485 98.955 -140.4649
4.891677 98.978 -140.4028
4.927125 99.005 -140.3432
4.962829 99.036 -140.2901
4.998791 99.069 -140.2481
5.035015 99.105 -140.2215
5.071500 99.144 -140.2140
5.108251 99.184 -140.2283
5.145267 99.227 -140.2657
5.182552 99.273 -140.3260
5.220107 99.320 -140.4089
5.257934 99.370 -140.5136
5.296035 99.420 -140.6400
5.334412 99.472 -140.7879
5.373067 99.523 -140.9576
5.412003 99.574 -141.1498
5.451221 99.623 -141.3651
5.490722 99.671 -141.6045
5.530510 99.717 -141.8681
5.570587 99.761 -142.1556
5.610953 99.804 -142.4654
5.651613 99.844 -142.7949
5.692567 99.882 -143.1407
5.733818 99.918 -143.4996
5.775367 99.950 -143.8685
5.817218 99.979 -144.2454
5.859372 100.004 -144.6293
5.901831 100.026 -145.0197
5.944598 100.044 -145.4163
5.987675 100.058 -145.8176
6.031065 100.069 -146.2210
6.074768 100.076 -146.6230
6.118788 100.081 -147.0196
6.163127 100.082 -147.4074
6.207788 100.080 -147.7835
6.252772 100.076 -148.1464
6.298082 100.068 -148.4955
6.343721 100.058 -148.8303
6.389690 100.046 -149.1502
6.435992 100.032 -149.4539
6.482630 100.016 -149.7399
6.529606 100.000 -150.0063
6.576922 99.984 -150.2516
6.624581 99.968 -150.4747
6.672585 99.952 -150.6756
6.720938 99.937 -150.8553
6.769640 99.922 -151.0155
6.818696 99.909 -151.1585
6.868107 99.898 -151.2864
6.917876 99.889 -151.4013
6.968006 99.883 -151.5043
7.018499 99.880 -151.5966
7.069358 99.880 -151.6800
7.120586 99.883 -151.7572
7.172184 99.889 -151.8318
7.224157 99.898 -151.9078
7.276506 99.909 -151.9889
7.329235 99.924 -152.0780
7.382345 99.941 -152.1768
7.435841 99.961 -152.2866
7.489724 99.983 -152.4089
7.543997 100.006 -152.5451
7.598664 100.031 -152.6970
7.653728 100.056 -152.8662
7.709189 100.081 -153.0537
7.765053 100.106 -153.2596
7.821322 100.131 -153.4834
7.877998 100.155 -153.7235
7.935086 100.178 -153.9783
7.992587 100.199 -154.2461
8.050504 100.219 -154.5253
8.108841 100.236 -154.8147
8.167601 100.250 -155.1127
8.226787 100.262 -155.4170
8.286402 100.272 -155.7247
8.346449 100.279 -156.0326
8.406931 100.284 -156.3380
8.467851 100.286 -156.6389
8.529212 100.286 -156.9336
8.591018 100.285 -157.2208
8.653272 100.281 -157.4986
8.715977 100.276 -157.7655
8.779137 100.270 -158.0198
8.842754 100.264 -158.2608
8.906833 100.257 -158.4883
8.971375 100.250 -158.7026
9.036386 100.244 -158.9048
9.101867 100.238 -159.0956
9.167823 100.233 -159.2762
9.234257 100.230 -159.4476
9.301172 100.228 -159.6115
9.368572 100.227 -159.7699
9.436460 100.228 -159.9254
9.504841 100.231 -160.0800
9.573717 100.235 -160.2358
9.643092 100.241 -160.3943
9.712970 100.248 -160.5569
9.783354 100.255 -160.7250
9.854248 100.264 -160.8999
9.925656 100.273 -161.0825
9.997581 100.282 -161.2730
10.070028 100.291 -161.4714
10.143000 100.299 -161.6771
10.216500 100.307 -161.8893
10.290533 100.314 -162.1073
10.365103 100.321 -162.3302
10.440212 100.325 -162.5566
10.515866 100.329 -162.7851
10.592069 100.332 -163.0141
10.668823 100.334 -163.2423
10.746134 100.334 -163.4687
10.824005 100.334 -163.6924
10.902440 100.332 -163.9124
10.981443 100.331 -164.1283
11.061020 100.328 -164.3397
11.141172 100.326 -164.5465
11.221906 100.323 -164.7491
11.303225 100.321 -164.9479
11.385133 100.319 -165.1436
11.467634 100.317 -165.3367
11.550734 100.315 -165.5281
11.634435 100.313 -165.7186
11.718742 100.312 -165.9089
11.803661 100.310 -166.0997
11.889195 100.309 -166.2912
11.975349 100.308 -166.4839
12.062128 100.307 -166.6777
12.149535 100.305 -166.8727
12.237576 100.304 -167.0685
12.326254 100.301 -167.2647
12.415575 100.299 -167.4609
12.505544 100.296 -167.6567
12.596164 100.293 -167.8517
12.687441 100.290 -168.0456
12.779379 100.287 -168.2383
12.871984 100.284 -168.4299
12.965260 100.281 -168.6206
13.059211 100.278 -168.8109
13.153843 100.275 -169.0016
13.249161 100.273 -169.1933
13.345170 100.271 -169.3870
13.441875 100.270 -169.5835
13.539280 100.268 -169.7835
13.637391 100.267 -169.9877
13.736214 100.265 -170.1963
13.835752 100.264 -170.4094
13.936011 100.261 -170.6268
14.036998 100.259 -170.8477
14.138716 100.255 -171.0714
14.241171 100.251 -171.2967
14.344368 100.245 -171.5223
14.448313 100.239 -171.7469
14.553011 100.232 -171.9692
14.658468 100.225 -172.1882
14.764689 100.217 -172.4031
14.871680 100.209 -172.6135
14.979446 100.201 -172.8194
15.087994 100.193 -173.0212
15.197328 100.186 -173.2197
15.307454 100.179 -173.4161
15.418378 100.174 -173.6118
15.530106 100.169 -173.8083
15.642643 100.165 -174.0069
15.755996 100.161 -174.2087
15.870171 100.158 -174.4149
15.985172 100.154 -174.6256
16.101007 100.151 -174.8410
16.217682 100.147 -175.0605
16.335201 100.143 -175.2833
16.453573 100.138 -175.5081
16.572803 100.133 -175.7336
16.692898 100.126 -175.9583
16.813862 100.119 -176.1809
16.935701 100.112 -176.4004
17.058424 100.104 -176.6161
17.182035 100.097 -176.8278
17.306543 100.089 -177.0356
17.431953 100.081 -177.2402
17.558273 100.075 -177.4425
17.685509 100.068 -177.6435
17.813665 100.062 -177.8442
17.942751 100.056 -178.0457
18.072771 100.051 -178.2487
18.203733 100.045 -178.4535
18.335646 100.040 -178.6602
18.468513 100.034 -178.8686
18.602345 100.028 -179.0780
18.737144 100.021 -179.2879
18.872921 100.014 -179.4974
19.009682 100.006 -179.7060
19.147434 99.999 -179.9132
19.286184 99.991 179.8812
19.425940 99.982 179.6774
19.566708 99.974 179.4749
19.708496 99.966 179.2735
19.851313 99.957 179.0727
19.995163 99.949 178.8720
20.140057 99.940 178.6713
20.285999 99.932 178.4702
20.433001 99.923 178.2687
20.581066 99.914 178.0669
20.730206 99.904 177.8648
20.880424 99.894 177.6627
21.031733 99.885 177.4604
21.184137 99.874 177.2581
21.337646 99.864 177.0555
21.492268 99.854 176.8524
21.648010 99.843 176.6488
21.804880 99.832 176.4444
21.962887 99.821 176.2394
22.122040 99.809 176.0339
22.282345 99.797 175.8284
22.443811 99.785 175.6233
22.606449 99.772 175.4192
22.770266 99.759 175.2164
22.935268 99.746 175.0154
23.101467 99.733 174.8160
23.268869 99.720 174.6182
23.437485 99.706 174.4218
23.607323 99.693 174.2266
23.778391 99.680 174.0324
23.950699 99.667 173.8396
24.124256 99.653 173.6487
24.299070 99.640 173.4604
24.475151 99.626 173.2756
24.652508 99.613 173.0953
24.831150 99.600 172.9200
25.011087 99.588 172.7495
25.192327 99.576 172.5832
25.374882 99.566 172.4196
25.558758 99.557 172.2568
25.743967 99.550 172.0923
25.930519 99.543 171.9237
26.118422 99.538 171.7490
26.307686 99.534 171.5666
26.498322 99.529 171.3757
26.690340 99.525 171.1766
26.883749 99.520 170.9698
27.078560 99.514 170.7567
27.274782 99.508 170.5388
27.472427 99.500 170.3176
27.671503 99.492 170.0947
27.872023 99.482 169.8715
28.073996 99.471 169.6490
28.277431 99.460 169.4285
28.482342 99.447 169.2104
28.688736 99.434 168.9955
28.896626 99.421 168.7838
29.106022 99.407 168.5753
29.316936 99.392 168.3696
29.529379 99.378 168.1661
29.743361 99.364 167.9641
29.958893 99.349 167.7628
30.175987 99.334 167.5618
30.394655 99.319 167.3609
30.614908 99.304 167.1601
30.836756 99.288 166.9596
31.060211 99.273 166.7600
31.285286 99.256 166.5615
31.511992 99.240 166.3644
31.740341 99.224 166.1685
31.970345 99.208 165.9736
32.202015 99.192 165.7794
32.435364 99.176 165.5850
32.670403 99.161 165.3899
32.907146 99.146 165.1935
33.145607 99.131 164.9950
33.385796 99.116 164.7939
33.627724 99.101 164.5899
33.871403 99.086 164.3829
34.116848 99.071 164.1731
34.364071 99.055 163.9612
34.613087 99.039 163.7480
34.863907 99.022 163.5349
35.116547 99.005 163.3224
35.371017 98.987 163.1117
35.627331 98.969 162.9031
35.885502 98.951 162.6967
36.145542 98.932 162.4927
36.407467 98.914 162.2910
36.671291 98.894 162.0914
36.937027 98.875 161.8942
37.204689 98.856 161.6993
37.474289 98.836 161.5068
37.745842 98.816 161.3167
38.019363 98.796 161.1291
38.294868 98.777 160.9438
38.572369 98.757 160.7603
38.851879 98.737 160.5781
39.133415 98.718 160.3964
39.416992 98.698 160.2143
39.702625 98.679 160.0311
39.990326 98.660 159.8464
40.280113 98.640 159.6604
40.571999 98.620 159.4736
40.866001 98.599 159.2869
41.162132 98.578 159.1010
41.460411 98.557 158.9163
41.760849 98.536 158.7327
42.063465 98.515 158.5500
42.368275 98.494 158.3680
42.675293 98.472 158.1865
42.984535 98.451 158.0056
43.296021 98.429 157.8257
43.609760 98.408 157.6469
43.925774 98.386 157.4687
44.244080 98.365 157.2908
44.564690 98.344 157.1127
44.887623 98.323 156.9340
45.212898 98.301 156.7547
45.540531 98.280 156.5748
45.870537 98.259 156.3946
46.202934 98.237 156.2141
46.537739 98.215 156.0332
46.874969 98.194 155.8519
47.214645 98.172 155.6700
47.556782 98.150 155.4873
47.901398 98.127 155.3040
48.248512 98.104 155.1204
48.598141 98.081 154.9371
48.950302 98.057 154.7549
49.305016 98.032 154.5750
49.662300 98.007 154.3980
50.022175 97.982 154.2245
50.384655 97.956 154.0543
50.749763 97.931 153.8861
51.117516 97.906 153.7187
51.487934 97.881 153.5509
51.861038 97.856 153.3822
52.236843 97.830 153.2132
52.615372 97.804 153.0450
52.996643 97.778 152.8789
53.380680 97.751 152.7155
53.767498 97.725 152.5546
54.157120 97.698 152.3956
54.549564 97.672 152.2376
54.944855 97.646 152.0797
55.343006 97.620 151.9214
55.744045 97.595 151.7618
56.147991 97.570 151.6005
56.554863 97.544 151.4371
56.964684 97.519 151.2712
57.377472 97.493 151.1031
57.793251 97.467 150.9330
58.212044 97.441 150.7610
58.633873 97.414 150.5876
59.058758 97.386 150.4134
59.486721 97.358 150.2391
59.917786 97.329 150.0660
60.351974 97.300 149.8954
60.789310 97.269 149.7287
61.229816 97.239 149.5664
61.673512 97.209 149.4086
62.120422 97.178 149.2547
62.570572 97.148 149.1039
63.023983 97.118 148.9557
63.480682 97.087 148.8095
63.940689 97.057 148.6653
64.404030 97.026 148.5231
64.870728 96.996 148.3835
65.340805 96.965 148.2467
65.814293 96.934 148.1129
66.291214 96.902 147.9815
66.771591 96.871 147.8513
67.255447 96.840 147.7207
67.742805 96.809 147.5889
68.233696 96.778 147.4552
68.728142 96.747 147.3198
69.226173 96.715 147.1831
69.727814 96.683 147.0463
70.233093 96.651 146.9106
70.742035 96.618 146.7769
71.254662 96.586 146.6461
71.771004 96.554 146.5183
72.291084 96.523 146.3938
72.814934 96.492 146.2728
73.342583 96.461 146.1559
73.874054 96.430 146.0438
74.409378 96.399 145.9365
74.948578 96.369 145.8328
75.491684 96.339 145.7296
76.038727 96.309 145.6230
76.589737 96.279 145.5102
77.144737 96.248 145.3916
77.703758 96.215 145.2703
78.266830 96.181 145.1492
78.833984 96.146 145.0297
79.405251 96.111 144.9102
79.980652 96.076 144.7879
80.560226 96.042 144.6595
81.143997 96.009 144.5235
81.732002 95.976 144.3798
82.324265 95.942 144.2301
82.920822 95.909 144.0766
83.521698 95.875 143.9208
84.126930 95.840 143.7640
84.736549 95.805 143.6085
85.350586 95.768 143.4576
85.969070 95.730 143.3148
86.592041 95.690 143.1821
87.219521 95.650 143.0594
87.851547 95.609 142.9454
88.488159 95.568 142.8386
89.129379 95.527 142.7372
89.775246 95.486 142.6397
90.425797 95.444 142.5448
91.081062 95.403 142.4523
91.741074 95.362 142.3621
92.405869 95.321 142.2740
93.075478 95.280 142.1880
93.749939 95.239 142.1044
94.429291 95.199 142.0230
95.113564 95.159 141.9433
95.802795 95.120 141.8645
96.497025 95.081 141.7855
97.196281 95.041 141.7056
97.900604 95.002 141.6251
98.610031 94.961 141.5447
99.324600 94.920 141.4664
100.044350 94.879 141.3921
100.769310 94.837 141.3234
101.499527 94.795 141.2602
102.235031 94.753 141.2007
102.975868 94.713 141.1424
103.722076 94.672 141.0833
104.473686 94.633 141.0219
105.230743 94.594 140.9573
105.993286 94.555 140.8890
106.761360 94.516 140.8176
107.534996 94.476 140.7440
108.314240 94.437 140.6686
109.099129 94.397 140.5913
109.889709 94.356 140.5123
110.686012 94.314 140.4318
111.488091 94.271 140.3503
112.295982 94.227 140.2688
113.109726 94.181 140.1884
113.929367 94.133 140.1111
114.754944 94.084 140.0397
115.586502 94.034 139.9783
116.424088 93.982 139.9314
117.267746 93.931 139.9026
118.117516 93.881 139.8932
118.973442 93.832 139.9006
119.835571 93.786 139.9192
120.703949 93.742 139.9418
121.578621 93.699 139.9624
122.459633 93.657 139.9771
123.347023 93.615 139.9841
124.240845 93.572 139.9845
125.141144 93.528 139.9803
126.047966 93.484 139.9731
126.961365 93.440 139.9634
127.881378 93.396 139.9516
128.808060 93.351 139.9386
129.741455 93.307 139.9257
130.681610 93.262 139.9140
131.628586 93.217 139.9042
132.582428 93.172 139.8965
133.543182 93.126 139.8908
134.510895 93.079 139.8866
135.485611 93.031 139.8839
136.467392 92.983 139.8835
137.456284 92.934 139.8868
138.452347 92.884 139.8953
139.455627 92.833 139.9096
140.466187 92.783 139.9298
141.484070 92.732 139.9555
142.509323 92.681 139.9863
143.542007 92.630 140.0215
144.582169 92.578 140.0609
145.629868 92.526 140.1049
146.685165 92.472 140.1553
147.748108 92.418 140.2143
148.818756 92.363 140.2846
149.897156 92.307 140.3697
150.983368 92.250 140.4739
152.077454 92.193 140.6020
153.179474 92.136 140.7584
154.289474 92.081 140.9450
155.407516 92.028 141.1606
156.533661 91.980 141.4000
157.667969 91.937 141.6559
158.810501 91.899 141.9205
159.961304 91.867 142.1871
161.120453 91.840 142.4498
162.287994 91.819 142.7023
163.464005 91.803 142.9370
164.648529 91.791 143.1447
165.841644 91.784 143.3171
167.043396 91.779 143.4480
168.253860 91.775 143.5347
169.473099 91.770 143.5783
170.701172 91.763 143.5839
171.938141 91.753 143.5588
173.184082 91.738 143.5108
174.439041 91.719 143.4470
175.703094 91.696 143.3734
176.976318 91.669 143.2945
178.258759 91.638 143.2128
179.550491 91.604 143.1299
180.851593 91.567 143.0492
182.162125 91.528 142.9750
183.482147 91.487 142.9109
184.811737 91.445 142.8585
186.150955 91.400 142.8177
187.499878 91.355 142.7883
188.858582 91.308 142.7699
190.227127 91.261 142.7627
191.605591 91.213 142.7666
192.994049 91.164 142.7814
194.392563 91.114 142.8068
195.801208 91.065 142.8426
197.220062 91.016 142.8884
198.649200 90.967 142.9450
200.088699 90.918 143.0131
201.538620 90.871 143.0932
202.999054 90.824 143.1840
204.470062 90.779 143.2814
205.951736 90.735 143.3794
207.444153 90.692 143.4722
208.947372 90.648 143.5573
210.461487 90.604 143.6355
211.986572 90.560 143.7107
213.522720 90.514 143.7884
215.069992 90.466 143.8747
216.628479 90.419 143.9745
218.198257 90.371 144.0901
219.779419 90.325 144.2196
221.372025 90.280 144.3578
222.976181 90.236 144.4981
224.591965 90.193 144.6352
226.219452 90.152 144.7669
227.858734 90.110 144.8940
229.509888 90.069 145.0183
231.173004 90.028 145.1415
232.848175 89.987 145.2638
234.535492 89.946 145.3845
236.235031 89.905 145.5028
237.946884 89.863 145.6182
239.671143 89.821 145.7313
241.407898 89.778 145.8438
243.157242 89.734 145.9584
244.919266 89.689 146.0781
246.694046 89.642 146.2058
248.481689 89.595 146.3451
250.282288 89.547 146.4995
252.095932 89.501 146.6712
253.922729 89.455 146.8591
255.762756 89.413 147.0569
257.616119 89.373 147.2541
259.482910 89.336 147.4401
261.363220 89.300 147.6096
263.257172 89.263 147.7643
265.164856 89.224 147.9115
267.086365 89.184 148.0599
269.021790 89.142 148.2169
270.971222 89.100 148.3861
272.934784 89.057 148.5680
274.912567 89.015 148.7604
276.904694 88.975 148.9605
278.911255 88.936 149.1657
280.932373 88.898 149.3737
282.968140 88.863 149.5813
285.018646 88.830 149.7828
287.084015 88.799 149.9713
289.164337 88.768 150.1410
291.259735 88.737 150.2905
293.370331 88.704 150.4249
295.496216 88.668 150.5541
297.637512 88.629 150.6876
299.794312 88.588 150.8318
301.966736 88.546 150.9886
304.154907 88.504 151.1574
306.358948 88.461 151.3352
308.578949 88.420 151.5185
310.815033 88.378 151.7040
313.067322 88.337 151.8901
315.335938 88.295 152.0779
317.621002 88.252 152.2712
319.922607 88.209 152.4743
322.240906 88.167 152.6894
324.575989 88.124 152.9153
326.928009 88.083 153.1488
329.297058 88.043 153.3863
331.683289 88.005 153.6250
334.086792 87.967 153.8627
336.507721 87.930 154.0975
338.946198 87.893 154.3289
341.402344 87.856 154.5577
343.876282 87.819 154.7865
346.368164 87.781 155.0181
348.878082 87.743 155.2543
351.406189 87.705 155.4954
353.952637 87.667 155.7411
356.517517 87.629 155.9906
359.100983 87.591 156.2430
361.703186 87.554 156.4976
364.324249 87.517 156.7542
366.964294 87.481 157.0127
369.623474 87.444 157.2739
372.301910 87.409 157.5385
374.999756 87.373 157.8067
377.717163 87.338 158.0779
380.454254 87.303 158.3513
383.211182 87.269 158.6266
385.988098 87.235 158.9040
388.785126 87.201 159.1841
391.602417 87.167 159.4672
394.440125 87.133 159.7529
397.298401 87.100 160.0406
400.177399 87.068 160.3296
403.077240 87.036 160.6187
405.998108 87.005 160.9064
408.940125 86.974 161.1926
411.903473 86.942 161.4788
414.888306 86.910 161.7677
417.894745 86.878 162.0627
420.922974 86.845 162.3666
423.973145 86.813 162.6807
427.045441 86.783 163.0036
430.139984 86.754 163.3320
433.256958 86.727 163.6614
436.396515 86.701 163.9892
439.558838 86.677 164.3149
442.744049 86.653 164.6382
445.952362 86.631 164.9570
449.183929 86.611 165.2655
452.438904 86.590 165.5571
455.717468 86.569 165.8283
459.019775 86.546 166.0831
462.346008 86.520 166.3330
465.696350 86.492 166.5901
469.070984 86.461 166.8619
472.470062 86.430 167.1500
475.893768 86.398 167.4515
479.342285 86.368 167.7609
482.815796 86.338 168.0724
486.314484 86.307 168.3839
489.838531 86.276 168.6994
493.388092 86.245 169.0270
496.963379 86.214 169.3709
500.564575 86.184 169.7278
504.191864 86.157 170.0895
507.845459 86.131 170.4485
511.525513 86.106 170.8016
515.232239 86.080 171.1503
518.965820 86.054 171.4993
522.726440 86.028 171.8540
526.514343 86.001 172.2187
530.329712 85.975 172.5948
534.172729 85.950 172.9794
538.043579 85.926 173.3670
541.942444 85.904 173.7549
545.869568 85.882 174.1440
549.825134 85.861 174.5352
553.809387 85.841 174.9270
557.822510 85.822 175.3163
561.864746 85.804 175.7013
565.936279 85.786 176.0829
570.037292 85.767 176.4641
574.168030 85.749 176.8483
578.328674 85.730 177.2368
582.519470 85.711 177.6288
586.740662 85.692 178.0238
590.992432 85.673 178.4239
595.275024 85.655 178.8314
599.588623 85.638 179.2448
603.933472 85.623 179.6585
608.309814 85.608 -179.9329
612.717896 85.593 -179.5316
617.157898 85.577 -179.1349
621.630066 85.560 -178.7357
626.134644 85.541 -178.3244
630.671875 85.521 -177.8935
635.242004 85.502 -177.4415
639.845215 85.484 -176.9700
644.481812 85.468 -176.4801
649.151978 85.455 -175.9731
653.856018 85.446 -175.4553
658.594116 85.442 -174.9387
663.366577 85.441 -174.4378
668.173584 85.444 -173.9633
673.015442 85.446 -173.5157
677.892395 85.448 -173.0869
682.804688 85.448 -172.6667
687.752563 85.445 -172.2471
692.736328 85.442 -171.8219
697.756165 85.438 -171.3860
702.812378 85.434 -170.9373
707.905273 85.431 -170.4783
713.035034 85.429 -170.0136
718.201965 85.428 -169.5471
723.406372 85.428 -169.0796
728.648499 85.428 -168.6106
733.928589 85.429 -168.1393
739.246948 85.430 -167.6651
744.603821 85.432 -167.1871
749.999512 85.434 -166.7043
755.434326 85.438 -166.2158
760.908508 85.442 -165.7212
766.422363 85.448 -165.2208
771.976196 85.455 -164.7153
777.570251 85.464 -164.2062
783.204834 85.474 -163.6948
788.880249 85.485 -163.1803
794.596802 85.498 -162.6597
800.354797 85.513 -162.1299
806.154480 85.530 -161.5922
811.996216 85.551 -161.0528
817.880249 85.576 -160.5209
823.806946 85.604 -160.0062
829.776611 85.634 -159.5169
835.789490 85.665 -159.0553
841.845947 85.694 -158.6147
847.946289 85.721 -158.1848
854.090881 85.747 -157.7575
860.279968 85.772 -157.3282
866.513916 85.797 -156.8932
872.793030 85.821 -156.4489
879.117676 85.846 -155.9956
885.488098 85.872 -155.5377
891.904724 85.900 -155.0796
898.367859 85.929 -154.6214
904.877808 85.958 -154.1605
911.434937 85.989 -153.6954
918.039551 86.022 -153.2277
924.692017 86.056 -152.7606
931.392700 86.093 -152.2979
938.141968 86.131 -151.8441
944.940125 86.171 -151.4015
951.787537 86.211 -150.9693
958.684570 86.251 -150.5449
965.631592 86.291 -150.1249
972.628967 86.331 -149.7063
979.677063 86.372 -149.2880
986.776184 86.414 -148.8709
993.926758 86.456 -148.4540
1001.129150 86.498 -148.0337
1008.383728 86.543 -147.6064
1015.690918 86.590 -147.1729
1023.051025 86.640 -146.7375
1030.464478 86.694 -146.3074
1037.931641 86.752 -145.8937
1045.452881 86.813 -145.5084
1053.028687 86.875 -145.1568
1060.659424 86.936 -144.8353
1068.345459 86.995 -144.5350
1076.087158 87.052 -144.2459
1083.884888 87.107 -143.9612
1091.739136 87.162 -143.6781
1099.650269 87.215 -143.3961
1107.618774 87.268 -143.1145
1115.645020 87.321 -142.8319
1123.729492 87.373 -142.5473
1131.872559 87.426 -142.2604
1140.074585 87.480 -141.9715
1148.336060 87.535 -141.6820
1156.657349 87.592 -141.3937
1165.038940 87.650 -141.1084
1173.481323 87.711 -140.8268
1181.984863 87.774 -140.5516
1190.550049 87.840 -140.2898
1199.177246 87.909 -140.0524
1207.866943 87.980 -139.8503
1216.619629 88.049 -139.6874
1225.435791 88.116 -139.5582
1234.315796 88.180 -139.4520
1243.260132 88.239 -139.3578
1252.269287 88.295 -139.2663
1261.343750 88.348 -139.1724
1270.484009 88.399 -139.0744
1279.690430 88.448 -138.9710
1288.963623 88.496 -138.8608
1298.303955 88.544 -138.7444
1307.712036 88.591 -138.6243
1317.188232 88.639 -138.5041
1326.733154 88.686 -138.3863
1336.347168 88.733 -138.2706
1346.030884 88.778 -138.1543
1355.784790 88.822 -138.0338
1365.609375 88.866 -137.9056
1375.505127 88.909 -137.7658
1385.472656 88.952 -137.6099
1395.512329 88.997 -137.4369
1405.624756 89.045 -137.2524
1415.810547 89.097 -137.0681
1426.070068 89.153 -136.8982
1436.403931 89.211 -136.7523
1446.812744 89.269 -136.6310
1457.296997 89.327 -136.5291
1467.857178 89.383 -136.4406
1478.493896 89.438 -136.3611
1489.207642 89.491 -136.2874
1499.999023 89.544 -136.2165
1510.868652 89.595 -136.1453
1521.817017 89.646 -136.0711
1532.844727 89.697 -135.9915
1543.952393 89.748 -135.9050
1555.140503 89.801 -135.8110
1566.409668 89.856 -135.7134
1577.760498 89.915 -135.6226
1589.193604 89.977 -135.5524
1600.709595 90.040 -135.5120
1612.308960 90.103 -135.5025
1623.992432 90.165 -135.5189
1635.760498 90.224 -135.5538
1647.613892 90.280 -135.6013
1659.553223 90.335 -135.6564
1671.578979 90.388 -135.7157
1683.691895 90.440 -135.7783
1695.892578 90.490 -135.8462
1708.181763 90.539 -135.9216
1720.559937 90.587 -136.0038
1733.027832 90.632 -136.0893
1745.586060 90.675 -136.1725
1758.235352 90.717 -136.2466
1770.976196 90.758 -136.3062
1783.809448 90.800 -136.3519
1796.735718 90.845 -136.3932
1809.755615 90.892 -136.4440
1822.869873 90.941 -136.5152
1836.079102 90.990 -136.6103
1849.384033 91.037 -136.7278
1862.785400 91.083 -136.8639
1876.283936 91.126 -137.0135
1889.880249 91.166 -137.1705
1903.575073 91.203 -137.3286
1917.369141 91.238 -137.4820
1931.263184 91.272 -137.6266
1945.257935 91.306 -137.7627
1959.354126 91.341 -137.8980
1973.552368 91.377 -138.0449
1987.853516 91.413 -138.2125
2002.258301 91.448 -138.4030
2016.767456 91.479 -138.6129
2031.381836 91.506 -138.8360
2046.102051 91.529 -139.0652
2060.928955 91.547 -139.2939
2075.863281 91.561 -139.5173
2090.905762 91.571 -139.7318
2106.057373 91.575 -139.9320
2121.318848 91.575 -140.1090
2136.690918 91.571 -140.2508
2152.174316 91.564 -140.3451
2167.769775 91.556 -140.3854
2183.478271 91.551 -140.3753
2199.300537 91.550 -140.3254
2215.237549 91.554 -140.2469
2231.290039 91.564 -140.1492
2247.458984 91.579 -140.0407
2263.745117 91.600 -139.9295
2280.149170 91.627 -139.8224
2296.672119 91.658 -139.7252
2313.314697 91.694 -139.6424
2330.077881 91.735 -139.5805
2346.962646 91.780 -139.5496
2363.969727 91.827 -139.5600
2381.100098 91.874 -139.6149
2398.354492 91.920 -139.7093
2415.733887 91.962 -139.8319
2433.239258 92.000 -139.9690
2450.871582 92.035 -140.1093
2468.631592 92.068 -140.2462
2486.520264 92.100 -140.3772
2504.538574 92.132 -140.5018
2522.687500 92.164 -140.6202
2540.968018 92.199 -140.7354
2559.380859 92.236 -140.8568
2577.927246 92.277 -141.0004
2596.607910 92.319 -141.1810
2615.424072 92.360 -141.4057
2634.376465 92.397 -141.6714
2653.466309 92.429 -141.9653
2672.694336 92.453 -142.2695
2692.061768 92.472 -142.5649
2711.569580 92.487 -142.8380
2731.218750 92.499 -143.0859
2751.010254 92.512 -143.3151
2770.945312 92.526 -143.5351
2791.024658 92.540 -143.7542
2811.249512 92.554 -143.9773
2831.621094 92.568 -144.2075
2852.140137 92.581 -144.4469
2872.807861 92.592 -144.6950
2893.625488 92.599 -144.9465
2914.593994 92.603 -145.1906
2935.714355 92.604 -145.4167
2956.987793 92.604 -145.6206
2978.415283 92.604 -145.8046
2999.998047 92.605 -145.9737
3021.737305 92.606 -146.1319
3043.634033 92.607 -146.2799
3065.689453 92.609 -146.4145
3087.904785 92.612 -146.5314
3110.281006 92.618 -146.6313
3132.819336 92.627 -146.7231
3155.520996 92.641 -146.8201
3178.387207 92.658 -146.9342
3201.419189 92.677 -147.0727
3224.617920 92.696 -147.2380
3247.984863 92.713 -147.4274
3271.520996 92.727 -147.6320
3295.227783 92.736 -147.8359
3319.106445 92.742 -148.0204
3343.157959 92.746 -148.1734
3367.383789 92.752 -148.2925
3391.785156 92.760 -148.3833
3416.363525 92.773 -148.4543
3441.119873 92.790 -148.5128
3466.055664 92.812 -148.5625
3491.172119 92.841 -148.6073
3516.470703 92.876 -148.6566
3541.952393 92.919 -148.7241
3567.618896 92.970 -148.8249
3593.471436 93.026 -148.9717
3619.511230 93.087 -149.1742
3645.739746 93.150 -149.4378
3672.158203 93.214 -149.7613
3698.768066 93.276 -150.1368
3725.570801 93.337 -150.5566
3752.567871 93.397 -151.0183
3779.760498 93.456 -151.5244
3807.150146 93.513 -152.0776
3834.738281 93.567 -152.6756
3862.526367 93.617 -153.3108
3890.515869 93.664 -153.9755
3918.708252 93.708 -154.6683
3947.104736 93.752 -155.3944
3975.707031 93.795 -156.1630
4004.516602 93.836 -156.9856
4033.534912 93.874 -157.8725
4062.763672 93.906 -158.8278
4092.204102 93.931 -159.8474
4121.857910 93.946 -160.9238
4151.726562 93.951 -162.0507
4181.811523 93.944 -163.2222
4212.114746 93.924 -164.4292
4242.637695 93.889 -165.6558
4273.381836 93.839 -166.8831
4304.348633 93.775 -168.0956
4335.539551 93.700 -169.2850
4366.956543 93.614 -170.4498
4398.601074 93.519 -171.5935
4430.475098 93.415 -172.7203
4462.580078 93.299 -173.8294
4494.917969 93.173 -174.9144
4527.490234 93.036 -175.9679
4560.298340 92.887 -176.9845
4593.344238 92.727 -177.9587
4626.629395 92.554 -178.8801
4660.155762 92.370 -179.7328
4693.925293 92.175 179.4985
4727.939453 91.971 178.8237
4762.200195 91.763 178.2446
4796.708984 91.551 177.7552
4831.467773 91.337 177.3466
4866.478516 91.121 177.0126
4901.743164 90.905 176.7504
4937.263184 90.688 176.5563
4973.040527 90.470 176.4249
5009.077148 90.251 176.3542
5045.375000 90.031 176.3492
5081.936035 89.810 176.4186
5118.761719 89.588 176.5693
5155.854492 89.368 176.8021
5193.215820 89.151 177.1105
5230.848145 88.938 177.4839
5268.752930 88.730 177.9142
5306.932617 88.526 178.3951
5345.388672 88.326 178.9202
5384.123535 88.128 179.4850
5423.139160 87.930 -179.9066
5462.437500 87.732 -179.2398
5502.020508 87.531 -178.4914
5541.890625 87.331 -177.6336
5582.049316 87.132 -176.6360
5622.499023 86.941 -175.4675
5663.242188 86.766 -174.1045
5704.280273 86.620 -172.5601
5745.615723 86.515 -170.9222
5787.250977 86.455 -169.3580
5829.187988 86.426 -168.0322
5871.428711 86.404 -166.9871
5913.975586 86.368 -166.1309
5956.830566 86.314 -165.3310
5999.996094 86.245 -164.4884
6043.474609 86.169 -163.5539
6087.268066 86.093 -162.5166
6131.378906 86.024 -161.3894
6175.809570 85.964 -160.1941
6220.562012 85.914 -158.9492
6265.638672 85.875 -157.6639
6311.041992 85.847 -156.3404
6356.774414 85.830 -154.9795
6402.838379 85.827 -153.5840
6449.235840 85.837 -152.1590
6495.969727 85.863 -150.7123
6543.041992 85.905 -149.2553
6590.455566 85.963 -147.7989
6638.212891 86.037 -146.3494
6686.315918 86.128 -144.9073
6734.767578 86.236 -143.4710
6783.570312 86.363 -142.0414
6832.727051 86.511 -140.6235
6882.239746 86.682 -139.2276
6932.111328 86.878 -137.8705
6982.344238 87.100 -136.5718
7032.941406 87.348 -135.3495
7083.904785 87.625 -134.2192
7135.237793 87.932 -133.1975
7186.942871 88.271 -132.3071
7239.022461 88.644 -131.5795
7291.479492 89.052 -131.0574
7344.316406 89.497 -130.7951
7397.536133 89.974 -130.8532
7451.141602 90.480 -131.2925
7505.135742 91.008 -132.1717
7559.520996 91.549 -133.5477
7614.300293 92.091 -135.4721
7669.476562 92.619 -137.9870
7725.052734 93.114 -141.1182
7781.031738 93.558 -144.8657
7837.416504 93.927 -149.1915
7894.209473 94.201 -154.0136
7951.414062 94.363 -159.2084
8009.033203 94.402 -164.6177
8067.069824 94.313 -170.0627
8125.527344 94.097 -175.3636
8184.408203 93.765 179.6425
8243.715820 93.329 175.0911
8303.453125 92.807 171.0845
8363.623047 92.217 167.6901
8424.229492 91.580 164.9422
8485.275391 90.915 162.8436
8546.763672 90.241 161.3671
8608.697266 89.575 160.4622
8671.079102 88.930 160.0658
8733.913086 88.313 160.1133
8797.202148 87.733 160.5460
8860.950195 87.192 161.3136
8925.160156 86.695 162.3683
8989.835938 86.243 163.6609
9054.980469 85.838 165.1429
9120.596680 85.480 166.7720
9186.688477 85.167 168.5166
9253.258789 84.899 170.3573
9320.311523 84.674 172.2791
9387.850586 84.495 174.2642
9455.878906 84.363 176.2908
9524.400391 84.277 178.3367
9593.417969 84.240 -179.6158
9662.935547 84.254 -177.5796
9732.957031 84.324 -175.5706
9803.486328 84.453 -173.6173
9874.526367 84.651 -171.7645
9946.081055 84.922 -170.0724
10018.154297 85.274 -168.6140
10090.750000 85.711 -167.4783
10163.872070 86.237 -166.7800
10237.523438 86.849 -166.6624
10311.708984 87.535 -167.2881
10386.431641 88.274 -168.8192
10461.696289 89.034 -171.3945
10537.505859 89.775 -175.1116
10613.865234 90.449 179.9900
10690.777344 91.005 173.9497
10768.247070 91.394 166.9075
10846.278320 91.570 159.1201
10924.875000 91.504 150.9504
11004.041016 91.185 142.8221
11083.781250 90.625 135.1462
11164.098633 89.852 128.2565
11244.998047 88.902 122.3823
11326.484375 87.819 117.6508
11408.560547 86.645 114.1028
11491.231445 85.423 111.7071
11574.501953 84.190 110.3744
11658.375977 82.979 109.9756
11742.857422 81.817 110.3595
11827.951172 80.724 111.3664
11913.661133 79.709 112.8373
11999.992188 78.775 114.6277
12086.949219 77.916 116.6295
12174.536133 77.123 118.7867
12262.757812 76.382 121.0950
12351.619141 75.684 123.5831
12441.124023 75.027 126.2886
12531.277344 74.409 129.2335
12622.083984 73.837 132.4067
12713.548828 73.315 135.7616
12805.676758 72.847 139.2293
12898.471680 72.433 142.7447
12991.939453 72.068 146.2648
13086.083984 71.750 149.7695
13180.911133 71.475 153.2493
13276.425781 71.240 156.6973
13372.631836 71.042 160.1122
13469.535156 70.880 163.4986
13567.140625 70.755 166.8596
13665.454102 70.667 170.1929
13764.479492 70.618 173.4958
13864.222656 70.609 176.7684
13964.688477 70.644 -179.9928
14065.882812 70.727 -176.8041
14167.809570 70.863 -173.6939
14270.475586 71.054 -170.6984
14373.885742 71.305 -167.8626
14478.044922 71.619 -165.2404
14582.958984 71.999 -162.8884
14688.632812 72.445 -160.8640
14795.072266 72.958 -159.2339
14902.283203 73.537 -158.0802
15010.271484 74.177 -157.4960
15119.041992 74.868 -157.5782
15228.600586 75.598 -158.4223
15338.953125 76.347 -160.1147
15450.105469 77.090 -162.7193
15562.063477 77.799 -166.2668
15674.833008 78.442 -170.7456
15788.418945 78.988 -176.0930
15902.828125 79.408 177.8119
16018.066406 79.680 171.1462
16134.139648 79.792 164.1242
16251.054688 79.745 156.9662
16368.816406 79.551 149.8657
16487.431641 79.233 142.9590
16606.906250 78.818 136.3048
16727.246094 78.333 129.8823
16848.458984 77.798 123.6155
16970.550781 77.219 117.4157
17093.527344 76.584 111.2300
17217.394531 75.877 105.0724
17342.158203 75.079 99.0180
17467.826172 74.175 93.1761
17594.404297 73.159 87.6653
17721.900391 72.030 82.6048
17850.320312 70.790 78.1133
17979.671875 69.443 74.3109
18109.960938 67.996 71.3207
18241.193359 66.457 69.2646
18373.376953 64.839 68.2599
18506.517578 63.157 68.4251
18640.623047 61.426 69.8892
18775.701172 59.667 72.8047
18911.757812 57.906 77.3543
19048.800781 56.180 83.7021
19186.835938 54.542 91.8264
19325.871094 53.063 101.2296
19465.914062 51.819 110.7975
19606.972656 50.860 119.1995
19749.052734 50.183 125.5797
19892.162109 49.755 129.7612
20036.308594 49.545 131.8450
