* Measurement data measured by REW V5.31.3
* Source: EXCL: Microphone (USB Sound Device        ), MICROPHONE (Master Volume), R, volume: 0.390
* Format: 256k Log Swept Sine, 1 sweep at -17.0 dBFS with no timing reference
* Dated: Jun 18, 2025 11:46:34 PM
* REW Settings:
*  C-weighting compensation: Off
*  Target level: 75.0 dB
* Note: R Shortbus Audio Nobody
* Measurement: L Shortbus Audio Nobody
* Smoothing: 1/12 octave
* Frequency Step: 96 ppo
* Start Frequency: 0.36621094 Hz
*
* Freq(Hz) SPL(dB) Phase(degrees)
0.366211 94.537 156.8668
0.368865 94.531 156.8428
0.371538 94.522 156.8067
0.374230 94.512 156.7613
0.376942 94.499 156.7090
0.379673 94.486 156.6516
0.382424 94.473 156.5901
0.385196 94.459 156.5252
0.387987 94.444 156.4573
0.390798 94.430 156.3866
0.393630 94.415 156.3133
0.396483 94.400 156.2373
0.399356 94.385 156.1587
0.402250 94.370 156.0775
0.405165 94.355 155.9936
0.408101 94.340 155.9070
0.411058 94.325 155.8177
0.414037 94.309 155.7258
0.417037 94.294 155.6310
0.420059 94.278 155.5335
0.423103 94.262 155.4332
0.426169 94.246 155.3300
0.429257 94.230 155.2240
0.432368 94.214 155.1150
0.435501 94.198 155.0032
0.438656 94.182 154.8885
0.441835 94.165 154.7708
0.445037 94.149 154.6501
0.448262 94.132 154.5264
0.451510 94.115 154.3997
0.454782 94.098 154.2700
0.458077 94.081 154.1372
0.461397 94.064 154.0013
0.464740 94.047 153.8623
0.468108 94.029 153.7202
0.471500 94.012 153.5749
0.474917 93.994 153.4265
0.478358 93.976 153.2749
0.481825 93.958 153.1201
0.485316 93.940 152.9621
0.488833 93.922 152.8009
0.492375 93.903 152.6365
0.495943 93.885 152.4688
0.499537 93.866 152.2979
0.503157 93.847 152.1238
0.506803 93.829 151.9464
0.510475 93.810 151.7657
0.514175 93.790 151.5818
0.517900 93.771 151.3947
0.521653 93.752 151.2043
0.525434 93.732 151.0106
0.529241 93.712 150.8137
0.533076 93.692 150.6136
0.536939 93.672 150.4102
0.540830 93.652 150.2037
0.544749 93.632 149.9940
0.548696 93.611 149.7811
0.552673 93.591 149.5651
0.556677 93.570 149.3459
0.560711 93.549 149.1237
0.564774 93.528 148.8985
0.568867 93.507 148.6702
0.572989 93.485 148.4390
0.577141 93.464 148.2048
0.581324 93.442 147.9678
0.585536 93.420 147.7280
0.589779 93.398 147.4854
0.594053 93.376 147.2401
0.598358 93.354 146.9922
0.602694 93.332 146.7417
0.607061 93.309 146.4888
0.611460 93.286 146.2335
0.615891 93.263 145.9760
0.620354 93.240 145.7162
0.624849 93.217 145.4543
0.629377 93.193 145.1904
0.633938 93.170 144.9247
0.638532 93.146 144.6573
0.643159 93.122 144.3882
0.647819 93.098 144.1177
0.652514 93.073 143.8459
0.657242 93.049 143.5729
0.662005 93.024 143.2990
0.666802 92.999 143.0242
0.671634 92.974 142.7487
0.676501 92.949 142.4729
0.681403 92.924 142.1968
0.686341 92.898 141.9207
0.691314 92.872 141.6447
0.696324 92.846 141.3692
0.701370 92.820 141.0942
0.706452 92.793 140.8200
0.711571 92.766 140.5466
0.716728 92.738 140.2739
0.721921 92.708 140.0018
0.727153 92.678 139.7298
0.732422 92.645 139.4570
0.737729 92.610 139.1824
0.743075 92.573 138.9049
0.748460 92.535 138.6236
0.753883 92.495 138.3377
0.759346 92.454 138.0466
0.764849 92.412 137.7501
0.770391 92.370 137.4478
0.775974 92.327 137.1396
0.781597 92.284 136.8254
0.787261 92.240 136.5050
0.792966 92.195 136.1785
0.798712 92.150 135.8456
0.804500 92.104 135.5065
0.810329 92.058 135.1609
0.816201 92.011 134.8090
0.822116 91.963 134.4505
0.828073 91.915 134.0855
0.834074 91.866 133.7140
0.840118 91.816 133.3358
0.846206 91.766 132.9511
0.852338 91.714 132.5598
0.858514 91.662 132.1618
0.864735 91.609 131.7573
0.871001 91.555 131.3461
0.877313 91.499 130.9284
0.883670 91.443 130.5041
0.890074 91.386 130.0734
0.896524 91.328 129.6363
0.903020 91.269 129.1929
0.909564 91.208 128.7432
0.916155 91.147 128.2874
0.922794 91.084 127.8257
0.929481 91.019 127.3582
0.936216 90.954 126.8850
0.943000 90.887 126.4064
0.949834 90.818 125.9226
0.956717 90.748 125.4339
0.963649 90.677 124.9405
0.970632 90.604 124.4428
0.977666 90.529 123.9412
0.984750 90.452 123.4359
0.991886 90.374 122.9274
0.999074 90.294 122.4163
1.006314 90.212 121.9029
1.013606 90.128 121.3879
1.020951 90.041 120.8718
1.028349 89.953 120.3553
1.035801 89.862 119.8391
1.043307 89.770 119.3239
1.050867 89.675 118.8104
1.058482 89.577 118.2995
1.066152 89.477 117.7919
1.073878 89.375 117.2883
1.081660 89.270 116.7893
1.089498 89.163 116.2951
1.097393 89.055 115.8057
1.105345 88.945 115.3206
1.113355 88.833 114.8391
1.121423 88.721 114.3604
1.129549 88.608 113.8839
1.137734 88.494 113.4087
1.145979 88.379 112.9344
1.154283 88.264 112.4605
1.162647 88.147 111.9864
1.171072 88.030 111.5117
1.179558 87.911 111.0360
1.188106 87.790 110.5588
1.196715 87.668 110.0796
1.205387 87.544 109.5980
1.214122 87.417 109.1134
1.222920 87.288 108.6253
1.231782 87.156 108.1331
1.240708 87.021 107.6363
1.249699 86.883 107.1342
1.258754 86.741 106.6263
1.267876 86.595 106.1118
1.277063 86.444 105.5900
1.286318 86.289 105.0602
1.295639 86.129 104.5217
1.305027 85.963 103.9736
1.314484 85.792 103.4150
1.324009 85.615 102.8452
1.333604 85.431 102.2633
1.343268 85.240 101.6682
1.353002 85.042 101.0591
1.362806 84.835 100.4350
1.372681 84.621 99.7949
1.382628 84.398 99.1380
1.392647 84.165 98.4632
1.402739 83.923 97.7698
1.412904 83.670 97.0571
1.423142 83.406 96.3246
1.433455 83.130 95.5720
1.443843 82.839 94.7993
1.454305 82.533 94.0070
1.464844 82.208 93.1958
1.475459 81.862 92.3665
1.486150 81.491 91.5193
1.496920 81.094 90.6538
1.507767 80.670 89.7688
1.518693 80.217 88.8620
1.529698 79.738 87.9306
1.540783 79.232 86.9708
1.551948 78.701 85.9781
1.563194 78.147 84.9471
1.574521 77.573 83.8713
1.585931 76.980 82.7431
1.597423 76.372 81.5534
1.608999 75.750 80.2909
1.620658 75.119 78.9424
1.632402 74.480 77.4913
1.644232 73.838 75.9174
1.656146 73.196 74.1953
1.668147 72.557 72.2932
1.680235 71.926 70.1706
1.692411 71.308 67.7759
1.704675 70.707 65.0422
1.717028 70.127 61.8827
1.729470 69.576 58.1848
1.742003 69.058 53.8035
1.754626 68.579 48.5563
1.767341 68.148 42.2269
1.780147 67.770 34.5899
1.793047 67.453 25.4790
1.806040 67.205 14.9146
1.819128 67.031 3.2450
1.832310 66.938 -8.8347
1.845587 66.928 -20.5044
1.858961 67.003 -31.1353
1.872432 67.161 -40.4427
1.886001 67.398 -48.4244
1.899667 67.710 -55.2249
1.913433 68.089 -61.0329
1.927299 68.530 -66.0276
1.941265 69.025 -70.3612
1.955332 69.566 -74.1560
1.969501 70.147 -77.5085
1.983773 70.760 -80.4941
1.998148 71.396 -83.1716
2.012627 72.050 -85.5873
2.027212 72.713 -87.7775
2.041902 73.378 -89.7714
2.056698 74.038 -91.5921
2.071602 74.685 -93.2587
2.086614 75.314 -94.7865
2.101734 75.916 -96.1886
2.116964 76.487 -97.4765
2.132304 77.020 -98.6607
2.147756 77.512 -99.7523
2.163320 77.959 -100.7632
2.178996 78.361 -101.7077
2.194786 78.720 -102.6025
2.210690 79.037 -103.4657
2.226710 79.319 -104.3142
2.242845 79.570 -105.1606
2.259098 79.792 -106.0130
2.275468 79.990 -106.8748
2.291957 80.164 -107.7463
2.308566 80.316 -108.6257
2.325295 80.449 -109.5097
2.342145 80.564 -110.3943
2.359117 80.661 -111.2748
2.376212 80.743 -112.1462
2.393431 80.810 -113.0031
2.410775 80.865 -113.8400
2.428244 80.910 -114.6510
2.445840 80.944 -115.4304
2.463564 80.971 -116.1725
2.481416 80.992 -116.8719
2.499397 81.008 -117.5242
2.517509 81.020 -118.1266
2.535752 81.027 -118.6784
2.554127 81.031 -119.1825
2.572635 81.028 -119.6447
2.591277 81.018 -120.0728
2.610055 80.998 -120.4742
2.628968 80.968 -120.8545
2.648019 80.926 -121.2167
2.667208 80.873 -121.5613
2.686535 80.809 -121.8873
2.706003 80.735 -122.1918
2.725612 80.651 -122.4709
2.745363 80.560 -122.7197
2.765257 80.462 -122.9322
2.785295 80.359 -123.1018
2.805478 80.251 -123.2206
2.825808 80.140 -123.2804
2.846285 80.027 -123.2721
2.866910 79.912 -123.1862
2.887685 79.797 -123.0134
2.908611 79.680 -122.7445
2.929688 79.561 -122.3714
2.950917 79.437 -121.8869
2.972301 79.307 -121.2851
2.993839 79.170 -120.5612
3.015534 79.026 -119.7110
3.037386 78.877 -118.7313
3.059396 78.724 -117.6201
3.081565 78.569 -116.3766
3.103896 78.417 -115.0021
3.126388 78.271 -113.5000
3.149043 78.134 -111.8766
3.171862 78.011 -110.1413
3.194847 77.906 -108.3062
3.217998 77.824 -106.3857
3.241317 77.768 -104.3950
3.264805 77.742 -102.3484
3.288463 77.750 -100.2576
3.312293 77.792 -98.1319
3.336295 77.868 -95.9804
3.360471 77.978 -93.8165
3.384822 78.119 -91.6590
3.409350 78.287 -89.5315
3.434056 78.479 -87.4598
3.458940 78.691 -85.4698
3.484005 78.918 -83.5849
3.509252 79.156 -81.8254
3.534681 79.402 -80.2071
3.560295 79.651 -78.7415
3.586094 79.901 -77.4352
3.612081 80.150 -76.2905
3.638255 80.397 -75.3048
3.664620 80.641 -74.4716
3.691175 80.886 -73.7808
3.717923 81.131 -73.2206
3.744864 81.378 -72.7787
3.772001 81.627 -72.4432
3.799335 81.876 -72.2031
3.826866 82.125 -72.0482
3.854597 82.371 -71.9693
3.882529 82.613 -71.9584
3.910664 82.848 -72.0088
3.939002 83.074 -72.1153
3.967546 83.289 -72.2747
3.996296 83.494 -72.4855
4.025255 83.686 -72.7479
4.054423 83.866 -73.0628
4.083804 84.033 -73.4303
4.113396 84.190 -73.8478
4.143204 84.336 -74.3105
4.173227 84.471 -74.8113
4.203468 84.597 -75.3418
4.233928 84.713 -75.8936
4.264609 84.820 -76.4584
4.295512 84.918 -77.0294
4.326639 85.007 -77.6018
4.357992 85.088 -78.1735
4.389572 85.159 -78.7454
4.421380 85.221 -79.3206
4.453419 85.273 -79.9029
4.485691 85.316 -80.4939
4.518196 85.349 -81.0923
4.550936 85.372 -81.6940
4.583914 85.387 -82.2926
4.617131 85.394 -82.8806
4.650589 85.393 -83.4496
4.684289 85.386 -83.9923
4.718233 85.371 -84.5027
4.752424 85.350 -84.9772
4.786862 85.322 -85.4152
4.821549 85.287 -85.8177
4.856488 85.244 -86.1861
4.891680 85.195 -86.5211
4.927127 85.140 -86.8219
4.962831 85.080 -87.0866
4.998794 85.018 -87.3118
5.035017 84.954 -87.4936
5.071503 84.889 -87.6274
5.108253 84.824 -87.7087
5.145270 84.760 -87.7338
5.182555 84.696 -87.7005
5.220110 84.632 -87.6093
5.257937 84.570 -87.4633
5.296038 84.509 -87.2679
5.334415 84.453 -87.0302
5.373071 84.401 -86.7576
5.412006 84.357 -86.4572
5.451224 84.320 -86.1346
5.490725 84.293 -85.7933
5.530514 84.276 -85.4352
5.570590 84.268 -85.0628
5.610957 84.270 -84.6812
5.651616 84.281 -84.2991
5.692570 84.301 -83.9277
5.733821 84.328 -83.5793
5.775370 84.362 -83.2660
5.817221 84.404 -82.9977
5.859375 84.452 -82.7809
5.901834 84.507 -82.6189
5.944602 84.569 -82.5126
5.987679 84.636 -82.4626
6.031068 84.708 -82.4696
6.074771 84.782 -82.5355
6.118792 84.857 -82.6624
6.163131 84.932 -82.8528
6.207792 85.005 -83.1088
6.252776 85.075 -83.4311
6.298086 85.143 -83.8186
6.343725 85.208 -84.2676
6.389694 85.270 -84.7725
6.435996 85.327 -85.3264
6.482634 85.379 -85.9228
6.529610 85.426 -86.5564
6.576926 85.466 -87.2239
6.624585 85.500 -87.9237
6.672590 85.527 -88.6544
6.720942 85.547 -89.4127
6.769645 85.561 -90.1927
6.818700 85.569 -90.9868
6.868111 85.571 -91.7869
6.917881 85.567 -92.5862
6.968010 85.557 -93.3801
7.018504 85.542 -94.1661
7.069362 85.522 -94.9424
7.120590 85.498 -95.7066
7.172189 85.470 -96.4547
7.224161 85.439 -97.1814
7.276511 85.408 -97.8815
7.329239 85.375 -98.5508
7.382350 85.342 -99.1869
7.435845 85.310 -99.7895
7.489729 85.279 -100.3597
7.544002 85.251 -100.8994
7.598669 85.227 -101.4103
7.653732 85.208 -101.8937
7.709194 85.195 -102.3506
7.765058 85.188 -102.7826
7.821327 85.188 -103.1930
7.878004 85.195 -103.5872
7.935091 85.210 -103.9719
7.992592 85.232 -104.3539
8.050510 85.263 -104.7388
8.108847 85.301 -105.1305
8.167607 85.347 -105.5323
8.226793 85.401 -105.9474
8.286408 85.460 -106.3799
8.346454 85.525 -106.8339
8.406936 85.594 -107.3127
8.467856 85.667 -107.8181
8.529218 85.743 -108.3499
8.591024 85.821 -108.9066
8.653278 85.901 -109.4861
8.715983 85.981 -110.0861
8.779143 86.061 -110.7044
8.842760 86.140 -111.3386
8.906839 86.217 -111.9855
8.971381 86.292 -112.6405
9.036392 86.365 -113.2984
9.101873 86.435 -113.9537
9.167829 86.502 -114.6020
9.234263 86.567 -115.2396
9.301178 86.629 -115.8631
9.368578 86.689 -116.4687
9.436467 86.747 -117.0524
9.504847 86.802 -117.6106
9.573723 86.857 -118.1407
9.643099 86.910 -118.6416
9.712976 86.963 -119.1128
9.783361 87.016 -119.5541
9.854255 87.070 -119.9657
9.925663 87.124 -120.3482
9.997588 87.180 -120.7032
10.070035 87.236 -121.0327
10.143007 87.295 -121.3397
10.216507 87.355 -121.6274
10.290540 87.416 -121.8985
10.365109 87.479 -122.1557
10.440219 87.544 -122.4016
10.515873 87.609 -122.6389
10.592076 87.675 -122.8701
10.668830 87.742 -123.0971
10.746141 87.807 -123.3211
10.824012 87.873 -123.5428
10.902447 87.937 -123.7624
10.981451 88.000 -123.9799
11.061027 88.061 -124.1950
11.141180 88.120 -124.4070
11.221913 88.177 -124.6149
11.303232 88.232 -124.8176
11.385140 88.284 -125.0139
11.467641 88.334 -125.2032
11.550741 88.381 -125.3848
11.634442 88.427 -125.5584
11.718750 88.470 -125.7237
11.803669 88.511 -125.8811
11.889203 88.551 -126.0311
11.975357 88.589 -126.1748
12.062136 88.626 -126.3135
12.149543 88.661 -126.4485
12.237583 88.694 -126.5813
12.326262 88.726 -126.7132
12.415583 88.757 -126.8457
12.505552 88.786 -126.9801
12.596172 88.813 -127.1172
12.687449 88.837 -127.2576
12.779387 88.860 -127.4015
12.871992 88.880 -127.5488
12.965268 88.898 -127.6994
13.059220 88.914 -127.8527
13.153852 88.927 -128.0080
13.249170 88.938 -128.1646
13.345179 88.947 -128.3222
13.441884 88.954 -128.4804
13.539289 88.960 -128.6394
13.637401 88.965 -128.7996
13.736223 88.969 -128.9618
13.835761 88.972 -129.1275
13.936021 88.975 -129.2985
14.037007 88.978 -129.4767
14.138725 88.981 -129.6642
14.241180 88.985 -129.8633
14.344377 88.989 -130.0761
14.448323 88.993 -130.3042
14.553021 88.997 -130.5488
14.658478 89.000 -130.8108
14.764700 89.004 -131.0901
14.871691 89.006 -131.3861
14.979457 89.009 -131.6976
15.088005 89.010 -132.0229
15.197339 89.010 -132.3600
15.307465 89.010 -132.7066
15.418389 89.010 -133.0604
15.530117 89.009 -133.4193
15.642655 89.009 -133.7816
15.756008 89.009 -134.1460
15.870182 89.011 -134.5115
15.985184 89.014 -134.8779
16.101019 89.019 -135.2454
16.217694 89.026 -135.6145
16.335214 89.035 -135.9857
16.453586 89.047 -136.3597
16.572815 89.061 -136.7371
16.692909 89.077 -137.1180
16.813872 89.095 -137.5019
16.935713 89.115 -137.8881
17.058436 89.137 -138.2752
17.182048 89.159 -138.6614
17.306556 89.183 -139.0447
17.431967 89.208 -139.4227
17.558286 89.233 -139.7935
17.685521 89.260 -140.1552
17.813677 89.288 -140.5061
17.942762 89.316 -140.8455
18.072783 89.346 -141.1728
18.203746 89.377 -141.4879
18.335658 89.408 -141.7911
18.468526 89.441 -142.0829
18.602356 89.474 -142.3639
18.737156 89.508 -142.6344
18.872934 89.541 -142.8947
19.009695 89.575 -143.1448
19.147447 89.607 -143.3842
19.286197 89.639 -143.6126
19.425953 89.670 -143.8294
19.566721 89.699 -144.0341
19.708510 89.728 -144.2268
19.851326 89.755 -144.4076
19.995177 89.781 -144.5773
20.140070 89.805 -144.7371
20.286013 89.829 -144.8885
20.433014 89.851 -145.0332
20.581080 89.872 -145.1731
20.730219 89.891 -145.3099
20.880439 89.909 -145.4449
21.031747 89.925 -145.5793
21.184152 89.938 -145.7138
21.337661 89.950 -145.8488
21.492282 89.959 -145.9848
21.648024 89.966 -146.1218
21.804895 89.971 -146.2603
21.962902 89.974 -146.4010
22.122054 89.976 -146.5445
22.282360 89.976 -146.6920
22.443827 89.975 -146.8446
22.606464 89.973 -147.0032
22.770280 89.970 -147.1687
22.935283 89.967 -147.3417
23.101481 89.962 -147.5226
23.268884 89.957 -147.7114
23.437500 89.953 -147.9081
23.607338 89.948 -148.1125
23.778406 89.944 -148.3250
23.950714 89.940 -148.5459
24.124271 89.938 -148.7756
24.299086 89.936 -149.0150
24.475167 89.936 -149.2644
24.652524 89.938 -149.5241
24.831166 89.940 -149.7934
25.011103 89.943 -150.0712
25.192344 89.948 -150.3552
25.374898 89.952 -150.6429
25.558775 89.958 -150.9309
25.743984 89.964 -151.2161
25.930536 89.971 -151.4955
26.118439 89.979 -151.7668
26.307704 89.988 -152.0282
26.498341 89.999 -152.2792
26.690359 90.012 -152.5197
26.883768 90.026 -152.7502
27.078579 90.041 -152.9718
27.274801 90.058 -153.1855
27.472446 90.076 -153.3920
27.671522 90.094 -153.5921
27.872042 90.112 -153.7862
28.074014 90.130 -153.9743
28.277450 90.148 -154.1564
28.482360 90.164 -154.3320
28.688755 90.179 -154.5008
28.896645 90.193 -154.6625
29.106042 90.205 -154.8170
29.316957 90.215 -154.9643
29.529400 90.224 -155.1051
29.743382 90.232 -155.2404
29.958915 90.238 -155.3717
30.176009 90.243 -155.5006
30.394677 90.247 -155.6288
30.614929 90.249 -155.7581
30.836778 90.251 -155.8896
31.060234 90.251 -156.0242
31.285309 90.250 -156.1624
31.512015 90.249 -156.3047
31.740364 90.247 -156.4515
31.970368 90.244 -156.6034
32.202039 90.242 -156.7613
32.435388 90.240 -156.9260
32.670428 90.238 -157.0983
32.907171 90.237 -157.2784
33.145630 90.236 -157.4659
33.385817 90.235 -157.6599
33.627745 90.235 -157.8590
33.871425 90.235 -158.0616
34.116871 90.236 -158.2659
34.364096 90.237 -158.4706
34.613113 90.239 -158.6746
34.863934 90.242 -158.8765
35.116572 90.245 -159.0754
35.371041 90.249 -159.2703
35.627354 90.253 -159.4600
35.885525 90.257 -159.6440
36.145566 90.262 -159.8217
36.407492 90.266 -159.9933
36.671316 90.271 -160.1588
36.937051 90.276 -160.3186
37.204712 90.280 -160.4730
37.474313 90.283 -160.6218
37.745867 90.286 -160.7652
38.019389 90.288 -160.9033
38.294893 90.289 -161.0365
38.572394 90.289 -161.1658
38.851905 90.289 -161.2926
39.133442 90.289 -161.4184
39.417019 90.288 -161.5443
39.702651 90.286 -161.6716
39.990353 90.284 -161.8008
40.280140 90.282 -161.9322
40.572026 90.279 -162.0660
40.866028 90.276 -162.2023
41.162160 90.274 -162.3413
41.460438 90.271 -162.4831
41.760877 90.268 -162.6277
42.063494 90.266 -162.7748
42.368303 90.263 -162.9237
42.675322 90.261 -163.0735
42.984565 90.258 -163.2229
43.296048 90.256 -163.3707
43.609789 90.254 -163.5162
43.925804 90.252 -163.6593
44.244108 90.250 -163.8004
44.564719 90.249 -163.9401
44.887654 90.247 -164.0788
45.212928 90.245 -164.2159
45.540560 90.242 -164.3502
45.870565 90.239 -164.4799
46.202962 90.235 -164.6034
46.537768 90.232 -164.7209
46.875000 90.229 -164.8339
47.214676 90.226 -164.9456
47.556813 90.224 -165.0597
47.901429 90.223 -165.1786
48.248542 90.221 -165.3031
48.598171 90.218 -165.4317
48.950334 90.215 -165.5615
49.305048 90.211 -165.6895
49.662333 90.207 -165.8137
50.022206 90.203 -165.9338
50.384688 90.199 -166.0504
50.749796 90.195 -166.1645
51.117550 90.191 -166.2767
51.487969 90.187 -166.3867
51.861072 90.183 -166.4939
52.236879 90.179 -166.5979
52.615409 90.174 -166.6987
52.996681 90.170 -166.7968
53.380717 90.165 -166.8933
53.767536 90.161 -166.9889
54.157158 90.156 -167.0847
54.549603 90.151 -167.1816
54.944892 90.147 -167.2810
55.343045 90.143 -167.3838
55.744084 90.138 -167.4904
56.148028 90.134 -167.6009
56.554900 90.130 -167.7150
56.964720 90.126 -167.8330
57.377510 90.122 -167.9548
57.793291 90.117 -168.0801
58.212085 90.113 -168.2077
58.633914 90.108 -168.3351
59.058799 90.103 -168.4594
59.486764 90.097 -168.5782
59.917829 90.091 -168.6910
60.352019 90.085 -168.7985
60.789354 90.079 -168.9021
61.229859 90.073 -169.0030
61.673556 90.066 -169.1014
62.120468 90.059 -169.1975
62.570618 90.052 -169.2922
63.024031 90.044 -169.3871
63.480729 90.036 -169.4837
63.940736 90.027 -169.5820
64.404077 90.017 -169.6812
64.870776 90.007 -169.7800
65.340856 89.997 -169.8772
65.814343 89.986 -169.9724
66.291261 89.975 -170.0648
66.771635 89.965 -170.1542
67.255489 89.955 -170.2404
67.742850 89.945 -170.3236
68.233743 89.936 -170.4045
68.728193 89.927 -170.4836
69.226226 89.919 -170.5612
69.727867 89.911 -170.6376
70.233144 89.902 -170.7129
70.742083 89.894 -170.7869
71.254709 89.886 -170.8591
71.771050 89.878 -170.9294
72.291132 89.870 -170.9985
72.814984 89.863 -171.0677
73.342631 89.856 -171.1385
73.874102 89.849 -171.2121
74.409424 89.843 -171.2892
74.948626 89.836 -171.3697
75.491734 89.829 -171.4526
76.038779 89.823 -171.5371
76.589787 89.815 -171.6228
77.144788 89.808 -171.7097
77.703811 89.801 -171.7983
78.266885 89.793 -171.8891
78.834039 89.786 -171.9827
79.405303 89.778 -172.0802
79.980706 89.770 -172.1826
80.560280 89.763 -172.2911
81.144053 89.754 -172.4061
81.732056 89.745 -172.5270
82.324320 89.734 -172.6515
82.920876 89.722 -172.7760
83.521755 89.708 -172.8970
84.126988 89.692 -173.0126
84.736607 89.674 -173.1215
85.350643 89.655 -173.2212
85.969129 89.634 -173.3086
86.592097 89.612 -173.3822
87.219579 89.590 -173.4449
87.851608 89.568 -173.5022
88.488217 89.547 -173.5597
89.129439 89.524 -173.6216
89.775308 89.500 -173.6895
90.425856 89.474 -173.7629
91.081119 89.444 -173.8366
91.741131 89.411 -173.8999
92.405925 89.376 -173.9401
93.075536 89.342 -173.9511
93.750000 89.310 -173.9377
94.429351 89.284 -173.9112
95.113625 89.264 -173.8858
95.802858 89.251 -173.8785
96.497085 89.242 -173.9039
97.196342 89.234 -173.9631
97.900667 89.225 -174.0414
98.610096 89.214 -174.1201
99.324665 89.201 -174.1866
100.044413 89.186 -174.2356
100.769376 89.170 -174.2666
101.499592 89.154 -174.2829
102.235100 89.138 -174.2898
102.975938 89.121 -174.2922
103.722144 89.104 -174.2933
104.473757 89.086 -174.2950
105.230817 89.068 -174.2991
105.993363 89.051 -174.3070
106.761435 89.034 -174.3190
107.535072 89.016 -174.3336
108.314315 88.998 -174.3492
109.099206 88.980 -174.3645
109.889783 88.961 -174.3797
110.686090 88.941 -174.3960
111.488167 88.922 -174.4156
112.296056 88.902 -174.4391
113.109800 88.882 -174.4644
113.929440 88.863 -174.4865
114.755020 88.844 -174.5000
115.586582 88.827 -174.5002
116.424170 88.812 -174.4850
117.267827 88.799 -174.4566
118.117598 88.787 -174.4214
118.973527 88.775 -174.3879
119.835658 88.759 -174.3587
120.704037 88.740 -174.3263
121.578708 88.716 -174.2822
122.459718 88.690 -174.2277
123.347111 88.664 -174.1727
124.240935 88.640 -174.1267
125.141236 88.617 -174.0941
126.048061 88.595 -174.0747
126.961458 88.575 -174.0656
127.881473 88.556 -174.0625
128.808154 88.537 -174.0610
129.741551 88.518 -174.0579
130.681712 88.499 -174.0524
131.628686 88.480 -174.0455
132.582521 88.459 -174.0394
133.543269 88.438 -174.0354
134.510979 88.417 -174.0340
135.485701 88.395 -174.0347
136.467486 88.373 -174.0365
137.456386 88.350 -174.0381
138.452451 88.327 -174.0385
139.455735 88.303 -174.0371
140.466288 88.279 -174.0342
141.484165 88.254 -174.0303
142.509418 88.228 -174.0255
143.542100 88.202 -174.0198
144.582265 88.175 -174.0132
145.629968 88.148 -174.0051
146.685262 88.120 -173.9940
147.748204 88.091 -173.9783
148.818849 88.061 -173.9565
149.897251 88.030 -173.9273
150.983469 87.998 -173.8893
152.077557 87.966 -173.8413
153.179574 87.934 -173.7823
154.289576 87.903 -173.7126
155.407622 87.872 -173.6343
156.533770 87.844 -173.5513
157.668078 87.816 -173.4684
158.810606 87.790 -173.3898
159.961413 87.764 -173.3180
161.120559 87.739 -173.2532
162.288105 87.712 -173.1941
163.464112 87.685 -173.1383
164.648640 87.657 -173.0826
165.841752 87.628 -173.0242
167.043510 87.597 -172.9603
168.253976 87.566 -172.8881
169.473213 87.533 -172.8054
170.701286 87.500 -172.7114
171.938258 87.467 -172.6076
173.184194 87.434 -172.4971
174.439158 87.402 -172.3836
175.703216 87.371 -172.2706
176.976434 87.340 -172.1597
178.258878 87.310 -172.0511
179.550615 87.279 -171.9436
180.851713 87.249 -171.8357
182.162239 87.219 -171.7273
183.482262 87.190 -171.6186
184.811850 87.160 -171.5107
186.151073 87.129 -171.4046
187.500000 87.098 -171.3007
188.858702 87.067 -171.1980
190.227250 87.034 -171.0943
191.605715 87.001 -170.9874
192.994169 86.967 -170.8755
194.392685 86.933 -170.7573
195.801334 86.898 -170.6321
197.220191 86.863 -170.4998
198.649330 86.827 -170.3603
200.088825 86.792 -170.2135
201.538751 86.756 -170.0595
202.999184 86.722 -169.8997
204.470200 86.689 -169.7369
205.951875 86.656 -169.5751
207.444287 86.624 -169.4177
208.947514 86.591 -169.2660
210.461634 86.557 -169.1186
211.986726 86.522 -168.9721
213.522869 86.485 -168.8213
215.070144 86.447 -168.6607
216.628631 86.408 -168.4861
218.198411 86.369 -168.2960
219.779567 86.331 -168.0927
221.372180 86.294 -167.8818
222.976334 86.259 -167.6691
224.592112 86.225 -167.4586
226.219600 86.191 -167.2520
227.858880 86.158 -167.0495
229.510039 86.125 -166.8497
231.173164 86.092 -166.6508
232.848340 86.058 -166.4510
234.535655 86.024 -166.2495
236.235197 85.990 -166.0467
237.947054 85.956 -165.8434
239.671317 85.920 -165.6400
241.408074 85.884 -165.4354
243.157416 85.846 -165.2275
244.919435 85.808 -165.0127
246.694223 85.768 -164.7873
248.481871 85.727 -164.5478
250.282473 85.687 -164.2918
252.096123 85.646 -164.0185
253.922915 85.607 -163.7304
255.762945 85.570 -163.4339
257.616309 85.536 -163.1391
259.483103 85.504 -162.8557
261.363424 85.472 -162.5881
263.257372 85.441 -162.3341
265.165043 85.408 -162.0869
267.086538 85.373 -161.8384
269.021957 85.336 -161.5813
270.971401 85.299 -161.3107
272.934972 85.262 -161.0255
274.912771 85.225 -160.7275
276.904902 85.190 -160.4197
278.911469 85.156 -160.1055
280.932577 85.123 -159.7875
282.968330 85.092 -159.4695
285.018835 85.064 -159.1569
287.084199 85.037 -158.8567
289.164530 85.010 -158.5742
291.259935 84.982 -158.3101
293.370525 84.953 -158.0590
295.496408 84.920 -157.8112
297.637697 84.884 -157.5577
299.794503 84.846 -157.2926
301.966937 84.807 -157.0141
304.155114 84.767 -156.7228
306.359147 84.727 -156.4212
308.579152 84.688 -156.1128
310.815244 84.649 -155.8004
313.067539 84.610 -155.4854
315.336156 84.569 -155.1663
317.621211 84.528 -154.8396
319.922826 84.487 -154.5011
322.241118 84.445 -154.1493
324.576210 84.404 -153.7854
326.928223 84.363 -153.4126
329.297280 84.325 -153.0338
331.683504 84.287 -152.6525
334.087019 84.250 -152.2718
336.507952 84.213 -151.8941
338.946427 84.176 -151.5196
341.402572 84.139 -151.1463
343.876516 84.102 -150.7709
346.368387 84.064 -150.3903
348.878315 84.026 -150.0025
351.406431 83.988 -149.6072
353.952867 83.950 -149.2049
356.517756 83.912 -148.7970
359.101230 83.873 -148.3846
361.703426 83.835 -147.9687
364.324478 83.797 -147.5496
366.964523 83.759 -147.1269
369.623699 83.721 -146.6994
372.302145 83.684 -146.2657
375.000000 83.646 -145.8252
377.717405 83.609 -145.3785
380.454501 83.572 -144.9270
383.211431 83.536 -144.4717
385.988339 83.499 -144.0127
388.785369 83.463 -143.5497
391.602668 83.428 -143.0820
394.440383 83.392 -142.6095
397.298660 83.357 -142.1326
400.177650 83.322 -141.6524
403.077502 83.287 -141.1708
405.998368 83.253 -140.6897
408.940400 83.219 -140.2088
411.903750 83.185 -139.7252
414.888575 83.150 -139.2347
417.895028 83.114 -138.7339
420.923268 83.079 -138.2206
423.973452 83.044 -137.6940
427.045738 83.010 -137.1559
430.140287 82.977 -136.6104
433.257261 82.946 -136.0629
436.396822 82.916 -135.5171
439.559133 82.888 -134.9737
442.744360 82.860 -134.4323
445.952668 82.833 -133.8940
449.184225 82.808 -133.3638
452.439199 82.783 -132.8481
455.717760 82.758 -132.3506
459.020079 82.731 -131.8675
462.346327 82.701 -131.3873
465.696680 82.668 -130.8978
469.071310 82.633 -130.3914
472.470394 82.598 -129.8664
475.894109 82.562 -129.3251
479.342634 82.526 -128.7730
482.816148 82.491 -128.2158
486.314833 82.455 -127.6551
489.838871 82.418 -127.0866
493.388445 82.381 -126.5028
496.963741 82.344 -125.9000
500.564945 82.309 -125.2820
504.192245 82.276 -124.6569
507.845830 82.245 -124.0318
511.525890 82.214 -123.4102
515.232618 82.183 -122.7909
518.966206 82.152 -122.1706
522.726849 82.120 -121.5446
526.514743 82.087 -120.9082
530.330086 82.055 -120.2593
534.173076 82.024 -119.5997
538.043915 81.993 -118.9340
541.942803 81.964 -118.2646
545.869944 81.935 -117.5905
549.825542 81.907 -116.9110
553.809805 81.881 -116.2274
557.822939 81.855 -115.5428
561.865154 81.830 -114.8598
565.936660 81.805 -114.1786
570.037671 81.780 -113.4964
574.168399 81.754 -112.8092
578.329060 81.727 -112.1146
582.519870 81.701 -111.4127
586.741049 81.674 -110.7033
590.992817 81.648 -109.9839
595.275394 81.622 -109.2523
599.589005 81.597 -108.5102
603.933874 81.573 -107.7623
608.310228 81.550 -107.0131
612.718295 81.528 -106.2635
617.158304 81.505 -105.5102
621.630488 81.481 -104.7464
626.135079 81.458 -103.9655
630.672311 81.435 -103.1661
635.242423 81.415 -102.3531
639.845651 81.396 -101.5332
644.482237 81.380 -100.7085
649.152421 81.366 -99.8778
653.856447 81.355 -99.0428
658.594560 81.348 -98.2107
663.367008 81.342 -97.3920
668.174039 81.338 -96.5948
673.015903 81.334 -95.8182
677.892854 81.327 -95.0542
682.805145 81.319 -94.2934
687.753032 81.308 -93.5289
692.736774 81.297 -92.7551
697.756631 81.284 -91.9672
702.812863 81.271 -91.1633
707.905735 81.258 -90.3452
713.035511 81.247 -89.5177
718.202461 81.236 -88.6850
723.406852 81.226 -87.8489
728.648956 81.217 -87.0090
733.929047 81.208 -86.1639
739.247399 81.200 -85.3123
744.604290 81.193 -84.4530
750.000000 81.187 -83.5850
755.434809 81.182 -82.7077
760.909001 81.178 -81.8210
766.422861 81.174 -80.9258
771.976677 81.172 -80.0236
777.570739 81.171 -79.1163
783.205337 81.171 -78.2051
788.880766 81.172 -77.2891
794.597321 81.175 -76.3651
800.355301 81.179 -75.4299
806.155005 81.187 -74.4841
811.996736 81.198 -73.5338
817.880799 81.212 -72.5879
823.807501 81.230 -71.6564
829.777150 81.250 -70.7478
835.790057 81.269 -69.8643
841.846536 81.288 -68.9989
847.946903 81.304 -68.1407
854.091476 81.319 -67.2812
860.280575 81.333 -66.4164
866.514523 81.346 -65.5429
872.793644 81.359 -64.6573
879.118267 81.372 -63.7593
885.488720 81.387 -62.8535
891.905336 81.403 -61.9441
898.368450 81.420 -61.0319
904.878398 81.438 -60.1148
911.435520 81.457 -59.1914
918.040157 81.478 -58.2633
924.692655 81.500 -57.3330
931.393359 81.525 -56.4036
938.142619 81.551 -55.4785
944.940787 81.577 -54.5596
951.788218 81.604 -53.6460
958.685268 81.632 -52.7361
965.632296 81.659 -51.8275
972.629666 81.686 -50.9172
979.677741 81.715 -50.0042
986.776890 81.743 -49.0890
993.927482 81.772 -48.1707
1001.129891 81.802 -47.2451
1008.384491 81.833 -46.3083
1015.691660 81.866 -45.3618
1023.051781 81.902 -44.4113
1030.465236 81.943 -43.4652
1037.932411 81.987 -42.5355
1045.453698 82.035 -41.6339
1053.029486 82.083 -40.7652
1060.660172 82.131 -39.9251
1068.346153 82.177 -39.1042
1076.087829 82.221 -38.2927
1083.885605 82.263 -37.4842
1091.739887 82.304 -36.6769
1099.651084 82.344 -35.8713
1107.619609 82.383 -35.0673
1115.645878 82.421 -34.2640
1123.730308 82.458 -33.4601
1131.873321 82.495 -32.6541
1140.075341 82.531 -31.8449
1148.336797 82.568 -31.0318
1156.658119 82.604 -30.2139
1165.039741 82.641 -29.3899
1173.482099 82.679 -28.5578
1181.985634 82.718 -27.7185
1190.550789 82.759 -26.8789
1199.178011 82.804 -26.0513
1207.867749 82.850 -25.2480
1216.620457 82.897 -24.4744
1225.436590 82.941 -23.7261
1234.316609 82.983 -22.9938
1243.260976 83.022 -22.2677
1252.270157 83.058 -21.5400
1261.344623 83.092 -20.8070
1270.484846 83.124 -20.0679
1279.691303 83.154 -19.3218
1288.964474 83.184 -18.5670
1298.304842 83.212 -17.8038
1307.712894 83.241 -17.0342
1317.189120 83.269 -16.2619
1326.734016 83.297 -15.4888
1336.348077 83.324 -14.7146
1346.031806 83.350 -13.9362
1355.785708 83.374 -13.1494
1365.610290 83.398 -12.3496
1375.506065 83.420 -11.5317
1385.473549 83.442 -10.6905
1395.513261 83.467 -9.8251
1405.625726 83.494 -8.9414
1415.811469 83.525 -8.0522
1426.071023 83.559 -7.1732
1436.404921 83.595 -6.3144
1446.813703 83.632 -5.4759
1457.297912 83.668 -4.6520
1467.858093 83.702 -3.8358
1478.494798 83.735 -3.0228
1489.208581 83.767 -2.2088
1500.000000 83.798 -1.3900
1510.869618 83.828 -0.5625
1521.818002 83.857 0.2769
1532.845723 83.886 1.1306
1543.953355 83.916 2.0004
1555.141477 83.948 2.8866
1566.410674 83.982 3.7850
1577.761531 84.021 4.6840
1589.194642 84.063 5.5691
1600.710601 84.106 6.4303
1612.310010 84.150 7.2663
1623.993473 84.193 8.0820
1635.761599 84.234 8.8843
1647.615002 84.273 9.6796
1659.554299 84.310 10.4733
1671.580114 84.346 11.2696
1683.693072 84.381 12.0697
1695.893807 84.414 12.8721
1708.182952 84.447 13.6750
1720.561150 84.479 14.4792
1733.029045 84.508 15.2883
1745.587288 84.535 16.1089
1758.236533 84.561 16.9496
1770.977440 84.587 17.8182
1783.810673 84.615 18.7158
1796.736900 84.646 19.6346
1809.756796 84.681 20.5611
1822.871040 84.720 21.4852
1836.080315 84.761 22.4045
1849.385310 84.803 23.3213
1862.786718 84.846 24.2393
1876.285239 84.891 25.1619
1889.881575 84.939 26.0926
1903.576436 84.989 27.0337
1917.370535 85.043 27.9867
1931.264593 85.103 28.9500
1945.259332 85.171 29.9164
1959.355483 85.248 30.8695
1973.553781 85.334 31.7873
1987.854965 85.428 32.6500
2002.259781 85.529 33.4446
2016.768981 85.634 34.1631
2031.383320 85.742 34.7989
2046.103561 85.852 35.3442
2060.930471 85.963 35.7891
2075.864823 86.071 36.1199
2090.907395 86.174 36.3228
2106.058972 86.266 36.3892
2121.320344 86.341 36.3205
2136.692305 86.393 36.1322
2152.175658 86.415 35.8551
2167.771210 86.402 35.5326
2183.479774 86.350 35.2187
2199.302169 86.257 34.9818
2215.239219 86.123 34.9058
2231.291755 85.953 35.0829
2247.460615 85.759 35.5927
2263.746641 85.558 36.4771
2280.150683 85.367 37.7229
2296.673595 85.204 39.2636
2313.316238 85.079 40.9995
2330.079481 84.996 42.8230
2346.964198 84.954 44.6376
2363.971268 84.948 46.3729
2381.101578 84.969 47.9907
2398.356022 85.008 49.4804
2415.735498 85.059 50.8495
2433.240913 85.116 52.1136
2450.873180 85.177 53.2890
2468.633217 85.239 54.3885
2486.521951 85.301 55.4216
2504.540314 85.363 56.3965
2522.689246 85.422 57.3225
2540.969692 85.479 58.2077
2559.382606 85.535 59.0552
2577.928947 85.588 59.8636
2596.609683 85.638 60.6323
2615.425787 85.683 61.3657
2634.378241 85.724 62.0719
2653.468031 85.758 62.7614
2672.696154 85.788 63.4451
2692.063613 85.813 64.1313
2711.571415 85.837 64.8218
2731.220579 85.860 65.5073
2751.012130 85.883 66.1711
2770.947098 85.904 66.7968
2791.026522 85.923 67.3734
2811.251451 85.935 67.8979
2831.622938 85.938 68.3732
2852.142045 85.929 68.8071
2872.809842 85.905 69.2134
2893.627406 85.863 69.6144
2914.595823 85.801 70.0426
2935.716186 85.719 70.5365
2956.989596 85.617 71.1367
2978.417161 85.497 71.8880
3000.000000 85.363 72.8438
3021.739237 85.222 74.0654
3043.636005 85.086 75.6115
3065.691446 84.972 77.5135
3087.906710 84.902 79.7394
3110.282955 84.895 82.1612
3132.821347 84.960 84.5630
3155.523062 85.089 86.7054
3178.389283 85.261 88.4137
3201.421202 85.446 89.6297
3224.620020 85.618 90.4038
3247.986946 85.759 90.8488
3271.523198 85.861 91.0951
3295.230004 85.922 91.2621
3319.108599 85.948 91.4423
3343.160228 85.947 91.6946
3367.386145 85.924 92.0469
3391.787613 85.888 92.5059
3416.365904 85.843 93.0669
3441.122300 85.793 93.7230
3466.058091 85.739 94.4687
3491.174576 85.686 95.2971
3516.473066 85.635 96.1950
3541.954880 85.588 97.1434
3567.621345 85.545 98.1228
3593.473800 85.507 99.1167
3619.513592 85.471 100.1129
3645.742080 85.436 101.1049
3672.160630 85.401 102.0953
3698.770620 85.363 103.0957
3725.573436 85.323 104.1194
3752.570477 85.282 105.1739
3779.763150 85.241 106.2591
3807.152872 85.201 107.3715
3834.741071 85.161 108.5099
3862.529185 85.123 109.6776
3890.518664 85.088 110.8767
3918.710966 85.057 112.1027
3947.107561 85.031 113.3437
3975.709929 85.011 114.5828
4004.519563 84.996 115.8010
4033.537962 84.984 116.9809
4062.766641 84.972 118.1132
4092.207123 84.958 119.1999
4121.860942 84.938 120.2491
4151.729646 84.909 121.2730
4181.814790 84.869 122.2899
4212.117944 84.816 123.3304
4242.640687 84.748 124.4381
4273.384610 84.669 125.6605
4304.351317 84.584 127.0355
4335.542421 84.498 128.5874
4366.959549 84.419 130.3271
4398.604338 84.357 132.2470
4430.478438 84.320 134.3114
4462.583511 84.312 136.4568
4494.921231 84.336 138.6091
4527.493283 84.389 140.7045
4560.301365 84.464 142.7014
4593.347189 84.557 144.5815
4626.632476 84.662 146.3467
4660.158962 84.777 148.0104
4693.928395 84.899 149.5864
4727.942535 85.028 151.0811
4762.203156 85.166 152.4912
4796.712043 85.313 153.8041
4831.470996 85.467 155.0046
4866.481826 85.626 156.0800
4901.746360 85.790 157.0187
4937.266434 85.957 157.8049
4973.043902 86.122 158.4201
5009.080628 86.282 158.8489
5045.378492 86.431 159.0850
5081.939384 86.565 159.1301
5118.765212 86.676 158.9929
5155.857894 86.761 158.6890
5193.219366 86.812 158.2420
5230.851574 86.824 157.6857
5268.756481 86.793 157.0636
5306.936062 86.715 156.4226
5345.392309 86.588 155.8097
5384.127225 86.408 155.2820
5423.142830 86.172 154.9198
5462.441159 85.880 154.8280
5502.024259 85.537 155.1283
5541.894195 85.152 155.9602
5582.053045 84.738 157.5012
5622.502902 84.322 159.9953
5663.245876 83.946 163.7291
5704.284090 83.682 168.8529
5745.619684 83.609 175.0438
5787.254813 83.768 -178.6459
5829.191647 84.125 -173.3217
5871.432373 84.593 -169.5656
5913.979192 85.085 -167.3159
5956.834323 85.540 -166.1959
6000.000000 85.934 -165.8063
6043.478473 86.260 -165.8384
6087.272010 86.524 -166.0857
6131.382892 86.734 -166.4243
6175.813420 86.899 -166.7844
6220.565910 87.025 -167.1245
6265.642695 87.119 -167.4155
6311.046124 87.185 -167.6348
6356.778566 87.229 -167.7692
6402.842404 87.258 -167.8164
6449.240040 87.274 -167.7832
6495.973891 87.281 -167.6836
6543.046396 87.283 -167.5374
6590.460007 87.277 -167.3650
6638.217197 87.264 -167.1793
6686.320456 87.239 -166.9807
6734.772290 87.200 -166.7568
6783.575226 87.145 -166.4851
6832.731809 87.073 -166.1321
6882.244600 86.984 -165.6529
6932.116181 86.882 -164.9910
6982.349153 86.772 -164.0818
7032.946133 86.667 -162.8690
7083.909760 86.585 -161.3392
7135.242690 86.544 -159.5548
7186.947600 86.557 -157.6509
7239.027185 86.624 -155.7851
7291.484160 86.738 -154.0812
7344.321260 86.885 -152.6035
7397.541239 87.053 -151.3619
7451.146872 87.232 -150.3317
7505.140954 87.420 -149.4767
7559.526299 87.614 -148.7669
7614.305743 87.816 -148.1880
7669.482141 88.030 -147.7449
7725.058371 88.257 -147.4628
7781.037328 88.496 -147.3792
7837.421932 88.743 -147.5309
7894.215122 88.995 -147.9451
7951.419859 89.246 -148.6390
8009.039125 89.490 -149.6222
8067.075924 89.724 -150.9041
8125.533282 89.942 -152.4999
8184.414245 90.138 -154.4296
8243.721885 90.301 -156.7076
8303.459292 90.420 -159.3319
8363.629581 90.479 -162.2762
8424.235888 90.464 -165.4838
8485.281374 90.361 -168.8666
8546.769221 90.156 -172.3004
8608.702634 89.836 -175.6132
8671.084842 89.394 -178.5714
8733.919097 88.834 179.1151
8797.208675 88.177 177.7435
8860.956876 87.467 177.5179
8925.167022 86.765 178.4357
8989.842461 86.131 -179.7425
9054.986566 85.606 -177.3986
9120.602731 85.201 -174.9066
9186.694378 84.904 -172.5244
9253.264952 84.687 -170.3630
9320.317925 84.527 -168.4183
9387.856790 84.406 -166.6263
9455.885071 84.318 -164.9174
9524.406312 84.262 -163.2591
9593.424086 84.244 -161.6696
9662.941992 84.263 -160.1964
9732.963653 84.317 -158.8850
9803.492719 84.402 -157.7577
9874.532869 84.518 -156.8164
9946.087805 84.666 -156.0670
10018.161257 84.852 -155.5432
10090.756983 85.077 -155.3157
10163.878768 85.341 -155.4880
10237.530423 85.634 -156.1789
10311.715789 85.937 -157.4961
10386.438732 86.224 -159.5023
10461.703149 86.464 -162.1895
10537.512962 86.634 -165.4820
10613.872125 86.716 -169.2676
10690.784618 86.698 -173.4298
10768.254450 86.570 -177.8586
10846.285661 86.318 177.5694
10924.882318 85.927 173.0279
11004.048518 85.377 168.7795
11083.788390 84.659 165.1922
11164.106090 83.784 162.6953
11245.005805 82.788 161.6615
11326.491752 81.736 162.2547
11408.568180 80.707 164.3316
11491.239368 79.776 167.4677
11574.509626 78.993 171.1191
11658.383294 78.372 174.8207
11742.864745 77.898 178.2940
11827.958384 77.543 -178.5700
11913.668646 77.274 -175.7842
12000.000000 77.068 -173.3263
12086.956947 76.904 -171.1699
12174.544019 76.771 -169.2981
12262.765784 76.654 -167.7041
12351.626840 76.541 -166.3746
12441.131819 76.417 -165.2579
12531.285389 76.273 -164.2478
12622.092249 76.107 -163.2040
12713.557132 75.931 -162.0059
12805.684808 75.766 -160.6153
12898.480079 75.634 -159.1153
12991.947783 75.549 -157.6959
13086.092792 75.506 -156.5832
13180.920015 75.479 -155.9469
13276.434395 75.430 -155.8286
13372.640911 75.316 -156.1043
13469.544580 75.101 -156.4731
13567.150452 74.768 -156.4613
13665.463617 74.333 -155.4509
13764.489200 73.858 -152.7828
13864.232362 73.460 -148.0153
13964.698305 73.280 -141.3466
14065.892266 73.426 -133.8504
14167.819519 73.909 -127.0016
14270.485380 74.650 -121.8292
14373.895200 75.543 -118.6401
14478.054370 76.498 -117.3105
14582.968320 77.451 -117.5997
14688.642520 78.360 -119.2826
14795.082478 79.189 -122.1689
14902.293745 79.909 -126.0790
15010.281908 80.499 -130.8171
15119.052599 80.942 -136.1611
15228.611486 81.233 -141.8745
15338.964283 81.375 -147.7283
15450.116741 81.381 -153.5222
15562.074656 81.269 -159.0997
15674.843864 81.058 -164.3511
15788.430244 80.767 -169.2002
15902.839718 80.411 -173.5825
16018.078250 80.006 -177.4307
16134.151848 79.574 179.3243
16251.066563 79.141 176.7369
16368.828491 78.747 174.8181
16487.443769 78.442 173.4918
16606.918584 78.279 172.5479
16727.259161 78.298 171.6304
16848.471777 78.504 170.2932
16970.562748 78.860 168.1093
17093.538442 79.297 164.7789
17217.405268 79.735 160.1833
17342.169684 80.100 154.3745
17467.838194 80.330 147.5387
17594.417350 80.384 139.9570
17721.913751 80.236 131.9639
17850.334044 79.883 123.8974
17979.684923 79.334 116.0536
18109.973131 78.614 108.6568
18241.205462 77.753 101.8454
18373.388756 76.783 95.6734
18506.529905 75.735 90.1244
18640.635849 74.635 85.1335
18775.713581 73.502 80.6157
18911.770141 72.340 76.4990
19048.812624 71.149 72.7536
19186.848172 69.918 69.4159
19325.883983 68.637 66.5994
19465.927305 67.304 64.4827
19606.985439 65.943 63.2504
19749.065738 64.631 62.9630
19892.175609 63.527 63.3745
20036.322514 62.870 63.8797
