* Measurement data measured by REW V5.31.3
* Source: EXCL: Microphone (USB Sound Device        ), MICROPHONE (Master Volume), R, volume: 0.390
* Format: 256k Log Swept Sine, 1 sweep at -10.0 dBFS with no timing reference
* Dated: Jul 9, 2025 11:44:05 PM
* REW Settings:
*  C-weighting compensation: Off
*  Target level: 75.0 dB
* Note: EJ07M New
* Measurement: L EJ07M
* Smoothing: 1/12 octave
* Frequency Step: 96 ppo
* Start Frequency: 0.36621094 Hz
*
* Freq(Hz) SPL(dB) Phase(degrees)
0.366211 92.239 -63.4282
0.368865 92.248 -63.4897
0.371538 92.260 -63.5815
0.374230 92.276 -63.6963
0.376942 92.294 -63.8279
0.379673 92.314 -63.9717
0.382424 92.334 -64.1246
0.385196 92.354 -64.2847
0.387987 92.375 -64.4511
0.390798 92.397 -64.6230
0.393630 92.418 -64.8001
0.396483 92.440 -64.9824
0.399356 92.461 -65.1696
0.402250 92.483 -65.3618
0.405165 92.506 -65.5590
0.408101 92.528 -65.7610
0.411058 92.550 -65.9680
0.414037 92.573 -66.1800
0.417037 92.596 -66.3968
0.420059 92.619 -66.6185
0.423103 92.642 -66.8450
0.426169 92.665 -67.0765
0.429257 92.688 -67.3128
0.432368 92.712 -67.5538
0.435501 92.736 -67.7997
0.438656 92.760 -68.0504
0.441835 92.784 -68.3057
0.445037 92.808 -68.5658
0.448262 92.833 -68.8304
0.451510 92.857 -69.0997
0.454782 92.882 -69.3736
0.458077 92.907 -69.6519
0.461397 92.932 -69.9347
0.464740 92.958 -70.2219
0.468108 92.983 -70.5135
0.471500 93.009 -70.8093
0.474917 93.035 -71.1093
0.478358 93.061 -71.4135
0.481825 93.088 -71.7217
0.485316 93.114 -72.0339
0.488833 93.141 -72.3500
0.492375 93.168 -72.6700
0.495943 93.195 -72.9936
0.499537 93.222 -73.3210
0.503157 93.250 -73.6518
0.506803 93.277 -73.9862
0.510475 93.305 -74.3239
0.514175 93.333 -74.6648
0.517900 93.362 -75.0089
0.521653 93.390 -75.3561
0.525434 93.419 -75.7062
0.529241 93.448 -76.0592
0.533076 93.477 -76.4148
0.536939 93.506 -76.7731
0.540830 93.536 -77.1339
0.544749 93.565 -77.4970
0.548696 93.595 -77.8624
0.552673 93.626 -78.2299
0.556677 93.656 -78.5994
0.560711 93.687 -78.9707
0.564774 93.717 -79.3439
0.568867 93.749 -79.7187
0.572989 93.780 -80.0949
0.577141 93.811 -80.4726
0.581324 93.843 -80.8515
0.585536 93.875 -81.2315
0.589779 93.907 -81.6126
0.594053 93.940 -81.9945
0.598358 93.972 -82.3771
0.602694 94.005 -82.7604
0.607061 94.039 -83.1442
0.611460 94.072 -83.5283
0.615891 94.106 -83.9127
0.620354 94.140 -84.2972
0.624849 94.174 -84.6817
0.629377 94.208 -85.0662
0.633938 94.243 -85.4504
0.638532 94.278 -85.8342
0.643159 94.313 -86.2176
0.647819 94.348 -86.6005
0.652514 94.384 -86.9827
0.657242 94.420 -87.3641
0.662005 94.456 -87.7446
0.666802 94.492 -88.1242
0.671634 94.529 -88.5027
0.676501 94.566 -88.8801
0.681403 94.603 -89.2562
0.686341 94.641 -89.6309
0.691314 94.678 -90.0043
0.696324 94.716 -90.3763
0.701370 94.754 -90.7467
0.706452 94.792 -91.1157
0.711571 94.831 -91.4834
0.716728 94.868 -91.8499
0.721921 94.906 -92.2156
0.727153 94.942 -92.5812
0.732422 94.977 -92.9475
0.737729 95.010 -93.3154
0.743075 95.042 -93.6858
0.748460 95.073 -94.0596
0.753883 95.103 -94.4373
0.759346 95.132 -94.8191
0.764849 95.161 -95.2052
0.770391 95.189 -95.5956
0.775974 95.218 -95.9902
0.781597 95.246 -96.3890
0.787261 95.274 -96.7917
0.792966 95.301 -97.1983
0.798712 95.329 -97.6086
0.804500 95.356 -98.0223
0.810329 95.383 -98.4394
0.816201 95.410 -98.8596
0.822116 95.437 -99.2829
0.828073 95.464 -99.7088
0.834074 95.490 -100.1374
0.840118 95.516 -100.5684
0.846206 95.542 -101.0015
0.852338 95.568 -101.4367
0.858514 95.593 -101.8736
0.864735 95.618 -102.3121
0.871001 95.643 -102.7519
0.877313 95.668 -103.1929
0.883670 95.692 -103.6349
0.890074 95.716 -104.0775
0.896524 95.740 -104.5207
0.903020 95.763 -104.9641
0.909564 95.787 -105.4076
0.916155 95.810 -105.8509
0.922794 95.832 -106.2938
0.929481 95.855 -106.7361
0.936216 95.877 -107.1776
0.943000 95.898 -107.6179
0.949834 95.920 -108.0570
0.956717 95.941 -108.4945
0.963649 95.961 -108.9302
0.970632 95.982 -109.3640
0.977666 96.001 -109.7955
0.984750 96.021 -110.2246
0.991886 96.040 -110.6509
0.999074 96.059 -111.0744
1.006314 96.077 -111.4947
1.013606 96.095 -111.9115
1.020951 96.113 -112.3248
1.028349 96.130 -112.7342
1.035801 96.147 -113.1396
1.043307 96.163 -113.5406
1.050867 96.179 -113.9373
1.058482 96.194 -114.3293
1.066152 96.209 -114.7167
1.073878 96.223 -115.0995
1.081660 96.237 -115.4780
1.089498 96.251 -115.8528
1.097393 96.263 -116.2248
1.105345 96.276 -116.5950
1.113355 96.287 -116.9648
1.121423 96.298 -117.3351
1.129549 96.308 -117.7067
1.137734 96.318 -118.0803
1.145979 96.327 -118.4561
1.154283 96.335 -118.8343
1.162647 96.342 -119.2151
1.171072 96.348 -119.5984
1.179558 96.354 -119.9842
1.188106 96.359 -120.3726
1.196715 96.363 -120.7633
1.205387 96.367 -121.1563
1.214122 96.369 -121.5515
1.222920 96.371 -121.9488
1.231782 96.372 -122.3479
1.240708 96.372 -122.7487
1.249699 96.372 -123.1509
1.258754 96.371 -123.5543
1.267876 96.368 -123.9587
1.277063 96.365 -124.3637
1.286318 96.362 -124.7690
1.295639 96.357 -125.1743
1.305027 96.352 -125.5791
1.314484 96.346 -125.9830
1.324009 96.339 -126.3855
1.333604 96.331 -126.7861
1.343268 96.322 -127.1843
1.353002 96.313 -127.5794
1.362806 96.302 -127.9708
1.372681 96.291 -128.3579
1.382628 96.279 -128.7399
1.392647 96.266 -129.1160
1.402739 96.253 -129.4855
1.412904 96.239 -129.8476
1.423142 96.223 -130.2017
1.433455 96.207 -130.5470
1.443843 96.190 -130.8833
1.454305 96.172 -131.2105
1.464844 96.153 -131.5290
1.475459 96.132 -131.8394
1.486150 96.110 -132.1425
1.496920 96.087 -132.4392
1.507767 96.062 -132.7300
1.518693 96.036 -133.0153
1.529698 96.008 -133.2952
1.540783 95.978 -133.5698
1.551948 95.947 -133.8391
1.563194 95.914 -134.1029
1.574521 95.880 -134.3611
1.585931 95.844 -134.6135
1.597423 95.808 -134.8598
1.608999 95.770 -135.0998
1.620658 95.730 -135.3333
1.632402 95.690 -135.5598
1.644232 95.649 -135.7790
1.656146 95.607 -135.9906
1.668147 95.563 -136.1942
1.680235 95.520 -136.3893
1.692411 95.475 -136.5754
1.704675 95.430 -136.7521
1.717028 95.384 -136.9188
1.729470 95.338 -137.0749
1.742003 95.292 -137.2198
1.754626 95.246 -137.3529
1.767341 95.199 -137.4733
1.780147 95.153 -137.5804
1.793047 95.106 -137.6733
1.806040 95.060 -137.7510
1.819128 95.013 -137.8124
1.832310 94.965 -137.8563
1.845587 94.917 -137.8818
1.858961 94.867 -137.8876
1.872432 94.816 -137.8730
1.886001 94.763 -137.8375
1.899667 94.709 -137.7807
1.913433 94.653 -137.7024
1.927299 94.596 -137.6024
1.941265 94.538 -137.4808
1.955332 94.479 -137.3377
1.969501 94.419 -137.1730
1.983773 94.360 -136.9871
1.998148 94.301 -136.7800
2.012627 94.242 -136.5523
2.027212 94.184 -136.3042
2.041902 94.127 -136.0362
2.056698 94.072 -135.7489
2.071602 94.019 -135.4431
2.086614 93.968 -135.1195
2.101734 93.920 -134.7789
2.116964 93.876 -134.4223
2.132304 93.835 -134.0503
2.147756 93.799 -133.6634
2.163320 93.766 -133.2615
2.178996 93.739 -132.8439
2.194786 93.716 -132.4088
2.210690 93.698 -131.9537
2.226710 93.685 -131.4762
2.242845 93.675 -130.9746
2.259098 93.670 -130.4482
2.275468 93.669 -129.8978
2.291957 93.672 -129.3248
2.308566 93.679 -128.7316
2.325295 93.690 -128.1211
2.342145 93.704 -127.4965
2.359117 93.722 -126.8613
2.376212 93.744 -126.2193
2.393431 93.769 -125.5745
2.410775 93.798 -124.9308
2.428244 93.830 -124.2924
2.445840 93.866 -123.6633
2.463564 93.905 -123.0475
2.481416 93.948 -122.4487
2.499397 93.994 -121.8701
2.517509 94.043 -121.3141
2.535752 94.097 -120.7823
2.554127 94.154 -120.2748
2.572635 94.217 -119.7907
2.591277 94.284 -119.3281
2.610055 94.357 -118.8854
2.628968 94.436 -118.4618
2.648019 94.520 -118.0570
2.667208 94.609 -117.6716
2.686535 94.703 -117.3065
2.706003 94.800 -116.9626
2.725612 94.902 -116.6413
2.745363 95.006 -116.3436
2.765257 95.112 -116.0706
2.785295 95.219 -115.8235
2.805478 95.327 -115.6031
2.825808 95.435 -115.4103
2.846285 95.542 -115.2460
2.866910 95.647 -115.1108
2.887685 95.751 -115.0055
2.908611 95.853 -114.9305
2.929688 95.954 -114.8860
2.950917 96.053 -114.8719
2.972301 96.151 -114.8878
2.993839 96.249 -114.9326
3.015534 96.346 -115.0050
3.037386 96.442 -115.1032
3.059396 96.538 -115.2255
3.081565 96.633 -115.3699
3.103896 96.728 -115.5344
3.126388 96.821 -115.7173
3.149043 96.912 -115.9167
3.171862 97.002 -116.1310
3.194847 97.089 -116.3587
3.217998 97.174 -116.5991
3.241317 97.255 -116.8515
3.264805 97.334 -117.1164
3.288463 97.410 -117.3948
3.312293 97.482 -117.6882
3.336295 97.552 -117.9982
3.360471 97.618 -118.3256
3.384822 97.681 -118.6702
3.409350 97.741 -119.0307
3.434056 97.798 -119.4052
3.458940 97.852 -119.7910
3.484005 97.903 -120.1853
3.509252 97.951 -120.5853
3.534681 97.997 -120.9881
3.560295 98.040 -121.3911
3.586094 98.080 -121.7921
3.612081 98.118 -122.1899
3.638255 98.152 -122.5841
3.664620 98.184 -122.9755
3.691175 98.212 -123.3657
3.717923 98.237 -123.7566
3.744864 98.259 -124.1491
3.772001 98.277 -124.5433
3.799335 98.292 -124.9384
3.826866 98.304 -125.3329
3.854597 98.314 -125.7246
3.882529 98.321 -126.1112
3.910664 98.326 -126.4901
3.939002 98.329 -126.8588
3.967546 98.330 -127.2151
3.996296 98.330 -127.5573
4.025255 98.327 -127.8847
4.054423 98.323 -128.1971
4.083804 98.317 -128.4952
4.113396 98.309 -128.7797
4.143204 98.299 -129.0513
4.173227 98.287 -129.3105
4.203468 98.273 -129.5574
4.233928 98.259 -129.7919
4.264609 98.244 -130.0137
4.295512 98.230 -130.2224
4.326639 98.215 -130.4171
4.357992 98.201 -130.5970
4.389572 98.188 -130.7610
4.421380 98.176 -130.9082
4.453419 98.165 -131.0382
4.485691 98.154 -131.1513
4.518196 98.143 -131.2487
4.550936 98.134 -131.3325
4.583914 98.126 -131.4050
4.617131 98.119 -131.4688
4.650589 98.114 -131.5265
4.684289 98.111 -131.5801
4.718233 98.111 -131.6313
4.752424 98.113 -131.6805
4.786862 98.118 -131.7276
4.821549 98.126 -131.7724
4.856488 98.136 -131.8152
4.891680 98.149 -131.8572
4.927127 98.164 -131.9007
4.962831 98.181 -131.9485
4.998794 98.200 -132.0038
5.035017 98.221 -132.0697
5.071503 98.243 -132.1489
5.108253 98.267 -132.2433
5.145270 98.293 -132.3538
5.182555 98.320 -132.4806
5.220110 98.349 -132.6232
5.257937 98.379 -132.7816
5.296038 98.410 -132.9556
5.334415 98.441 -133.1456
5.373071 98.473 -133.3522
5.412006 98.504 -133.5760
5.451224 98.534 -133.8178
5.490725 98.563 -134.0786
5.530514 98.591 -134.3586
5.570590 98.618 -134.6577
5.610957 98.644 -134.9749
5.651616 98.668 -135.3083
5.692570 98.690 -135.6559
5.733821 98.711 -136.0152
5.775370 98.729 -136.3844
5.817221 98.745 -136.7620
5.859375 98.758 -137.1474
5.901834 98.768 -137.5403
5.944602 98.776 -137.9406
5.987679 98.781 -138.3471
6.031068 98.783 -138.7578
6.074771 98.782 -139.1699
6.118792 98.779 -139.5805
6.163131 98.774 -139.9868
6.207792 98.766 -140.3867
6.252776 98.756 -140.7791
6.298086 98.743 -141.1635
6.343725 98.728 -141.5395
6.389694 98.712 -141.9064
6.435996 98.693 -142.2629
6.482634 98.674 -142.6075
6.529610 98.654 -142.9386
6.576926 98.633 -143.2547
6.624585 98.612 -143.5549
6.672590 98.591 -143.8390
6.720942 98.570 -144.1075
6.769645 98.549 -144.3614
6.818700 98.529 -144.6020
6.868111 98.510 -144.8305
6.917881 98.493 -145.0478
6.968010 98.478 -145.2546
7.018504 98.465 -145.4515
7.069362 98.454 -145.6395
7.120590 98.445 -145.8206
7.172189 98.439 -145.9973
7.224161 98.435 -146.1724
7.276511 98.433 -146.3485
7.329239 98.433 -146.5278
7.382350 98.436 -146.7114
7.435845 98.441 -146.9005
7.489729 98.448 -147.0962
7.544002 98.457 -147.3001
7.598669 98.467 -147.5138
7.653732 98.478 -147.7388
7.709194 98.490 -147.9762
7.765058 98.503 -148.2263
7.821327 98.516 -148.4888
7.878004 98.529 -148.7632
7.935091 98.541 -149.0484
7.992592 98.553 -149.3435
8.050510 98.564 -149.6478
8.108847 98.574 -149.9604
8.167607 98.582 -150.2803
8.226793 98.589 -150.6057
8.286408 98.594 -150.9345
8.346454 98.598 -151.2643
8.406936 98.600 -151.5929
8.467856 98.600 -151.9189
8.529218 98.599 -152.2408
8.591024 98.596 -152.5573
8.653278 98.592 -152.8668
8.715983 98.586 -153.1675
8.779143 98.580 -153.4580
8.842760 98.574 -153.7373
8.906839 98.566 -154.0049
8.971381 98.559 -154.2607
9.036392 98.552 -154.5050
9.101873 98.545 -154.7380
9.167829 98.539 -154.9600
9.234263 98.534 -155.1715
9.301178 98.529 -155.3736
9.368578 98.526 -155.5676
9.436467 98.524 -155.7552
9.504847 98.524 -155.9380
9.573723 98.525 -156.1173
9.643099 98.527 -156.2945
9.712976 98.530 -156.4708
9.783361 98.534 -156.6476
9.854255 98.539 -156.8261
9.925663 98.545 -157.0075
9.997588 98.551 -157.1922
10.070035 98.557 -157.3806
10.143007 98.564 -157.5728
10.216507 98.570 -157.7686
10.290540 98.576 -157.9678
10.365109 98.581 -158.1701
10.440219 98.586 -158.3747
10.515873 98.590 -158.5807
10.592076 98.593 -158.7872
10.668830 98.595 -158.9932
10.746141 98.596 -159.1979
10.824012 98.596 -159.4006
10.902447 98.596 -159.6004
10.981451 98.595 -159.7968
11.061027 98.593 -159.9892
11.141180 98.590 -160.1774
11.221913 98.587 -160.3613
11.303232 98.584 -160.5412
11.385140 98.580 -160.7172
11.467641 98.576 -160.8896
11.550741 98.573 -161.0589
11.634442 98.569 -161.2258
11.718750 98.565 -161.3909
11.803669 98.561 -161.5547
11.889203 98.557 -161.7179
11.975357 98.553 -161.8808
12.062136 98.549 -162.0441
12.149543 98.545 -162.2080
12.237583 98.541 -162.3728
12.326262 98.536 -162.5385
12.415583 98.531 -162.7054
12.505552 98.526 -162.8734
12.596172 98.521 -163.0426
12.687449 98.515 -163.2130
12.779387 98.510 -163.3845
12.871992 98.504 -163.5573
12.965268 98.498 -163.7314
13.059220 98.491 -163.9071
13.153852 98.485 -164.0845
13.249170 98.479 -164.2639
13.345179 98.472 -164.4457
13.441884 98.466 -164.6301
13.539289 98.459 -164.8173
13.637401 98.453 -165.0075
13.736223 98.446 -165.2009
13.835761 98.440 -165.3973
13.936021 98.433 -165.5967
14.037007 98.426 -165.7989
14.138725 98.419 -166.0034
14.241180 98.411 -166.2099
14.344377 98.404 -166.4180
14.448323 98.396 -166.6272
14.553021 98.389 -166.8371
14.658478 98.382 -167.0476
14.764700 98.375 -167.2584
14.871691 98.368 -167.4695
14.979457 98.362 -167.6812
15.088005 98.356 -167.8936
15.197339 98.351 -168.1072
15.307465 98.347 -168.3224
15.418389 98.343 -168.5397
15.530117 98.340 -168.7593
15.642655 98.337 -168.9813
15.756008 98.334 -169.2057
15.870182 98.332 -169.4321
15.985184 98.330 -169.6601
16.101019 98.328 -169.8889
16.217694 98.326 -170.1175
16.335214 98.324 -170.3450
16.453586 98.323 -170.5703
16.572815 98.321 -170.7925
16.692909 98.320 -171.0110
16.813872 98.319 -171.2254
16.935713 98.318 -171.4356
17.058436 98.318 -171.6420
17.182048 98.320 -171.8452
17.306556 98.321 -172.0462
17.431967 98.324 -172.2459
17.558286 98.327 -172.4454
17.685521 98.331 -172.6458
17.813677 98.336 -172.8474
17.942762 98.340 -173.0507
18.072783 98.344 -173.2554
18.203746 98.347 -173.4607
18.335658 98.350 -173.6655
18.468526 98.351 -173.8683
18.602356 98.352 -174.0674
18.737156 98.352 -174.2611
18.872934 98.351 -174.4479
19.009695 98.349 -174.6266
19.147447 98.346 -174.7963
19.286197 98.344 -174.9571
19.425953 98.341 -175.1094
19.566721 98.339 -175.2542
19.708510 98.337 -175.3932
19.851326 98.336 -175.5284
19.995177 98.336 -175.6618
20.140070 98.336 -175.7957
20.286013 98.337 -175.9323
20.433014 98.338 -176.0733
20.581080 98.339 -176.2204
20.730219 98.340 -176.3746
20.880439 98.341 -176.5366
21.031747 98.341 -176.7068
21.184152 98.340 -176.8849
21.337661 98.338 -177.0707
21.492282 98.335 -177.2631
21.648024 98.330 -177.4609
21.804895 98.323 -177.6626
21.962902 98.315 -177.8665
22.122054 98.305 -178.0706
22.282360 98.294 -178.2727
22.443827 98.281 -178.4710
22.606464 98.267 -178.6637
22.770280 98.253 -178.8495
22.935283 98.238 -179.0275
23.101481 98.224 -179.1975
23.268884 98.210 -179.3601
23.437500 98.197 -179.5165
23.607338 98.186 -179.6683
23.778406 98.177 -179.8179
23.950714 98.170 -179.9674
24.124271 98.164 179.8807
24.299086 98.161 179.7242
24.475167 98.159 179.5612
24.652524 98.159 179.3901
24.831166 98.160 179.2097
25.011103 98.163 179.0190
25.192344 98.166 178.8177
25.374898 98.169 178.6057
25.558775 98.172 178.3830
25.743984 98.175 178.1505
25.930536 98.177 177.9094
26.118439 98.178 177.6613
26.307704 98.178 177.4087
26.498341 98.175 177.1543
26.690359 98.171 176.9014
26.883768 98.164 176.6534
27.078579 98.155 176.4137
27.274801 98.145 176.1855
27.472446 98.133 175.9716
27.671522 98.120 175.7741
27.872042 98.106 175.5941
28.074014 98.091 175.4319
28.277450 98.078 175.2870
28.482360 98.065 175.1575
28.688755 98.053 175.0409
28.896645 98.043 174.9339
29.106042 98.034 174.8326
29.316957 98.027 174.7328
29.529400 98.022 174.6307
29.743382 98.018 174.5225
29.958915 98.016 174.4056
30.176009 98.013 174.2783
30.394677 98.011 174.1396
30.614929 98.008 173.9901
30.836778 98.004 173.8306
31.060234 98.000 173.6625
31.285309 97.994 173.4875
31.512015 97.988 173.3067
31.740364 97.980 173.1212
31.970368 97.972 172.9317
32.202039 97.964 172.7385
32.435388 97.954 172.5417
32.670428 97.945 172.3416
32.907171 97.934 172.1385
33.145630 97.924 171.9328
33.385817 97.913 171.7250
33.627745 97.902 171.5158
33.871425 97.891 171.3054
34.116871 97.880 171.0943
34.364096 97.868 170.8824
34.613113 97.857 170.6699
34.863934 97.846 170.4568
35.116572 97.835 170.2435
35.371041 97.824 170.0306
35.627354 97.813 169.8190
35.885525 97.802 169.6099
36.145566 97.791 169.4043
36.407492 97.780 169.2031
36.671316 97.770 169.0064
36.937051 97.759 168.8143
37.204712 97.750 168.6261
37.474313 97.740 168.4411
37.745867 97.731 168.2589
38.019389 97.722 168.0795
38.294893 97.712 167.9036
38.572394 97.703 167.7321
38.851905 97.693 167.5660
39.133442 97.683 167.4058
39.417019 97.673 167.2513
39.702651 97.662 167.1016
39.990353 97.651 166.9555
40.280140 97.640 166.8119
40.572026 97.628 166.6701
40.866028 97.615 166.5304
41.162160 97.600 166.3935
41.460438 97.584 166.2607
41.760877 97.566 166.1333
42.063494 97.547 166.0118
42.368303 97.527 165.8963
42.675322 97.507 165.7859
42.984565 97.485 165.6790
43.296048 97.463 165.5738
43.609789 97.441 165.4686
43.925804 97.418 165.3623
44.244108 97.395 165.2546
44.564719 97.371 165.1460
44.887654 97.348 165.0372
45.212928 97.325 164.9291
45.540560 97.302 164.8217
45.870565 97.282 164.7143
46.202962 97.262 164.6053
46.537768 97.245 164.4931
46.875000 97.230 164.3761
47.214676 97.217 164.2536
47.556813 97.205 164.1258
47.901429 97.196 163.9935
48.248542 97.187 163.8578
48.598171 97.181 163.7192
48.950334 97.175 163.5777
49.305048 97.171 163.4326
49.662333 97.167 163.2832
50.022206 97.163 163.1292
50.384688 97.158 162.9712
50.749796 97.152 162.8105
51.117550 97.145 162.6490
51.487969 97.135 162.4885
51.861072 97.124 162.3301
52.236879 97.110 162.1742
52.615409 97.094 162.0206
52.996681 97.076 161.8690
53.380717 97.057 161.7191
53.767536 97.036 161.5708
54.157158 97.014 161.4238
54.549603 96.991 161.2776
54.944892 96.968 161.1310
55.343045 96.945 160.9825
55.744084 96.922 160.8307
56.148028 96.900 160.6744
56.554900 96.879 160.5128
56.964720 96.858 160.3464
57.377510 96.837 160.1758
57.793291 96.816 160.0029
58.212085 96.795 159.8301
58.633914 96.774 159.6602
59.058799 96.752 159.4963
59.486764 96.730 159.3407
59.917829 96.707 159.1943
60.352019 96.684 159.0568
60.789354 96.660 158.9265
61.229859 96.636 158.8016
61.673556 96.612 158.6803
62.120468 96.587 158.5611
62.570618 96.561 158.4430
63.024031 96.534 158.3253
63.480729 96.507 158.2077
63.940736 96.480 158.0897
64.404077 96.452 157.9715
64.870776 96.424 157.8530
65.340856 96.397 157.7344
65.814343 96.369 157.6162
66.291261 96.342 157.4992
66.771635 96.316 157.3840
67.255489 96.290 157.2711
67.742850 96.264 157.1612
68.233743 96.238 157.0550
68.728193 96.212 156.9532
69.226226 96.186 156.8562
69.727867 96.161 156.7638
70.233144 96.135 156.6751
70.742083 96.109 156.5890
71.254709 96.082 156.5042
71.771050 96.055 156.4203
72.291132 96.028 156.3372
72.814984 96.000 156.2556
73.342631 95.972 156.1757
73.874102 95.944 156.0973
74.409424 95.916 156.0199
74.948626 95.889 155.9429
75.491734 95.862 155.8658
76.038779 95.835 155.7883
76.589787 95.809 155.7106
77.144788 95.782 155.6332
77.703811 95.756 155.5570
78.266885 95.730 155.4820
78.834039 95.704 155.4072
79.405303 95.678 155.3303
79.980706 95.653 155.2484
80.560280 95.628 155.1592
81.144053 95.602 155.0626
81.732056 95.575 154.9600
82.324320 95.547 154.8533
82.920876 95.517 154.7449
83.521755 95.485 154.6381
84.126988 95.452 154.5366
84.736607 95.418 154.4425
85.350643 95.383 154.3577
85.969129 95.347 154.2839
86.592097 95.310 154.2226
87.219579 95.274 154.1730
87.851608 95.238 154.1334
88.488217 95.202 154.1028
89.129439 95.167 154.0797
89.775308 95.133 154.0610
90.425856 95.100 154.0453
91.081119 95.067 154.0324
91.741131 95.034 154.0214
92.405925 95.002 154.0098
93.075536 94.970 153.9975
93.750000 94.938 153.9857
94.429351 94.906 153.9745
95.113625 94.873 153.9633
95.802858 94.841 153.9532
96.497085 94.809 153.9456
97.196342 94.776 153.9402
97.900667 94.744 153.9364
98.610096 94.711 153.9365
99.324665 94.678 153.9427
100.044413 94.645 153.9547
100.769376 94.612 153.9712
101.499592 94.580 153.9927
102.235100 94.547 154.0191
102.975938 94.516 154.0480
103.722144 94.485 154.0769
104.473757 94.454 154.1054
105.230817 94.425 154.1331
105.993363 94.396 154.1577
106.761435 94.367 154.1780
107.535072 94.339 154.1945
108.314315 94.311 154.2080
109.099206 94.283 154.2173
109.889783 94.254 154.2217
110.686090 94.224 154.2227
111.488167 94.194 154.2224
112.296056 94.161 154.2208
113.109800 94.127 154.2188
113.929440 94.090 154.2202
114.755020 94.051 154.2303
115.586582 94.011 154.2524
116.424170 93.970 154.2885
117.267827 93.929 154.3417
118.117598 93.888 154.4139
118.973527 93.849 154.5042
119.835658 93.812 154.6089
120.704037 93.778 154.7249
121.578708 93.746 154.8482
122.459718 93.716 154.9745
123.347111 93.688 155.0992
124.240935 93.661 155.2204
125.141236 93.635 155.3390
126.048061 93.609 155.4558
126.961458 93.583 155.5692
127.881473 93.558 155.6774
128.808154 93.534 155.7799
129.741551 93.509 155.8775
130.681712 93.486 155.9697
131.628686 93.463 156.0549
132.582521 93.440 156.1332
133.543269 93.416 156.2066
134.510979 93.392 156.2783
135.485701 93.367 156.3494
136.467486 93.342 156.4199
137.456386 93.316 156.4906
138.452451 93.288 156.5636
139.455735 93.261 156.6409
140.466288 93.233 156.7223
141.484165 93.204 156.8061
142.509418 93.175 156.8912
143.542100 93.146 156.9786
144.582265 93.117 157.0698
145.629968 93.087 157.1651
146.685262 93.058 157.2632
147.748204 93.028 157.3630
148.818849 92.998 157.4664
149.897251 92.967 157.5779
150.983469 92.935 157.7017
152.077557 92.904 157.8390
153.179574 92.873 157.9879
154.289576 92.843 158.1454
155.407622 92.814 158.3096
156.533770 92.786 158.4791
157.668078 92.759 158.6508
158.810606 92.735 158.8193
159.961413 92.712 158.9781
161.120559 92.690 159.1237
162.288105 92.667 159.2577
163.464112 92.644 159.3872
164.648640 92.618 159.5209
165.841752 92.592 159.6650
167.043510 92.565 159.8217
168.253976 92.538 159.9893
169.473213 92.512 160.1646
170.701286 92.486 160.3456
171.938258 92.461 160.5312
173.184194 92.438 160.7212
174.439158 92.415 160.9154
175.703216 92.393 161.1133
176.976434 92.373 161.3145
178.258878 92.353 161.5193
179.550615 92.335 161.7274
180.851713 92.319 161.9366
182.162239 92.305 162.1423
183.482262 92.293 162.3382
184.811850 92.282 162.5190
186.151073 92.272 162.6829
187.500000 92.260 162.8326
188.858702 92.247 162.9745
190.227250 92.232 163.1161
191.605715 92.216 163.2636
192.994169 92.199 163.4197
194.392685 92.182 163.5844
195.801334 92.166 163.7556
197.220191 92.150 163.9310
198.649330 92.136 164.1095
200.088825 92.122 164.2904
201.538751 92.108 164.4735
202.999184 92.096 164.6585
204.470200 92.083 164.8454
205.951875 92.071 165.0344
207.444287 92.059 165.2265
208.947514 92.046 165.4225
210.461634 92.033 165.6227
211.986726 92.018 165.8268
213.522869 92.003 166.0346
215.070144 91.987 166.2467
216.628631 91.970 166.4641
218.198411 91.953 166.6870
219.779567 91.938 166.9138
221.372180 91.926 167.1415
222.976334 91.916 167.3679
224.592112 91.909 167.5924
226.219600 91.905 167.8167
227.858880 91.902 168.0422
229.510039 91.899 168.2693
231.173164 91.896 168.4952
232.848340 91.891 168.7142
234.535655 91.884 168.9191
236.235197 91.875 169.1052
237.947054 91.867 169.2740
239.671317 91.859 169.4344
241.408074 91.853 169.5992
243.157416 91.846 169.7781
244.919435 91.837 169.9745
246.694223 91.827 170.1852
248.481871 91.814 170.4067
250.282473 91.801 170.6382
252.096123 91.788 170.8810
253.922915 91.776 171.1343
255.762945 91.768 171.3933
257.616309 91.763 171.6503
259.483103 91.761 171.9004
261.363424 91.761 172.1435
263.257372 91.761 172.3830
265.165043 91.758 172.6213
267.086538 91.754 172.8595
269.021957 91.749 173.0989
270.971401 91.745 173.3421
272.934972 91.742 173.5913
274.912771 91.741 173.8457
276.904902 91.743 174.1033
278.911469 91.747 174.3618
280.932577 91.755 174.6189
282.968330 91.764 174.8691
285.018835 91.776 175.1027
287.084199 91.789 175.3082
289.164530 91.802 175.4780
291.259935 91.814 175.6129
293.370525 91.823 175.7231
295.496408 91.828 175.8236
297.637697 91.830 175.9270
299.794503 91.829 176.0409
301.966937 91.826 176.1674
304.155114 91.821 176.3051
306.359147 91.817 176.4504
308.579152 91.812 176.5998
310.815244 91.807 176.7502
313.067539 91.802 176.9009
315.336156 91.796 177.0541
317.621211 91.790 177.2134
319.922826 91.782 177.3831
322.241118 91.775 177.5645
324.576210 91.768 177.7563
326.928223 91.761 177.9554
329.297280 91.756 178.1575
331.683504 91.752 178.3594
334.087019 91.749 178.5586
336.507952 91.747 178.7534
338.946427 91.745 178.9438
341.402572 91.742 179.1312
343.876516 91.739 179.3179
346.368387 91.736 179.5062
348.878315 91.732 179.6971
351.406431 91.728 179.8907
353.952867 91.724 -179.9136
356.517756 91.721 -179.7167
359.101230 91.718 -179.5192
361.703426 91.715 -179.3214
364.324478 91.712 -179.1231
366.964523 91.709 -178.9236
369.623699 91.706 -178.7229
372.302145 91.703 -178.5210
375.000000 91.701 -178.3179
377.717405 91.699 -178.1136
380.454501 91.697 -177.9085
383.211431 91.695 -177.7030
385.988339 91.694 -177.4972
388.785369 91.692 -177.2908
391.602668 91.691 -177.0833
394.440383 91.690 -176.8741
397.298660 91.689 -176.6635
400.177650 91.689 -176.4524
403.077502 91.689 -176.2425
405.998368 91.688 -176.0353
408.940400 91.688 -175.8313
411.903750 91.687 -175.6288
414.888575 91.686 -175.4242
417.895028 91.684 -175.2138
420.923268 91.682 -174.9952
423.973452 91.681 -174.7679
427.045738 91.681 -174.5338
430.140287 91.682 -174.2971
433.257261 91.685 -174.0625
436.396822 91.689 -173.8330
439.559133 91.694 -173.6087
442.744360 91.700 -173.3894
445.952668 91.707 -173.1770
449.184225 91.715 -172.9763
452.439199 91.724 -172.7934
455.717760 91.732 -172.6316
459.020079 91.737 -172.4875
462.346327 91.739 -172.3504
465.696680 91.738 -172.2082
469.071310 91.734 -172.0533
472.470394 91.730 -171.8838
475.894109 91.726 -171.7027
479.342634 91.722 -171.5157
482.816148 91.719 -171.3285
486.314833 91.715 -171.1426
489.838871 91.710 -170.9530
493.388445 91.705 -170.7518
496.963741 91.699 -170.5350
500.564945 91.695 -170.3064
504.192245 91.692 -170.0743
507.845830 91.690 -169.8461
511.525890 91.689 -169.6245
515.232618 91.688 -169.4081
518.966206 91.685 -169.1925
522.726849 91.682 -168.9726
526.514743 91.678 -168.7442
530.330086 91.674 -168.5058
534.173076 91.671 -168.2602
538.043915 91.669 -168.0121
541.942803 91.668 -167.7638
545.869944 91.666 -167.5148
549.825542 91.666 -167.2644
553.809805 91.666 -167.0141
557.822939 91.667 -166.7668
561.865154 91.668 -166.5245
565.936660 91.669 -166.2864
570.037671 91.669 -166.0493
574.168399 91.668 -165.8095
578.329060 91.667 -165.5650
582.519870 91.665 -165.3160
586.741049 91.663 -165.0628
590.992817 91.661 -164.8035
595.275394 91.660 -164.5360
599.589005 91.658 -164.2615
603.933874 91.658 -163.9840
608.310228 91.659 -163.7070
612.718295 91.659 -163.4313
617.158304 91.659 -163.1541
621.630488 91.659 -162.8699
626.135079 91.658 -162.5725
630.672311 91.658 -162.2602
635.242423 91.659 -161.9370
639.845651 91.663 -161.6094
644.482237 91.668 -161.2794
649.152421 91.675 -160.9463
653.856447 91.684 -160.6113
658.594560 91.696 -160.2812
663.367008 91.711 -159.9662
668.174039 91.726 -159.6742
673.015903 91.741 -159.4045
677.892854 91.753 -159.1493
682.805145 91.763 -158.8993
687.753032 91.770 -158.6470
692.736774 91.776 -158.3866
697.756631 91.781 -158.1135
702.812863 91.786 -157.8261
707.905735 91.791 -157.5271
713.035511 91.797 -157.2211
718.202461 91.804 -156.9116
723.406852 91.812 -156.5995
728.648956 91.820 -156.2837
733.929047 91.828 -155.9632
739.247399 91.837 -155.6379
744.604290 91.847 -155.3083
750.000000 91.858 -154.9752
755.434809 91.869 -154.6396
760.909001 91.882 -154.3023
766.422861 91.894 -153.9641
771.976677 91.908 -153.6245
777.570739 91.921 -153.2825
783.205337 91.935 -152.9362
788.880766 91.950 -152.5832
794.597321 91.965 -152.2200
800.355301 91.981 -151.8448
806.155005 92.001 -151.4597
811.996736 92.023 -151.0714
817.880799 92.050 -150.6890
823.807501 92.079 -150.3225
829.777150 92.109 -149.9798
835.790057 92.140 -149.6629
841.846536 92.169 -149.3646
847.946903 92.196 -149.0741
854.091476 92.221 -148.7831
860.280575 92.245 -148.4874
866.514523 92.268 -148.1842
872.793644 92.291 -147.8700
879.118267 92.314 -147.5452
885.488720 92.339 -147.2141
891.905336 92.364 -146.8810
898.368450 92.391 -146.5465
904.878398 92.418 -146.2084
911.435520 92.447 -145.8654
918.040157 92.476 -145.5192
924.692655 92.508 -145.1729
931.393359 92.542 -144.8302
938.142619 92.576 -144.4950
944.940787 92.612 -144.1688
951.788218 92.648 -143.8502
958.685268 92.684 -143.5362
965.632296 92.721 -143.2245
972.629666 92.758 -142.9128
979.677741 92.795 -142.6005
986.776890 92.833 -142.2885
993.927482 92.871 -141.9757
1001.129891 92.910 -141.6584
1008.384491 92.951 -141.3334
1015.691660 92.993 -141.0014
1023.051781 93.039 -140.6674
1030.465236 93.088 -140.3393
1037.932411 93.142 -140.0283
1045.453698 93.198 -139.7465
1053.029486 93.256 -139.4993
1060.660172 93.312 -139.2831
1068.346153 93.367 -139.0893
1076.087829 93.419 -138.9089
1083.885605 93.470 -138.7354
1091.739887 93.520 -138.5668
1099.651084 93.569 -138.4031
1107.619609 93.616 -138.2440
1115.645878 93.664 -138.0886
1123.730308 93.710 -137.9356
1131.873321 93.755 -137.7837
1140.075341 93.801 -137.6318
1148.336797 93.846 -137.4794
1156.658119 93.891 -137.3261
1165.039741 93.936 -137.1711
1173.482099 93.982 -137.0132
1181.985634 94.029 -136.8532
1190.550789 94.079 -136.6970
1199.178011 94.131 -136.5550
1207.867749 94.185 -136.4385
1216.620457 94.239 -136.3527
1225.436590 94.292 -136.2942
1234.316609 94.341 -136.2540
1243.260976 94.389 -136.2229
1252.270157 94.434 -136.1956
1261.344623 94.479 -136.1736
1270.484846 94.521 -136.1586
1279.691303 94.562 -136.1447
1288.964474 94.600 -136.1208
1298.304842 94.637 -136.0789
1307.712894 94.673 -136.0201
1317.189120 94.709 -135.9532
1326.734016 94.744 -135.8889
1336.348077 94.778 -135.8343
1346.031806 94.811 -135.7906
1355.785708 94.844 -135.7527
1365.610290 94.877 -135.7109
1375.506065 94.909 -135.6532
1385.473549 94.941 -135.5710
1395.513261 94.971 -135.4632
1405.625726 95.003 -135.3352
1415.811469 95.038 -135.1982
1426.071023 95.075 -135.0684
1436.404921 95.114 -134.9608
1446.813703 95.155 -134.8823
1457.297912 95.194 -134.8310
1467.858093 95.234 -134.7989
1478.494798 95.272 -134.7754
1489.208581 95.309 -134.7508
1500.000000 95.344 -134.7183
1510.869618 95.378 -134.6748
1521.818002 95.409 -134.6200
1532.845723 95.440 -134.5549
1543.953355 95.472 -134.4803
1555.141477 95.506 -134.3980
1566.410674 95.543 -134.3127
1577.761531 95.583 -134.2342
1589.194642 95.627 -134.1731
1600.710601 95.672 -134.1355
1612.310010 95.716 -134.1203
1623.993473 95.759 -134.1225
1635.761599 95.799 -134.1374
1647.615002 95.837 -134.1613
1659.554299 95.873 -134.1913
1671.580114 95.909 -134.2243
1683.693072 95.944 -134.2592
1695.893807 95.979 -134.2968
1708.182952 96.013 -134.3380
1720.561150 96.046 -134.3813
1733.029045 96.077 -134.4226
1745.587288 96.105 -134.4567
1758.236533 96.133 -134.4780
1770.977440 96.161 -134.4830
1783.810673 96.190 -134.4733
1796.736900 96.224 -134.4585
1809.756796 96.260 -134.4516
1822.871040 96.300 -134.4626
1836.080315 96.340 -134.4945
1849.385310 96.379 -134.5461
1862.786718 96.418 -134.6144
1876.285239 96.455 -134.6952
1889.881575 96.490 -134.7835
1903.576436 96.525 -134.8738
1917.370535 96.559 -134.9614
1931.264593 96.594 -135.0433
1945.259332 96.630 -135.1208
1959.355483 96.670 -135.2023
1973.553781 96.712 -135.3007
1987.854965 96.755 -135.4266
2002.259781 96.798 -135.5841
2016.768981 96.840 -135.7721
2031.383320 96.880 -135.9870
2046.103561 96.918 -136.2235
2060.930471 96.954 -136.4771
2075.864823 96.989 -136.7450
2090.907395 97.021 -137.0258
2106.058972 97.050 -137.3172
2121.320344 97.076 -137.6149
2136.692305 97.099 -137.9114
2152.175658 97.120 -138.1996
2167.771210 97.141 -138.4773
2183.479774 97.163 -138.7508
2199.302169 97.186 -139.0314
2215.239219 97.210 -139.3285
2231.291755 97.234 -139.6469
2247.460615 97.256 -139.9869
2263.746641 97.276 -140.3450
2280.150683 97.293 -140.7146
2296.673595 97.308 -141.0874
2313.316238 97.322 -141.4568
2330.079481 97.335 -141.8214
2346.964198 97.349 -142.1881
2363.971268 97.364 -142.5680
2381.101578 97.379 -142.9708
2398.356022 97.393 -143.4008
2415.735498 97.405 -143.8577
2433.240913 97.414 -144.3382
2450.873180 97.419 -144.8384
2468.633217 97.422 -145.3550
2486.521951 97.420 -145.8843
2504.540314 97.413 -146.4202
2522.689246 97.402 -146.9533
2540.969692 97.388 -147.4742
2559.382606 97.371 -147.9792
2577.928947 97.354 -148.4723
2596.609683 97.336 -148.9612
2615.425787 97.318 -149.4527
2634.378241 97.297 -149.9502
2653.468031 97.274 -150.4521
2672.696154 97.247 -150.9524
2692.063613 97.218 -151.4423
2711.571415 97.186 -151.9153
2731.220579 97.155 -152.3722
2751.012130 97.124 -152.8208
2770.947098 97.094 -153.2708
2791.026522 97.064 -153.7295
2811.251451 97.032 -154.2007
2831.622938 96.999 -154.6853
2852.142045 96.962 -155.1823
2872.809842 96.922 -155.6884
2893.627406 96.877 -156.1958
2914.595823 96.826 -156.6922
2935.716186 96.772 -157.1653
2956.989596 96.714 -157.6090
2978.417161 96.656 -158.0241
3000.000000 96.596 -158.4149
3021.739237 96.536 -158.7857
3043.636005 96.475 -159.1381
3065.691446 96.413 -159.4699
3087.906710 96.350 -159.7774
3110.282955 96.290 -160.0614
3132.821347 96.231 -160.3297
3155.523062 96.175 -160.5943
3178.389283 96.121 -160.8662
3201.421202 96.067 -161.1528
3224.620020 96.012 -161.4573
3247.986946 95.954 -161.7791
3271.523198 95.892 -162.1123
3295.230004 95.824 -162.4443
3319.108599 95.751 -162.7591
3343.160228 95.673 -163.0450
3367.386145 95.592 -163.2972
3391.787613 95.508 -163.5159
3416.365904 95.423 -163.7022
3441.122300 95.336 -163.8540
3466.058091 95.247 -163.9643
3491.174576 95.157 -164.0259
3516.473066 95.069 -164.0377
3541.954880 94.984 -164.0056
3567.621345 94.902 -163.9401
3593.473800 94.825 -163.8515
3619.513592 94.751 -163.7488
3645.742080 94.680 -163.6380
3672.160630 94.610 -163.5184
3698.770620 94.542 -163.3826
3725.573436 94.474 -163.2226
3752.570477 94.409 -163.0357
3779.763150 94.348 -162.8246
3807.152872 94.290 -162.5933
3834.741071 94.235 -162.3425
3862.529185 94.184 -162.0675
3890.518664 94.137 -161.7645
3918.710966 94.097 -161.4360
3947.107561 94.066 -161.0913
3975.709929 94.043 -160.7442
4004.519563 94.029 -160.4109
4033.537962 94.023 -160.1060
4062.766641 94.023 -159.8378
4092.207123 94.028 -159.6066
4121.860942 94.037 -159.4108
4151.729646 94.050 -159.2518
4181.814790 94.066 -159.1333
4212.117944 94.084 -159.0565
4242.640687 94.102 -159.0160
4273.384610 94.121 -159.0025
4304.351317 94.142 -159.0101
4335.542421 94.166 -159.0397
4366.959549 94.194 -159.0992
4398.604338 94.226 -159.2019
4430.478438 94.261 -159.3621
4462.583511 94.299 -159.5888
4494.921231 94.336 -159.8849
4527.493283 94.373 -160.2519
4560.301365 94.408 -160.6929
4593.347189 94.438 -161.2092
4626.632476 94.463 -161.7952
4660.158962 94.479 -162.4389
4693.928395 94.487 -163.1270
4727.942535 94.487 -163.8504
4762.203156 94.480 -164.6058
4796.712043 94.465 -165.3948
4831.470996 94.443 -166.2200
4866.481826 94.411 -167.0791
4901.746360 94.370 -167.9660
4937.266434 94.317 -168.8749
4973.043902 94.252 -169.8009
5009.080628 94.174 -170.7357
5045.378492 94.082 -171.6649
5081.939384 93.975 -172.5712
5118.765212 93.855 -173.4402
5155.857894 93.722 -174.2637
5193.219366 93.578 -175.0406
5230.851574 93.424 -175.7723
5268.756481 93.258 -176.4565
5306.936062 93.081 -177.0864
5345.392309 92.891 -177.6530
5384.127225 92.687 -178.1428
5423.142830 92.469 -178.5340
5462.441159 92.237 -178.7968
5502.024259 91.995 -178.9001
5541.894195 91.746 -178.8208
5582.053045 91.497 -178.5524
5622.502902 91.254 -178.1063
5663.245876 91.022 -177.5072
5704.284090 90.805 -176.7873
5745.619684 90.603 -175.9812
5787.254813 90.416 -175.1162
5829.191647 90.241 -174.2054
5871.432373 90.078 -173.2493
5913.979192 89.925 -172.2445
5956.834323 89.784 -171.1922
6000.000000 89.656 -170.1007
6043.478473 89.542 -168.9819
6087.272010 89.440 -167.8470
6131.382892 89.350 -166.7073
6175.813420 89.270 -165.5721
6220.565910 89.200 -164.4444
6265.642695 89.137 -163.3185
6311.046124 89.080 -162.1832
6356.778566 89.029 -161.0270
6402.842404 88.986 -159.8414
6449.240040 88.952 -158.6206
6495.973891 88.928 -157.3621
6543.046396 88.916 -156.0687
6590.460007 88.917 -154.7454
6638.217197 88.933 -153.3956
6686.320456 88.965 -152.0202
6734.772290 89.013 -150.6215
6783.575226 89.082 -149.2066
6832.731809 89.172 -147.7875
6882.244600 89.285 -146.3807
6932.116181 89.422 -145.0070
6982.349153 89.585 -143.6880
7032.946133 89.772 -142.4411
7083.909760 89.982 -141.2787
7135.242690 90.217 -140.2118
7186.947600 90.476 -139.2538
7239.027185 90.760 -138.4219
7291.484160 91.067 -137.7392
7344.321260 91.398 -137.2365
7397.541239 91.753 -136.9511
7451.146872 92.129 -136.9216
7505.140954 92.525 -137.1831
7559.526299 92.935 -137.7671
7614.305743 93.355 -138.7046
7669.482141 93.777 -140.0287
7725.058371 94.191 -141.7737
7781.037328 94.588 -143.9665
7837.421932 94.953 -146.6164
7894.215122 95.275 -149.7079
7951.419859 95.539 -153.2020
8009.039125 95.737 -157.0364
8067.075924 95.859 -161.1283
8125.533282 95.902 -165.3795
8184.414245 95.862 -169.6813
8243.721885 95.738 -173.9193
8303.459292 95.534 -177.9805
8363.629581 95.254 178.2375
8424.235888 94.909 174.8199
8485.281374 94.511 171.8277
8546.769221 94.073 169.2932
8608.702634 93.609 167.2227
8671.084842 93.131 165.6040
8733.919097 92.649 164.4147
8797.208675 92.173 163.6279
8860.956876 91.711 163.2146
8925.167022 91.268 163.1401
8989.842461 90.851 163.3613
9054.986566 90.464 163.8309
9120.602731 90.108 164.5038
9186.694378 89.784 165.3437
9253.264952 89.493 166.3240
9320.317925 89.235 167.4231
9387.856790 89.012 168.6168
9455.885071 88.825 169.8779
9524.406312 88.672 171.1788
9593.424086 88.554 172.4965
9662.941992 88.470 173.8137
9732.963653 88.419 175.1123
9803.492719 88.404 176.3664
9874.532869 88.423 177.5414
9946.087805 88.476 178.5991
10018.161257 88.561 179.5052
10090.756983 88.673 -179.7694
10163.878768 88.809 -179.2527
10237.530423 88.965 -178.9760
10311.715789 89.135 -178.9701
10386.438732 89.310 -179.2576
10461.703149 89.482 -179.8458
10537.512962 89.642 179.2725
10613.872125 89.782 178.1136
10690.784618 89.894 176.7017
10768.254450 89.971 175.0713
10846.285661 90.004 173.2723
10924.882318 89.990 171.3693
11004.048518 89.924 169.4332
11083.788390 89.808 167.5343
11164.106090 89.643 165.7377
11245.005805 89.433 164.1039
11326.491752 89.183 162.6892
11408.568180 88.901 161.5390
11491.239368 88.596 160.6814
11574.509626 88.277 160.1246
11658.383294 87.953 159.8624
11742.864745 87.632 159.8795
11827.958384 87.320 160.1525
11913.668646 87.022 160.6484
12000.000000 86.742 161.3274
12086.956947 86.482 162.1535
12174.544019 86.241 163.1002
12262.765784 86.020 164.1475
12351.626840 85.820 165.2740
12441.131819 85.639 166.4561
12531.285389 85.477 167.6744
12622.092249 85.331 168.9173
12713.557132 85.200 170.1801
12805.684808 85.083 171.4608
12898.480079 84.977 172.7615
12991.947783 84.883 174.0899
13086.092792 84.801 175.4558
13180.920015 84.734 176.8640
13276.434395 84.682 178.3133
13372.640911 84.649 179.7999
13469.544580 84.636 -178.6806
13567.150452 84.648 -177.1377
13665.463617 84.687 -175.5894
13764.489200 84.756 -174.0596
13864.232362 84.859 -172.5755
13964.698305 84.999 -171.1736
14065.892266 85.178 -169.9041
14167.819519 85.398 -168.8292
14270.485380 85.656 -168.0184
14373.895200 85.948 -167.5470
14478.054370 86.265 -167.4930
14582.968320 86.594 -167.9241
14688.642520 86.917 -168.8817
14795.082478 87.214 -170.3717
14902.293745 87.465 -172.3580
15010.281908 87.653 -174.7581
15119.052599 87.762 -177.4484
15228.611486 87.790 179.7157
15338.964283 87.738 176.8720
15450.116741 87.617 174.1290
15562.074656 87.440 171.5527
15674.843864 87.217 169.1692
15788.430244 86.959 166.9789
15902.839718 86.671 164.9799
16018.078250 86.353 163.1823
16134.151848 86.009 161.6109
16251.066563 85.641 160.2990
16368.828491 85.258 159.2801
16487.443769 84.866 158.5776
16606.918584 84.480 158.1933
16727.259161 84.111 158.1024
16848.471777 83.774 158.2537
16970.562748 83.480 158.5666
17093.538442 83.239 158.9326
17217.405268 83.058 159.2222
17342.169684 82.937 159.2905
17467.838194 82.873 158.9851
17594.417350 82.851 158.1619
17721.913751 82.850 156.7024
17850.334044 82.841 154.5305
17979.684923 82.791 151.6298
18109.973131 82.662 148.0569
18241.205462 82.419 143.9448
18373.388756 82.034 139.4943
18506.529905 81.486 134.9572
18640.635849 80.768 130.6051
18775.713581 79.885 126.6954
18911.770141 78.848 123.4477
19048.812624 77.678 121.0294
19186.848172 76.400 119.5502
19325.883983 75.043 119.0600
19465.927305 73.643 119.5374
19606.985439 72.255 120.8583
19749.065738 70.968 122.7347
19892.175609 69.929 124.6465
20036.322514 69.332 125.8876
