* Measurement data measured by REW V5.31
* Source: EXCL: Microphone (USB Sound Device        ), MICROPHONE (Master Volume), R, volume: 0.390
* Format: 256k Log Swept Sine, 1 sweep at -15.0 dBFS with no timing reference
* Dated: Dec 31, 2024 3:02:32 PM
* REW Settings:
*  C-weighting compensation: Off
*  Target level: 75.0 dB
* Note: SIMGOT ET142 Black  L
* Measurement: L SIMGOT ET142 New Black
* Smoothing: 1/12 octave
* Frequency Step: 96 ppo
* Start Frequency: 0.36621094 Hz
*
* Freq(Hz) SPL(dB) Phase(degrees)
0.366211 96.113 156.9625
0.368865 96.107 156.9385
0.371538 96.098 156.9025
0.374230 96.087 156.8572
0.376942 96.075 156.8051
0.379673 96.062 156.7477
0.382424 96.048 156.6863
0.385196 96.033 156.6216
0.387987 96.019 156.5538
0.390798 96.004 156.4833
0.393630 95.989 156.4101
0.396483 95.974 156.3343
0.399356 95.959 156.2558
0.402250 95.944 156.1748
0.405165 95.929 156.0910
0.408101 95.914 156.0046
0.411058 95.898 155.9155
0.414037 95.882 155.8237
0.417037 95.867 155.7291
0.420059 95.851 155.6318
0.423103 95.835 155.5316
0.426169 95.819 155.4286
0.429257 95.802 155.3228
0.432368 95.786 155.2141
0.435501 95.770 155.1024
0.438656 95.753 154.9879
0.441835 95.736 154.8704
0.445037 95.720 154.7499
0.448262 95.703 154.6264
0.451510 95.686 154.4999
0.454782 95.669 154.3704
0.458077 95.651 154.2377
0.461397 95.634 154.1021
0.464740 95.616 153.9633
0.468108 95.599 153.8213
0.471500 95.581 153.6763
0.474917 95.563 153.5280
0.478358 95.545 153.3766
0.481825 95.527 153.2221
0.485316 95.508 153.0643
0.488833 95.490 152.9033
0.492375 95.471 152.7390
0.495943 95.452 152.5716
0.499537 95.434 152.4009
0.503157 95.415 152.2269
0.506803 95.396 152.0497
0.510475 95.376 151.8692
0.514175 95.357 151.6855
0.517900 95.337 151.4985
0.521653 95.318 151.3083
0.525434 95.298 151.1147
0.529241 95.278 150.9180
0.533076 95.258 150.7180
0.536939 95.237 150.5148
0.540830 95.217 150.3084
0.544749 95.196 150.0988
0.548696 95.176 149.8860
0.552673 95.155 149.6701
0.556677 95.134 149.4510
0.560711 95.113 149.2289
0.564774 95.091 149.0037
0.568867 95.070 148.7755
0.572989 95.048 148.5443
0.577141 95.026 148.3102
0.581324 95.004 148.0732
0.585536 94.982 147.8333
0.589779 94.960 147.5907
0.594053 94.938 147.3453
0.598358 94.915 147.0974
0.602694 94.892 146.8468
0.607061 94.869 146.5938
0.611460 94.846 146.3384
0.615891 94.823 146.0806
0.620354 94.800 145.8206
0.624849 94.776 145.5585
0.629377 94.752 145.2945
0.633938 94.728 145.0285
0.638532 94.704 144.7607
0.643159 94.680 144.4914
0.647819 94.655 144.2205
0.652514 94.631 143.9483
0.657242 94.606 143.6749
0.662005 94.581 143.4004
0.666802 94.556 143.1251
0.671634 94.530 142.8492
0.676501 94.505 142.5728
0.681403 94.479 142.2960
0.686341 94.453 142.0193
0.691314 94.427 141.7426
0.696324 94.401 141.4663
0.701370 94.374 141.1905
0.706452 94.347 140.9154
0.711571 94.319 140.6411
0.716728 94.291 140.3675
0.721921 94.261 140.0944
0.727153 94.230 139.8213
0.732422 94.197 139.5474
0.737729 94.162 139.2716
0.743075 94.124 138.9929
0.748460 94.085 138.7102
0.753883 94.045 138.4228
0.759346 94.003 138.1302
0.764849 93.961 137.8321
0.770391 93.918 137.5281
0.775974 93.875 137.2180
0.781597 93.831 136.9019
0.787261 93.786 136.5795
0.792966 93.741 136.2508
0.798712 93.695 135.9157
0.804500 93.649 135.5742
0.810329 93.602 135.2261
0.816201 93.554 134.8714
0.822116 93.506 134.5102
0.828073 93.457 134.1422
0.834074 93.407 133.7676
0.840118 93.357 133.3862
0.846206 93.305 132.9981
0.852338 93.253 132.6031
0.858514 93.200 132.2014
0.864735 93.146 131.7929
0.871001 93.091 131.3776
0.877313 93.035 130.9556
0.883670 92.979 130.5268
0.890074 92.921 130.0913
0.896524 92.862 129.6492
0.903020 92.801 129.2006
0.909564 92.740 128.7455
0.916155 92.677 128.2841
0.922794 92.614 127.8164
0.929481 92.548 127.3427
0.936216 92.482 126.8631
0.943000 92.414 126.3778
0.949834 92.344 125.8870
0.956717 92.273 125.3909
0.963649 92.200 124.8900
0.970632 92.126 124.3843
0.977666 92.050 123.8744
0.984750 91.972 123.3606
0.991886 91.892 122.8432
0.999074 91.811 122.3228
1.006314 91.727 121.7998
1.013606 91.641 121.2747
1.020951 91.554 120.7483
1.028349 91.464 120.2210
1.035801 91.372 119.6936
1.043307 91.277 119.1668
1.050867 91.180 118.6414
1.058482 91.080 118.1181
1.066152 90.978 117.5977
1.073878 90.874 117.0808
1.081660 90.767 116.5680
1.089498 90.657 116.0595
1.097393 90.545 115.5552
1.105345 90.430 115.0546
1.113355 90.313 114.5570
1.121423 90.194 114.0615
1.129549 90.072 113.5672
1.137734 89.949 113.0735
1.145979 89.824 112.5797
1.154283 89.696 112.0852
1.162647 89.566 111.5895
1.171072 89.434 111.0922
1.179558 89.300 110.5926
1.188106 89.163 110.0902
1.196715 89.023 109.5845
1.205387 88.881 109.0749
1.214122 88.736 108.5607
1.222920 88.588 108.0415
1.231782 88.437 107.5164
1.240708 88.284 106.9849
1.249699 88.126 106.4461
1.258754 87.966 105.8993
1.267876 87.802 105.3436
1.277063 87.635 104.7783
1.286318 87.463 104.2023
1.295639 87.288 103.6148
1.305027 87.109 103.0147
1.314484 86.926 102.4010
1.324009 86.738 101.7725
1.333604 86.546 101.1282
1.343268 86.350 100.4668
1.353002 86.149 99.7871
1.362806 85.942 99.0879
1.372681 85.731 98.3678
1.382628 85.514 97.6257
1.392647 85.292 96.8601
1.402739 85.064 96.0700
1.412904 84.830 95.2542
1.423142 84.589 94.4118
1.433455 84.341 93.5419
1.443843 84.084 92.6442
1.454305 83.818 91.7182
1.464844 83.540 90.7638
1.475459 83.248 89.7805
1.486150 82.940 88.7672
1.496920 82.614 87.7217
1.507767 82.268 86.6409
1.518693 81.903 85.5206
1.529698 81.520 84.3554
1.540783 81.118 83.1388
1.551948 80.700 81.8631
1.563194 80.266 80.5192
1.574521 79.819 79.0962
1.585931 79.360 77.5814
1.597423 78.891 75.9594
1.608999 78.415 74.2118
1.620658 77.933 72.3168
1.632402 77.448 70.2477
1.644232 76.963 67.9723
1.656146 76.480 65.4515
1.668147 76.002 62.6382
1.680235 75.532 59.4753
1.692411 75.074 55.8954
1.704675 74.630 51.8200
1.717028 74.206 47.1621
1.729470 73.803 41.8330
1.742003 73.428 35.7562
1.754626 73.083 28.8921
1.767341 72.775 21.2713
1.780147 72.507 13.0259
1.793047 72.286 4.3986
1.806040 72.115 -4.2933
1.819128 72.000 -12.7312
1.832310 71.943 -20.6699
1.845587 71.949 -27.9738
1.858961 72.016 -34.6041
1.872432 72.146 -40.5845
1.886001 72.334 -45.9692
1.899667 72.579 -50.8218
1.913433 72.875 -55.2056
1.927299 73.218 -59.1780
1.941265 73.603 -62.7896
1.955332 74.025 -66.0842
1.969501 74.479 -69.0990
1.983773 74.958 -71.8657
1.998148 75.458 -74.4109
2.012627 75.972 -76.7573
2.027212 76.495 -78.9239
2.041902 77.022 -80.9269
2.056698 77.547 -82.7799
2.071602 78.063 -84.4946
2.086614 78.566 -86.0812
2.101734 79.050 -87.5484
2.116964 79.511 -88.9045
2.132304 79.943 -90.1575
2.147756 80.343 -91.3161
2.163320 80.709 -92.3904
2.178996 81.039 -93.3925
2.194786 81.335 -94.3372
2.210690 81.599 -95.2408
2.226710 81.836 -96.1188
2.242845 82.048 -96.9833
2.259098 82.238 -97.8421
2.275468 82.409 -98.6994
2.291957 82.562 -99.5561
2.308566 82.698 -100.4116
2.325295 82.820 -101.2634
2.342145 82.927 -102.1086
2.359117 83.021 -102.9435
2.376212 83.103 -103.7639
2.393431 83.174 -104.5655
2.410775 83.235 -105.3434
2.428244 83.288 -106.0928
2.445840 83.333 -106.8084
2.463564 83.372 -107.4852
2.481416 83.406 -108.1184
2.499397 83.436 -108.7038
2.517509 83.462 -109.2384
2.535752 83.484 -109.7213
2.554127 83.502 -110.1541
2.572635 83.514 -110.5409
2.591277 83.519 -110.8877
2.610055 83.515 -111.2003
2.628968 83.502 -111.4829
2.648019 83.479 -111.7382
2.667208 83.446 -111.9666
2.686535 83.405 -112.1675
2.706003 83.355 -112.3390
2.725612 83.299 -112.4784
2.745363 83.236 -112.5822
2.765257 83.170 -112.6463
2.785295 83.100 -112.6663
2.805478 83.029 -112.6371
2.825808 82.957 -112.5532
2.846285 82.886 -112.4089
2.866910 82.817 -112.1982
2.887685 82.751 -111.9151
2.908611 82.688 -111.5537
2.929688 82.627 -111.1083
2.950917 82.566 -110.5742
2.972301 82.506 -109.9477
2.993839 82.444 -109.2267
3.015534 82.381 -108.4108
3.037386 82.318 -107.5013
3.059396 82.255 -106.5012
3.081565 82.194 -105.4151
3.103896 82.137 -104.2493
3.126388 82.085 -103.0118
3.149043 82.041 -101.7122
3.171862 82.008 -100.3616
3.194847 81.986 -98.9719
3.217998 81.980 -97.5551
3.241317 81.990 -96.1220
3.264805 82.019 -94.6813
3.288463 82.069 -93.2381
3.312293 82.141 -91.7946
3.336295 82.233 -90.3522
3.360471 82.347 -88.9147
3.384822 82.481 -87.4895
3.409350 82.632 -86.0878
3.434056 82.798 -84.7224
3.458940 82.977 -83.4074
3.484005 83.167 -82.1563
3.509252 83.364 -80.9815
3.534681 83.566 -79.8936
3.560295 83.770 -78.9014
3.586094 83.976 -78.0109
3.612081 84.180 -77.2254
3.638255 84.383 -76.5454
3.664620 84.586 -75.9680
3.691175 84.788 -75.4878
3.717923 84.991 -75.0976
3.744864 85.195 -74.7903
3.772001 85.400 -74.5585
3.799335 85.606 -74.3957
3.826866 85.812 -74.2958
3.854597 86.016 -74.2533
3.882529 86.216 -74.2634
3.910664 86.411 -74.3222
3.939002 86.601 -74.4267
3.967546 86.783 -74.5750
3.996296 86.956 -74.7664
4.025255 87.121 -75.0014
4.054423 87.277 -75.2809
4.083804 87.425 -75.6047
4.113396 87.564 -75.9709
4.143204 87.696 -76.3756
4.173227 87.820 -76.8132
4.203468 87.936 -77.2770
4.233928 88.045 -77.7604
4.264609 88.148 -78.2568
4.295512 88.243 -78.7608
4.326639 88.331 -79.2686
4.357992 88.411 -79.7785
4.389572 88.484 -80.2910
4.421380 88.550 -80.8086
4.453419 88.607 -81.3339
4.485691 88.657 -81.8682
4.518196 88.699 -82.4101
4.550936 88.733 -82.9561
4.583914 88.760 -83.5008
4.617131 88.781 -84.0380
4.650589 88.796 -84.5611
4.684289 88.805 -85.0642
4.718233 88.809 -85.5426
4.752424 88.808 -85.9938
4.786862 88.801 -86.4173
4.821549 88.789 -86.8143
4.856488 88.771 -87.1861
4.891680 88.747 -87.5332
4.927127 88.719 -87.8553
4.962831 88.688 -88.1508
4.998794 88.654 -88.4173
5.035017 88.619 -88.6517
5.071503 88.584 -88.8509
5.108253 88.548 -89.0116
5.145270 88.513 -89.1314
5.182555 88.478 -89.2091
5.220110 88.443 -89.2456
5.257937 88.410 -89.2435
5.296038 88.377 -89.2070
5.334415 88.348 -89.1415
5.373071 88.321 -89.0522
5.412006 88.300 -88.9440
5.451224 88.285 -88.8206
5.490725 88.276 -88.6840
5.530514 88.273 -88.5352
5.570590 88.278 -88.3756
5.610957 88.289 -88.2086
5.651616 88.307 -88.0402
5.692570 88.331 -87.8783
5.733821 88.360 -87.7318
5.775370 88.395 -87.6092
5.817221 88.435 -87.5175
5.859375 88.481 -87.4614
5.901834 88.532 -87.4429
5.944602 88.588 -87.4629
5.987679 88.648 -87.5219
6.031068 88.713 -87.6212
6.074771 88.779 -87.7629
6.118792 88.847 -87.9494
6.163131 88.916 -88.1833
6.207792 88.983 -88.4667
6.252776 89.050 -88.8005
6.298086 89.115 -89.1840
6.343725 89.179 -89.6148
6.389694 89.241 -90.0889
6.435996 89.301 -90.6016
6.482634 89.357 -91.1486
6.529610 89.410 -91.7263
6.576926 89.458 -92.3325
6.624585 89.501 -92.9662
6.672590 89.540 -93.6259
6.720942 89.574 -94.3091
6.769645 89.603 -95.0111
6.818700 89.628 -95.7259
6.868111 89.649 -96.4474
6.917881 89.666 -97.1705
6.968010 89.678 -97.8918
7.018504 89.686 -98.6093
7.069362 89.690 -99.3217
7.120590 89.691 -100.0267
7.172189 89.689 -100.7210
7.224161 89.686 -101.4004
7.276511 89.681 -102.0611
7.329239 89.675 -102.6997
7.382350 89.669 -103.3145
7.435845 89.663 -103.9055
7.489729 89.658 -104.4731
7.544002 89.655 -105.0185
7.598669 89.654 -105.5423
7.653732 89.656 -106.0453
7.709194 89.663 -106.5279
7.765058 89.673 -106.9910
7.821327 89.688 -107.4369
7.878004 89.708 -107.8692
7.935091 89.734 -108.2924
7.992592 89.764 -108.7110
8.050510 89.800 -109.1287
8.108847 89.842 -109.5482
8.167607 89.888 -109.9717
8.226793 89.940 -110.4017
8.286408 89.997 -110.8414
8.346454 90.057 -111.2939
8.406936 90.121 -111.7618
8.467856 90.188 -112.2468
8.529218 90.257 -112.7490
8.591024 90.328 -113.2678
8.653278 90.400 -113.8021
8.715983 90.473 -114.3509
8.779143 90.546 -114.9131
8.842760 90.618 -115.4874
8.906839 90.689 -116.0715
8.971381 90.759 -116.6626
9.036392 90.827 -117.2571
9.101873 90.893 -117.8513
9.167829 90.958 -118.4422
9.234263 91.020 -119.0273
9.301178 91.080 -119.6040
9.368578 91.139 -120.1696
9.436467 91.196 -120.7209
9.504847 91.251 -121.2555
9.573723 91.304 -121.7714
9.643099 91.356 -122.2674
9.712976 91.406 -122.7432
9.783361 91.455 -123.1982
9.854255 91.501 -123.6324
9.925663 91.546 -124.0461
9.997588 91.589 -124.4399
10.070035 91.630 -124.8154
10.143007 91.670 -125.1744
10.216507 91.710 -125.5189
10.290540 91.749 -125.8507
10.365109 91.787 -126.1718
10.440219 91.826 -126.4839
10.515873 91.864 -126.7890
10.592076 91.903 -127.0890
10.668830 91.941 -127.3854
10.746141 91.979 -127.6792
10.824012 92.017 -127.9709
10.902447 92.054 -128.2611
10.981451 92.089 -128.5500
11.061027 92.124 -128.8375
11.141180 92.157 -129.1234
11.221913 92.188 -129.4071
11.303232 92.217 -129.6879
11.385140 92.245 -129.9652
11.467641 92.271 -130.2386
11.550741 92.295 -130.5076
11.634442 92.318 -130.7719
11.718750 92.339 -131.0314
11.803669 92.359 -131.2862
11.889203 92.378 -131.5367
11.975357 92.396 -131.7835
12.062136 92.413 -132.0276
12.149543 92.429 -132.2697
12.237583 92.444 -132.5108
12.326262 92.459 -132.7521
12.415583 92.472 -132.9945
12.505552 92.483 -133.2389
12.596172 92.494 -133.4862
12.687449 92.503 -133.7367
12.779387 92.510 -133.9909
12.871992 92.515 -134.2488
12.965268 92.519 -134.5105
13.059220 92.522 -134.7755
13.153852 92.522 -135.0437
13.249170 92.522 -135.3145
13.345179 92.520 -135.5878
13.441884 92.517 -135.8634
13.539289 92.514 -136.1411
13.637401 92.510 -136.4213
13.736223 92.505 -136.7044
13.835761 92.500 -136.9913
13.936021 92.495 -137.2831
14.037007 92.490 -137.5809
14.138725 92.485 -137.8862
14.241180 92.481 -138.2004
14.344377 92.476 -138.5248
14.448323 92.472 -138.8605
14.553021 92.468 -139.2084
14.658478 92.464 -139.5690
14.764700 92.459 -139.9423
14.871691 92.455 -140.3278
14.979457 92.450 -140.7247
15.088005 92.446 -141.1317
15.197339 92.441 -141.5474
15.307465 92.435 -141.9700
15.418389 92.430 -142.3977
15.530117 92.425 -142.8289
15.642655 92.420 -143.2620
15.756008 92.416 -143.6960
15.870182 92.412 -144.1299
15.985184 92.410 -144.5635
16.101019 92.409 -144.9967
16.217694 92.409 -145.4298
16.335214 92.412 -145.8633
16.453586 92.416 -146.2977
16.572815 92.422 -146.7337
16.692909 92.430 -147.1714
16.813872 92.440 -147.6109
16.935713 92.451 -148.0519
17.058436 92.464 -148.4936
17.182048 92.478 -148.9348
17.306556 92.492 -149.3741
17.431967 92.507 -149.8097
17.558286 92.522 -150.2400
17.685521 92.537 -150.6632
17.813677 92.552 -151.0779
17.942762 92.568 -151.4829
18.072783 92.583 -151.8775
18.203746 92.599 -152.2612
18.335658 92.616 -152.6340
18.468526 92.632 -152.9962
18.602356 92.649 -153.3484
18.737156 92.665 -153.6910
18.872934 92.682 -154.0247
19.009695 92.699 -154.3500
19.147447 92.715 -154.6671
19.286197 92.731 -154.9762
19.425953 92.746 -155.2773
19.566721 92.759 -155.5701
19.708510 92.771 -155.8544
19.851326 92.782 -156.1301
19.995177 92.791 -156.3970
20.140070 92.799 -156.6551
20.286013 92.805 -156.9047
20.433014 92.810 -157.1462
20.581080 92.814 -157.3802
20.730219 92.817 -157.6077
20.880439 92.819 -157.8296
21.031747 92.820 -158.0473
21.184152 92.821 -158.2624
21.337661 92.822 -158.4768
21.492282 92.823 -158.6924
21.648024 92.823 -158.9116
21.804895 92.824 -159.1369
21.962902 92.825 -159.3708
22.122054 92.825 -159.6155
22.282360 92.825 -159.8731
22.443827 92.825 -160.1450
22.606464 92.824 -160.4319
22.770280 92.822 -160.7338
22.935283 92.819 -161.0498
23.101481 92.815 -161.3784
23.268884 92.809 -161.7177
23.437500 92.803 -162.0654
23.607338 92.795 -162.4196
23.778406 92.787 -162.7785
23.950714 92.778 -163.1409
24.124271 92.770 -163.5063
24.299086 92.762 -163.8745
24.475167 92.755 -164.2456
24.652524 92.748 -164.6198
24.831166 92.743 -164.9967
25.011103 92.738 -165.3758
25.192344 92.733 -165.7557
25.374898 92.729 -166.1347
25.558775 92.726 -166.5106
25.743984 92.723 -166.8812
25.930536 92.721 -167.2449
26.118439 92.719 -167.6001
26.307704 92.719 -167.9463
26.498341 92.719 -168.2834
26.690359 92.720 -168.6120
26.883768 92.722 -168.9329
27.078579 92.724 -169.2468
27.274801 92.727 -169.5543
27.472446 92.729 -169.8556
27.671522 92.732 -170.1507
27.872042 92.733 -170.4392
28.074014 92.734 -170.7209
28.277450 92.734 -170.9955
28.482360 92.732 -171.2632
28.688755 92.730 -171.5244
28.896645 92.726 -171.7798
29.106042 92.722 -172.0304
29.316957 92.716 -172.2772
29.529400 92.710 -172.5215
29.743382 92.702 -172.7646
29.958915 92.693 -173.0077
30.176009 92.684 -173.2522
30.394677 92.674 -173.4996
30.614929 92.663 -173.7511
30.836778 92.651 -174.0074
31.060234 92.638 -174.2691
31.285309 92.625 -174.5364
31.512015 92.611 -174.8089
31.740364 92.596 -175.0862
31.970368 92.581 -175.3680
32.202039 92.566 -175.6543
32.435388 92.551 -175.9455
32.670428 92.537 -176.2423
32.907171 92.523 -176.5452
33.145630 92.510 -176.8544
33.385817 92.497 -177.1694
33.627745 92.484 -177.4887
33.871425 92.470 -177.8099
34.116871 92.457 -178.1303
34.364096 92.443 -178.4468
34.613113 92.429 -178.7569
34.863934 92.415 -179.0588
35.116572 92.402 -179.3520
35.371041 92.389 -179.6364
35.627354 92.377 -179.9128
35.885525 92.365 179.8178
36.145566 92.353 179.5547
36.407492 92.341 179.2977
36.671316 92.329 179.0469
36.937051 92.316 178.8024
37.204712 92.303 178.5646
37.474313 92.290 178.3333
37.745867 92.277 178.1077
38.019389 92.264 177.8862
38.294893 92.250 177.6666
38.572394 92.237 177.4465
38.851905 92.225 177.2233
39.133442 92.212 176.9948
39.417019 92.199 176.7593
39.702651 92.185 176.5159
39.990353 92.171 176.2642
40.280140 92.157 176.0046
40.572026 92.141 175.7383
40.866028 92.124 175.4670
41.162160 92.107 175.1929
41.460438 92.088 174.9185
41.760877 92.069 174.6459
42.063494 92.049 174.3770
42.368303 92.029 174.1120
42.675322 92.009 173.8508
42.984565 91.990 173.5924
43.296048 91.971 173.3357
43.609789 91.951 173.0802
43.925804 91.932 172.8260
44.244108 91.912 172.5737
44.564719 91.891 172.3246
44.887654 91.870 172.0796
45.212928 91.848 171.8389
45.540560 91.826 171.6021
45.870565 91.804 171.3683
46.202962 91.782 171.1366
46.537768 91.760 170.9058
46.875000 91.737 170.6757
47.214676 91.714 170.4459
47.556813 91.691 170.2165
47.901429 91.668 169.9872
48.248542 91.645 169.7578
48.598171 91.621 169.5284
48.950334 91.598 169.2993
49.305048 91.574 169.0719
49.662333 91.549 168.8477
50.022206 91.525 168.6282
50.384688 91.500 168.4140
50.749796 91.476 168.2049
51.117550 91.451 168.0002
51.487969 91.427 167.7994
51.861072 91.402 167.6021
52.236879 91.378 167.4085
52.615409 91.353 167.2185
52.996681 91.327 167.0316
53.380717 91.302 166.8470
53.767536 91.277 166.6636
54.157158 91.251 166.4805
54.549603 91.225 166.2978
54.944892 91.199 166.1158
55.343045 91.173 165.9347
55.744084 91.148 165.7538
56.148028 91.123 165.5710
56.554900 91.100 165.3835
56.964720 91.078 165.1886
57.377510 91.055 164.9849
57.793291 91.033 164.7731
58.212085 91.010 164.5560
58.633914 90.987 164.3372
59.058799 90.962 164.1197
59.486764 90.937 163.9055
59.917829 90.912 163.6948
60.352019 90.885 163.4873
60.789354 90.858 163.2827
61.229859 90.829 163.0818
61.673556 90.799 162.8861
62.120468 90.768 162.6973
62.570618 90.736 162.5157
63.024031 90.704 162.3402
63.480729 90.672 162.1680
63.940736 90.639 161.9962
64.404077 90.606 161.8227
64.870776 90.573 161.6474
65.340856 90.539 161.4720
65.814343 90.504 161.2998
66.291261 90.469 161.1334
66.771635 90.435 160.9738
67.255489 90.401 160.8194
67.742850 90.368 160.6674
68.233743 90.336 160.5153
68.728193 90.304 160.3625
69.226226 90.271 160.2114
69.727867 90.238 160.0654
70.233144 90.204 159.9272
70.742083 90.171 159.7972
71.254709 90.137 159.6736
71.771050 90.103 159.5535
72.291132 90.070 159.4342
72.814984 90.036 159.3134
73.342631 90.002 159.1890
73.874102 89.967 159.0596
74.409424 89.931 158.9266
74.948626 89.894 158.7943
75.491734 89.855 158.6686
76.038779 89.816 158.5533
76.589787 89.779 158.4474
77.144788 89.743 158.3471
77.703811 89.709 158.2485
78.266885 89.677 158.1494
78.834039 89.648 158.0486
79.405303 89.621 157.9445
79.980706 89.596 157.8346
80.560280 89.573 157.7144
81.144053 89.552 157.5789
81.732056 89.530 157.4243
82.324320 89.508 157.2516
82.920876 89.482 157.0670
83.521755 89.452 156.8789
84.126988 89.419 156.6934
84.736607 89.383 156.5136
85.350643 89.344 156.3405
85.969129 89.303 156.1751
86.592097 89.259 156.0185
87.219579 89.213 155.8715
87.851608 89.166 155.7342
88.488217 89.119 155.6067
89.129439 89.071 155.4889
89.775308 89.024 155.3801
90.425856 88.977 155.2796
91.081119 88.932 155.1863
91.741131 88.887 155.0995
92.405925 88.842 155.0183
93.075536 88.797 154.9423
93.750000 88.752 154.8712
94.429351 88.706 154.8044
95.113625 88.659 154.7409
95.802858 88.611 154.6801
96.497085 88.562 154.6216
97.196342 88.511 154.5658
97.900667 88.459 154.5143
98.610096 88.406 154.4709
99.324665 88.353 154.4410
100.044413 88.300 154.4304
100.769376 88.248 154.4447
101.499592 88.196 154.4880
102.235100 88.146 154.5611
102.975938 88.098 154.6608
103.722144 88.051 154.7809
104.473757 88.005 154.9118
105.230817 87.959 155.0423
105.993363 87.914 155.1648
106.761435 87.867 155.2795
107.535072 87.821 155.3948
108.314315 87.777 155.5238
109.099206 87.738 155.6797
109.889783 87.707 155.8707
110.686090 87.685 156.0970
111.488167 87.673 156.3520
112.296056 87.667 156.6241
113.109800 87.665 156.8981
113.929440 87.663 157.1544
114.755020 87.657 157.3669
115.586582 87.643 157.5069
116.424170 87.618 157.5598
117.267827 87.582 157.5395
118.117598 87.539 157.4837
118.973527 87.500 157.4308
119.835658 87.479 157.3789
120.704037 87.484 157.2700
121.578708 87.509 157.0470
122.459718 87.541 156.7204
123.347111 87.569 156.3542
124.240935 87.586 156.0136
125.141236 87.590 155.7372
126.048061 87.580 155.5327
126.961458 87.557 155.3861
127.881473 87.524 155.2740
128.808154 87.484 155.1739
129.741551 87.441 155.0699
130.681712 87.395 154.9565
131.628686 87.350 154.8378
132.582521 87.306 154.7242
133.543269 87.264 154.6266
134.510979 87.221 154.5516
135.485701 87.178 154.4999
136.467486 87.135 154.4666
137.456386 87.090 154.4435
138.452451 87.045 154.4233
139.455735 87.000 154.4016
140.466288 86.956 154.3774
141.484165 86.913 154.3528
142.509418 86.871 154.3306
143.542100 86.829 154.3140
144.582265 86.788 154.3048
145.629968 86.745 154.3036
146.685262 86.703 154.3091
147.748204 86.659 154.3192
148.818849 86.614 154.3327
149.897251 86.569 154.3505
150.983469 86.522 154.3762
152.077557 86.474 154.4140
153.179574 86.426 154.4667
154.289576 86.379 154.5332
155.407622 86.332 154.6087
156.533770 86.288 154.6864
157.668078 86.246 154.7602
158.810606 86.205 154.8259
159.961413 86.165 154.8820
161.120559 86.125 154.9296
162.288105 86.086 154.9712
163.464112 86.046 155.0099
164.648640 86.005 155.0485
165.841752 85.963 155.0903
167.043510 85.920 155.1396
168.253976 85.876 155.2008
169.473213 85.831 155.2764
170.701286 85.787 155.3656
171.938258 85.743 155.4644
173.184194 85.701 155.5676
174.439158 85.659 155.6712
175.703216 85.619 155.7740
176.976434 85.579 155.8762
178.258878 85.540 155.9776
179.550615 85.501 156.0783
180.851713 85.462 156.1782
182.162239 85.424 156.2772
183.482262 85.386 156.3749
184.811850 85.348 156.4711
186.151073 85.310 156.5654
187.500000 85.273 156.6584
188.858702 85.235 156.7519
190.227250 85.197 156.8476
191.605715 85.159 156.9471
192.994169 85.122 157.0514
194.392685 85.084 157.1606
195.801334 85.047 157.2751
197.220191 85.009 157.3958
198.649330 84.971 157.5236
200.088825 84.934 157.6589
201.538751 84.897 157.8015
202.999184 84.861 157.9492
204.470200 84.826 158.0984
205.951875 84.793 158.2450
207.444287 84.760 158.3856
208.947514 84.727 158.5191
210.461634 84.693 158.6472
211.986726 84.658 158.7734
213.522869 84.622 158.9029
215.070144 84.583 159.0409
216.628631 84.544 159.1912
218.198411 84.504 159.3551
219.779567 84.465 159.5302
221.372180 84.428 159.7115
222.976334 84.392 159.8937
224.592112 84.358 160.0737
226.219600 84.324 160.2509
227.858880 84.291 160.4258
229.510039 84.258 160.5992
231.173164 84.225 160.7715
232.848340 84.192 160.9427
234.535655 84.160 161.1125
236.235197 84.127 161.2808
237.947054 84.095 161.4470
239.671317 84.062 161.6112
241.408074 84.029 161.7744
243.157416 83.994 161.9388
244.919435 83.959 162.1079
246.694223 83.922 162.2856
248.481871 83.885 162.4754
250.282473 83.848 162.6804
252.096123 83.811 162.9018
253.922915 83.777 163.1381
255.762945 83.746 163.3833
257.616309 83.717 163.6271
259.483103 83.692 163.8594
261.363424 83.667 164.0751
263.257372 83.643 164.2764
265.165043 83.617 164.4706
267.086538 83.589 164.6664
269.021957 83.560 164.8699
270.971401 83.531 165.0834
272.934972 83.502 165.3061
274.912771 83.474 165.5365
276.904902 83.447 165.7733
278.911469 83.423 166.0154
280.932577 83.400 166.2607
282.968330 83.379 166.5058
285.018835 83.361 166.7444
287.084199 83.345 166.9690
289.164530 83.330 167.1729
291.259935 83.313 167.3550
293.370525 83.295 167.5212
295.496408 83.273 167.6819
297.637697 83.249 167.8472
299.794503 83.222 168.0234
301.966937 83.195 168.2126
304.155114 83.167 168.4132
306.359147 83.139 168.6222
308.579152 83.112 168.8358
310.815244 83.085 169.0508
313.067539 83.058 169.2667
315.336156 83.031 169.4856
317.621211 83.003 169.7120
319.922826 82.974 169.9500
322.241118 82.945 170.2003
324.576210 82.918 170.4603
326.928223 82.891 170.7253
329.297280 82.866 170.9914
331.683504 82.842 171.2561
334.087019 82.819 171.5178
336.507952 82.797 171.7753
338.946427 82.775 172.0285
341.402572 82.752 172.2792
343.876516 82.729 172.5305
346.368387 82.705 172.7854
348.878315 82.681 173.0452
351.406431 82.658 173.3101
353.952867 82.635 173.5793
356.517756 82.612 173.8520
359.101230 82.589 174.1270
361.703426 82.567 174.4037
364.324478 82.544 174.6819
366.964523 82.522 174.9619
369.623699 82.500 175.2435
372.302145 82.478 175.5272
375.000000 82.457 175.8132
377.717405 82.436 176.1018
380.454501 82.416 176.3934
383.211431 82.396 176.6880
385.988339 82.378 176.9857
388.785369 82.359 177.2859
391.602668 82.342 177.5883
394.440383 82.324 177.8921
397.298660 82.307 178.1965
400.177650 82.290 178.5005
403.077502 82.273 178.8029
405.998368 82.257 179.1031
408.940400 82.241 179.4018
411.903750 82.225 179.7014
414.888575 82.208 -179.9950
417.895028 82.191 -179.6846
420.923268 82.174 -179.3653
423.973452 82.158 -179.0370
427.045738 82.143 -178.7015
430.140287 82.130 -178.3627
433.257261 82.119 -178.0248
436.396822 82.110 -177.6903
439.559133 82.102 -177.3591
442.744360 82.095 -177.0314
445.952668 82.090 -176.7091
449.184225 82.086 -176.3970
452.439199 82.083 -176.1010
455.717760 82.079 -175.8248
459.020079 82.073 -175.5651
462.346327 82.063 -175.3113
465.696680 82.051 -175.0510
469.071310 82.036 -174.7758
472.470394 82.021 -174.4838
475.894109 82.006 -174.1783
479.342634 81.992 -173.8658
482.816148 81.979 -173.5525
486.314833 81.965 -173.2404
489.838871 81.951 -172.9249
493.388445 81.937 -172.5977
496.963741 81.923 -172.2542
500.564945 81.911 -171.8977
504.192245 81.901 -171.5365
507.845830 81.892 -171.1780
511.525890 81.883 -170.8259
515.232618 81.875 -170.4791
518.966206 81.866 -170.1334
522.726849 81.856 -169.7833
526.514743 81.846 -169.4239
530.330086 81.836 -169.0528
534.173076 81.827 -168.6728
538.043915 81.820 -168.2891
541.942803 81.814 -167.9051
545.869944 81.810 -167.5212
549.825542 81.806 -167.1373
553.809805 81.804 -166.7547
557.822939 81.802 -166.3755
561.865154 81.801 -166.0006
565.936660 81.799 -165.6286
570.037671 81.798 -165.2559
574.168399 81.796 -164.8793
578.329060 81.795 -164.4979
582.519870 81.793 -164.1129
586.741049 81.792 -163.7246
590.992817 81.791 -163.3311
595.275394 81.790 -162.9293
599.589005 81.789 -162.5197
603.933874 81.791 -162.1062
608.310228 81.793 -161.6932
612.718295 81.796 -161.2828
617.158304 81.799 -160.8729
621.630488 81.801 -160.4576
626.135079 81.803 -160.0296
630.672311 81.807 -159.5858
635.242423 81.812 -159.1299
639.845651 81.820 -158.6684
644.482237 81.830 -158.2043
649.152421 81.843 -157.7372
653.856447 81.858 -157.2685
658.594560 81.876 -156.8050
663.367008 81.897 -156.3573
668.174039 81.920 -155.9335
673.015903 81.942 -155.5331
677.892854 81.963 -155.1477
682.805145 81.981 -154.7684
687.753032 81.997 -154.3886
692.736774 82.012 -154.0032
697.756631 82.026 -153.6078
702.812863 82.039 -153.2005
707.905735 82.054 -152.7834
713.035511 82.070 -152.3604
718.202461 82.087 -151.9345
723.406852 82.105 -151.5064
728.648956 82.123 -151.0749
733.929047 82.142 -150.6387
739.247399 82.162 -150.1974
744.604290 82.182 -149.7509
750.000000 82.203 -149.2999
755.434809 82.225 -148.8453
760.909001 82.248 -148.3880
766.422861 82.272 -147.9283
771.976677 82.297 -147.4666
777.570739 82.324 -147.0035
783.205337 82.351 -146.5390
788.880766 82.380 -146.0712
794.597321 82.410 -145.5966
800.355301 82.442 -145.1131
806.155005 82.476 -144.6227
811.996736 82.514 -144.1314
817.880799 82.556 -143.6483
823.807501 82.601 -143.1832
829.777150 82.647 -142.7443
835.790057 82.694 -142.3337
841.846536 82.740 -141.9445
847.946903 82.784 -141.5661
854.091476 82.826 -141.1902
860.280575 82.867 -140.8123
866.514523 82.907 -140.4288
872.793644 82.947 -140.0363
879.118267 82.988 -139.6351
885.488720 83.029 -139.2298
891.905336 83.072 -138.8244
898.368450 83.115 -138.4196
904.878398 83.159 -138.0131
911.435520 83.205 -137.6041
918.040157 83.252 -137.1941
924.692655 83.301 -136.7861
931.393359 83.353 -136.3834
938.142619 83.406 -135.9896
944.940787 83.460 -135.6062
951.788218 83.515 -135.2313
958.685268 83.570 -134.8618
965.632296 83.626 -134.4950
972.629666 83.683 -134.1288
979.677741 83.741 -133.7625
986.776890 83.799 -133.3970
993.927482 83.858 -133.0312
1001.129891 83.917 -132.6600
1008.384491 83.978 -132.2792
1015.691660 84.041 -131.8900
1023.051781 84.108 -131.4984
1030.465236 84.179 -131.1131
1037.932411 84.254 -130.7456
1045.453698 84.332 -130.4074
1053.029486 84.411 -130.1028
1060.660172 84.490 -129.8275
1068.346153 84.567 -129.5727
1076.087829 84.643 -129.3296
1083.885605 84.718 -129.0925
1091.739887 84.791 -128.8598
1099.651084 84.865 -128.6319
1107.619609 84.937 -128.4083
1115.645878 85.009 -128.1877
1123.730308 85.081 -127.9686
1131.873321 85.153 -127.7489
1140.075341 85.225 -127.5271
1148.336797 85.297 -127.3023
1156.658119 85.371 -127.0740
1165.039741 85.445 -126.8416
1173.482099 85.520 -126.6036
1181.985634 85.599 -126.3600
1190.550789 85.681 -126.1166
1199.178011 85.768 -125.8844
1207.867749 85.857 -125.6754
1216.620457 85.949 -125.4958
1225.436590 86.040 -125.3427
1234.316609 86.130 -125.2086
1243.260976 86.219 -125.0861
1252.270157 86.307 -124.9691
1261.344623 86.395 -124.8559
1270.484846 86.484 -124.7477
1279.691303 86.572 -124.6453
1288.964474 86.660 -124.5483
1298.304842 86.750 -124.4569
1307.712894 86.839 -124.3728
1317.189120 86.930 -124.2982
1326.734016 87.021 -124.2338
1336.348077 87.112 -124.1777
1346.031806 87.204 -124.1258
1355.785708 87.297 -124.0740
1365.610290 87.391 -124.0185
1375.506065 87.487 -123.9554
1385.473549 87.586 -123.8807
1395.513261 87.689 -123.7943
1405.625726 87.797 -123.7027
1415.811469 87.911 -123.6184
1426.071023 88.029 -123.5560
1436.404921 88.150 -123.5246
1446.813703 88.273 -123.5249
1457.297912 88.396 -123.5524
1467.858093 88.517 -123.6019
1478.494798 88.637 -123.6699
1489.208581 88.756 -123.7540
1500.000000 88.873 -123.8520
1510.869618 88.986 -123.9619
1521.818002 89.097 -124.0819
1532.845723 89.204 -124.2105
1543.953355 89.309 -124.3467
1555.141477 89.414 -124.4911
1566.410674 89.519 -124.6486
1577.761531 89.627 -124.8306
1589.194642 89.737 -125.0517
1600.710601 89.849 -125.3217
1612.310010 89.959 -125.6420
1623.993473 90.068 -126.0079
1635.761599 90.174 -126.4124
1647.615002 90.277 -126.8501
1659.554299 90.378 -127.3166
1671.580114 90.478 -127.8092
1683.693072 90.575 -128.3275
1695.893807 90.671 -128.8735
1708.182952 90.764 -129.4491
1720.561150 90.854 -130.0542
1733.029045 90.939 -130.6861
1745.587288 91.020 -131.3398
1758.236533 91.096 -132.0094
1770.977440 91.169 -132.6898
1783.810673 91.240 -133.3813
1796.736900 91.312 -134.0926
1809.756796 91.383 -134.8367
1822.871040 91.452 -135.6236
1836.080315 91.518 -136.4564
1849.385310 91.580 -137.3330
1862.786718 91.637 -138.2488
1876.285239 91.688 -139.1979
1889.881575 91.733 -140.1732
1903.576436 91.774 -141.1675
1917.370535 91.812 -142.1739
1931.264593 91.846 -143.1871
1945.259332 91.880 -144.2062
1959.355483 91.912 -145.2367
1973.553781 91.942 -146.2885
1987.854965 91.969 -147.3685
2002.259781 91.988 -148.4771
2016.768981 92.000 -149.6087
2031.383320 92.001 -150.7556
2046.103561 91.992 -151.9091
2060.930471 91.973 -153.0613
2075.864823 91.942 -154.2064
2090.907395 91.901 -155.3396
2106.058972 91.848 -156.4542
2121.320344 91.783 -157.5405
2136.692305 91.706 -158.5856
2152.175658 91.616 -159.5750
2167.771210 91.516 -160.4982
2183.479774 91.408 -161.3517
2199.302169 91.292 -162.1360
2215.239219 91.170 -162.8485
2231.291755 91.042 -163.4814
2247.460615 90.908 -164.0235
2263.746641 90.772 -164.4624
2280.150683 90.635 -164.7876
2296.673595 90.503 -164.9945
2313.316238 90.380 -165.0879
2330.079481 90.272 -165.0879
2346.964198 90.182 -165.0316
2363.971268 90.111 -164.9671
2381.101578 90.058 -164.9400
2398.356022 90.019 -164.9841
2415.735498 89.988 -165.1178
2433.240913 89.960 -165.3444
2450.873180 89.930 -165.6562
2468.633217 89.894 -166.0388
2486.521951 89.850 -166.4729
2504.540314 89.796 -166.9357
2522.689246 89.733 -167.4023
2540.969692 89.660 -167.8507
2559.382606 89.582 -168.2692
2577.928947 89.500 -168.6589
2596.609683 89.416 -169.0284
2615.425787 89.332 -169.3871
2634.378241 89.245 -169.7416
2653.468031 89.156 -170.0936
2672.696154 89.064 -170.4395
2692.063613 88.967 -170.7725
2711.571415 88.868 -171.0880
2731.220579 88.768 -171.3894
2751.012130 88.668 -171.6881
2770.947098 88.566 -171.9983
2791.026522 88.462 -172.3318
2811.251451 88.353 -172.6957
2831.622938 88.235 -173.0917
2852.142045 88.106 -173.5147
2872.809842 87.960 -173.9491
2893.627406 87.795 -174.3648
2914.595823 87.607 -174.7161
2935.716186 87.398 -174.9494
2956.989596 87.169 -175.0147
2978.417161 86.929 -174.8735
3000.000000 86.684 -174.5028
3021.739237 86.443 -173.8981
3043.636005 86.215 -173.0732
3065.691446 86.007 -172.0572
3087.906710 85.824 -170.8905
3110.282955 85.671 -169.6232
3132.821347 85.547 -168.3106
3155.523062 85.452 -167.0040
3178.389283 85.383 -165.7428
3201.421202 85.335 -164.5517
3224.620020 85.303 -163.4435
3247.986946 85.283 -162.4226
3271.523198 85.270 -161.4851
3295.230004 85.262 -160.6186
3319.108599 85.257 -159.8069
3343.160228 85.254 -159.0379
3367.386145 85.254 -158.3070
3391.787613 85.255 -157.6131
3416.365904 85.257 -156.9544
3441.122300 85.259 -156.3245
3466.058091 85.261 -155.7113
3491.174576 85.263 -155.1018
3516.473066 85.265 -154.4893
3541.954880 85.268 -153.8732
3567.621345 85.274 -153.2561
3593.473800 85.281 -152.6401
3619.513592 85.289 -152.0258
3645.742080 85.298 -151.4119
3672.160630 85.308 -150.7923
3698.770620 85.318 -150.1559
3725.573436 85.331 -149.4939
3752.570477 85.347 -148.8050
3779.763150 85.368 -148.0948
3807.152872 85.396 -147.3715
3834.741071 85.429 -146.6399
3862.529185 85.468 -145.8999
3890.518664 85.515 -145.1532
3918.710966 85.571 -144.4094
3947.107561 85.639 -143.6859
3975.709929 85.718 -143.0040
4004.519563 85.807 -142.3857
4033.537962 85.903 -141.8495
4062.766641 86.005 -141.4046
4092.207123 86.108 -141.0491
4121.860942 86.211 -140.7763
4151.729646 86.312 -140.5804
4181.814790 86.410 -140.4562
4212.117944 86.501 -140.3942
4242.640687 86.586 -140.3775
4273.384610 86.663 -140.3853
4304.351317 86.734 -140.4010
4335.542421 86.802 -140.4173
4366.959549 86.869 -140.4358
4398.604338 86.937 -140.4669
4430.478438 87.006 -140.5259
4462.583511 87.077 -140.6259
4494.921231 87.148 -140.7755
4527.493283 87.219 -140.9821
4560.301365 87.287 -141.2533
4593.347189 87.352 -141.5935
4626.632476 87.410 -141.9988
4660.158962 87.460 -142.4581
4693.928395 87.502 -142.9595
4727.942535 87.534 -143.4943
4762.203156 87.559 -144.0586
4796.712043 87.574 -144.6519
4831.470996 87.580 -145.2732
4866.481826 87.576 -145.9164
4901.746360 87.561 -146.5732
4937.266434 87.535 -147.2389
4973.043902 87.498 -147.9142
5009.080628 87.449 -148.5990
5045.378492 87.385 -149.2872
5081.939384 87.306 -149.9667
5118.765212 87.208 -150.6225
5155.857894 87.092 -151.2384
5193.219366 86.956 -151.7966
5230.851574 86.799 -152.2726
5268.756481 86.618 -152.6276
5306.936062 86.415 -152.8084
5345.392309 86.193 -152.7507
5384.127225 85.957 -152.3833
5423.142830 85.720 -151.6388
5462.441159 85.501 -150.4801
5502.024259 85.324 -148.9401
5541.894195 85.210 -147.1507
5582.053045 85.172 -145.3303
5622.502902 85.203 -143.7142
5663.245876 85.280 -142.4678
5704.284090 85.376 -141.6426
5745.619684 85.465 -141.1909
5787.254813 85.529 -141.0074
5829.191647 85.559 -140.9682
5871.432373 85.555 -140.9576
5913.979192 85.521 -140.8826
5956.834323 85.466 -140.6811
6000.000000 85.400 -140.3212
6043.478473 85.331 -139.7953
6087.272010 85.267 -139.1138
6131.382892 85.214 -138.3007
6175.813420 85.176 -137.3873
6220.565910 85.156 -136.4041
6265.642695 85.155 -135.3771
6311.046124 85.171 -134.3297
6356.778566 85.206 -133.2859
6402.842404 85.256 -132.2685
6449.240040 85.321 -131.2924
6495.973891 85.397 -130.3616
6543.046396 85.482 -129.4719
6590.460007 85.574 -128.6125
6638.217197 85.673 -127.7686
6686.320456 85.780 -126.9245
6734.772290 85.897 -126.0691
6783.575226 86.028 -125.1997
6832.731809 86.174 -124.3214
6882.244600 86.339 -123.4461
6932.116181 86.523 -122.5926
6982.349153 86.728 -121.7824
7032.946133 86.956 -121.0358
7083.909760 87.207 -120.3706
7135.242690 87.484 -119.8059
7186.947600 87.789 -119.3655
7239.027185 88.122 -119.0796
7291.484160 88.486 -118.9866
7344.321260 88.879 -119.1335
7397.541239 89.300 -119.5714
7451.146872 89.745 -120.3503
7505.140954 90.206 -121.5178
7559.526299 90.679 -123.1203
7614.305743 91.152 -125.2005
7669.482141 91.613 -127.7951
7725.058371 92.049 -130.9296
7781.037328 92.441 -134.6096
7837.421932 92.769 -138.8097
7894.215122 93.015 -143.4680
7951.419859 93.162 -148.4866
8009.039125 93.199 -153.7367
8067.075924 93.118 -159.0690
8125.533282 92.918 -164.3288
8184.414245 92.604 -169.3691
8243.721885 92.185 -174.0593
8303.459292 91.672 -178.2893
8363.629581 91.079 178.0279
8424.235888 90.423 174.9588
8485.281374 89.720 172.5505
8546.769221 88.989 170.8293
8608.702634 88.248 169.7986
8671.084842 87.516 169.4346
8733.919097 86.814 169.6796
8797.208675 86.159 170.4405
8860.956876 85.562 171.5995
8925.167022 85.031 173.0318
8989.842461 84.564 174.6268
9054.986566 84.155 176.3066
9120.602731 83.796 178.0317
9186.694378 83.478 179.7966
9253.264952 83.195 -178.3814
9320.317925 82.947 -176.4802
9387.856790 82.733 -174.4883
9455.885071 82.558 -172.4095
9524.406312 82.425 -170.2594
9593.424086 82.338 -168.0589
9662.941992 82.300 -165.8307
9732.963653 82.314 -163.6049
9803.492719 82.385 -161.4227
9874.532869 82.512 -159.3333
9946.087805 82.697 -157.3885
10018.161257 82.938 -155.6380
10090.756983 83.235 -154.1325
10163.878768 83.585 -152.9346
10237.530423 83.983 -152.1201
10311.715789 84.421 -151.7679
10386.438732 84.884 -151.9401
10461.703149 85.360 -152.6666
10537.512962 85.835 -153.9497
10613.872125 86.299 -155.7823
10690.784618 86.743 -158.1659
10768.254450 87.152 -161.1113
10846.285661 87.510 -164.6215
10924.882318 87.794 -168.6689
11004.048518 87.983 -173.1790
11083.788390 88.054 -178.0240
11164.106090 87.995 176.9701
11245.005805 87.799 172.0068
11326.491752 87.470 167.2936
11408.568180 87.022 163.0135
11491.239368 86.475 159.3040
11574.509626 85.854 156.2491
11658.383294 85.182 153.8872
11742.864745 84.483 152.2232
11827.958384 83.778 151.2385
11913.668646 83.084 150.8967
12000.000000 82.418 151.1489
12086.956947 81.794 151.9396
12174.544019 81.225 153.2063
12262.765784 80.722 154.8691
12351.626840 80.298 156.8169
12441.131819 79.959 158.9074
12531.285389 79.705 160.9868
12622.092249 79.527 162.9182
12713.557132 79.411 164.6061
12805.684808 79.335 166.0158
12898.480079 79.282 167.1847
12991.947783 79.239 168.2160
13086.092792 79.207 169.2457
13180.920015 79.200 170.3839
13276.434395 79.245 171.6521
13372.640911 79.367 172.9483
13469.544580 79.583 174.0591
13567.150452 79.891 174.7183
13665.463617 80.269 174.6838
13764.489200 80.681 173.7973
13864.232362 81.088 172.0034
13964.698305 81.450 169.3362
14065.892266 81.735 165.8987
14167.819519 81.914 161.8470
14270.485380 81.970 157.3753
14373.895200 81.892 152.6959
14478.054370 81.681 148.0175
14582.968320 81.343 143.5308
14688.642520 80.891 139.4011
14795.082478 80.343 135.7607
14902.293745 79.719 132.7035
15010.281908 79.042 130.2852
15119.052599 78.335 128.5295
15228.611486 77.620 127.4371
15338.964283 76.917 127.0006
15450.116741 76.247 127.2192
15562.074656 75.631 128.0970
15674.843864 75.095 129.6144
15788.430244 74.672 131.6847
15902.839718 74.392 134.1301
16018.078250 74.275 136.6989
16134.151848 74.330 139.1145
16251.066563 74.553 141.1235
16368.828491 74.929 142.5132
16487.443769 75.436 143.0945
16606.918584 76.043 142.6846
16727.259161 76.711 141.1189
16848.471777 77.386 138.2867
16970.562748 78.016 134.1625
17093.538442 78.546 128.8211
17217.405268 78.930 122.4384
17342.169684 79.135 115.2723
17467.838194 79.141 107.6303
17594.417350 78.944 99.8248
17721.913751 78.558 92.1284
17850.334044 78.003 84.7409
17979.684923 77.306 77.7831
18109.973131 76.492 71.3130
18241.205462 75.581 65.3502
18373.388756 74.586 59.9053
18506.529905 73.512 55.0110
18640.635849 72.360 50.7413
18775.713581 71.131 47.2141
18911.770141 69.829 44.5680
19048.812624 68.472 42.9153
19186.848172 67.085 42.2815
19325.883983 65.709 42.5654
19465.927305 64.391 43.5413
19606.985439 63.190 44.9026
19749.065738 62.178 46.3208
19892.175609 61.436 47.4891
20036.322514 61.041 48.1518
