* Measurement data measured by REW V5.31
* Source: EXCL: Microphone (USB Sound Device        ), MICROPHONE (Master Volume), R, volume: 0.390
* Format: 256k Log Swept Sine, 1 sweep at -15.0 dBFS with no timing reference
* Dated: Dec 31, 2024 2:46:05 PM
* REW Settings:
*  C-weighting compensation: Off
*  Target level: 75.0 dB
* Note: SIMGOT ET142 Red L
* Measurement: L SIMGOT ET142 New Red
* Smoothing: 1/12 octave
* Frequency Step: 96 ppo
* Start Frequency: 0.36621094 Hz
*
* Freq(Hz) SPL(dB) Phase(degrees)
0.366211 96.139 156.9682
0.368865 96.133 156.9442
0.371538 96.124 156.9082
0.374230 96.113 156.8630
0.376942 96.100 156.8108
0.379673 96.087 156.7535
0.382424 96.073 156.6922
0.385196 96.059 156.6274
0.387987 96.044 156.5597
0.390798 96.030 156.4892
0.393630 96.015 156.4160
0.396483 96.000 156.3403
0.399356 95.985 156.2619
0.402250 95.970 156.1808
0.405165 95.954 156.0971
0.408101 95.939 156.0108
0.411058 95.923 155.9217
0.414037 95.908 155.8299
0.417037 95.892 155.7354
0.420059 95.876 155.6380
0.423103 95.860 155.5379
0.426169 95.844 155.4350
0.429257 95.828 155.3292
0.432368 95.812 155.2205
0.435501 95.795 155.1089
0.438656 95.778 154.9944
0.441835 95.762 154.8769
0.445037 95.745 154.7565
0.448262 95.728 154.6331
0.451510 95.711 154.5066
0.454782 95.694 154.3771
0.458077 95.676 154.2446
0.461397 95.659 154.1089
0.464740 95.641 153.9702
0.468108 95.624 153.8283
0.471500 95.606 153.6833
0.474917 95.588 153.5351
0.478358 95.570 153.3838
0.481825 95.552 153.2292
0.485316 95.533 153.0715
0.488833 95.515 152.9106
0.492375 95.496 152.7464
0.495943 95.478 152.5790
0.499537 95.459 152.4083
0.503157 95.440 152.2344
0.506803 95.421 152.0573
0.510475 95.401 151.8769
0.514175 95.382 151.6932
0.517900 95.362 151.5063
0.521653 95.343 151.3161
0.525434 95.323 151.1227
0.529241 95.303 150.9260
0.533076 95.283 150.7261
0.536939 95.262 150.5229
0.540830 95.242 150.3166
0.544749 95.221 150.1071
0.548696 95.201 149.8944
0.552673 95.180 149.6785
0.556677 95.159 149.4595
0.560711 95.137 149.2375
0.564774 95.116 149.0124
0.568867 95.095 148.7842
0.572989 95.073 148.5531
0.577141 95.051 148.3190
0.581324 95.029 148.0821
0.585536 95.007 147.8424
0.589779 94.985 147.5998
0.594053 94.962 147.3546
0.598358 94.940 147.1067
0.602694 94.917 146.8562
0.607061 94.894 146.6033
0.611460 94.871 146.3479
0.615891 94.848 146.0903
0.620354 94.824 145.8304
0.624849 94.801 145.5684
0.629377 94.777 145.3044
0.633938 94.753 145.0385
0.638532 94.729 144.7709
0.643159 94.705 144.5016
0.647819 94.680 144.2308
0.652514 94.655 143.9587
0.657242 94.631 143.6854
0.662005 94.606 143.4111
0.666802 94.580 143.1359
0.671634 94.555 142.8601
0.676501 94.529 142.5837
0.681403 94.504 142.3071
0.686341 94.478 142.0305
0.691314 94.452 141.7539
0.696324 94.425 141.4777
0.701370 94.398 141.2021
0.706452 94.371 140.9271
0.711571 94.344 140.6529
0.716728 94.315 140.3795
0.721921 94.286 140.1065
0.727153 94.254 139.8335
0.732422 94.221 139.5597
0.737729 94.186 139.2841
0.743075 94.149 139.0055
0.748460 94.109 138.7229
0.753883 94.069 138.4357
0.759346 94.028 138.1433
0.764849 93.985 137.8453
0.770391 93.942 137.5414
0.775974 93.899 137.2316
0.781597 93.855 136.9156
0.787261 93.810 136.5934
0.792966 93.765 136.2649
0.798712 93.719 135.9299
0.804500 93.673 135.5886
0.810329 93.626 135.2407
0.816201 93.578 134.8862
0.822116 93.530 134.5252
0.828073 93.481 134.1574
0.834074 93.431 133.7830
0.840118 93.380 133.4018
0.846206 93.329 133.0139
0.852338 93.277 132.6191
0.858514 93.224 132.2176
0.864735 93.170 131.8093
0.871001 93.115 131.3942
0.877313 93.059 130.9724
0.883670 93.002 130.5438
0.890074 92.944 130.1086
0.896524 92.885 129.6667
0.903020 92.825 129.2183
0.909564 92.763 128.7635
0.916155 92.701 128.3023
0.922794 92.637 127.8349
0.929481 92.572 127.3614
0.936216 92.505 126.8820
0.943000 92.437 126.3970
0.949834 92.367 125.9064
0.956717 92.296 125.4107
0.963649 92.223 124.9099
0.970632 92.149 124.4046
0.977666 92.073 123.8949
0.984750 91.995 123.3813
0.991886 91.915 122.8642
0.999074 91.833 122.3441
1.006314 91.750 121.8213
1.013606 91.664 121.2966
1.020951 91.576 120.7704
1.028349 91.486 120.2435
1.035801 91.394 119.7164
1.043307 91.299 119.1899
1.050867 91.202 118.6648
1.058482 91.102 118.1418
1.066152 91.000 117.6217
1.073878 90.895 117.1051
1.081660 90.788 116.5927
1.089498 90.678 116.0846
1.097393 90.566 115.5807
1.105345 90.451 115.0805
1.113355 90.334 114.5833
1.121423 90.214 114.0882
1.129549 90.093 113.5944
1.137734 89.969 113.1012
1.145979 89.844 112.6079
1.154283 89.716 112.1139
1.162647 89.586 111.6188
1.171072 89.454 111.1220
1.179558 89.319 110.6231
1.188106 89.182 110.1213
1.196715 89.042 109.6163
1.205387 88.899 109.1074
1.214122 88.754 108.5940
1.222920 88.606 108.0756
1.231782 88.455 107.5513
1.240708 88.301 107.0206
1.249699 88.144 106.4827
1.258754 87.983 105.9369
1.267876 87.819 105.3822
1.277063 87.651 104.8179
1.286318 87.479 104.2430
1.295639 87.304 103.6566
1.305027 87.124 103.0576
1.314484 86.941 102.4451
1.324009 86.753 101.8179
1.333604 86.561 101.1749
1.343268 86.364 100.5148
1.353002 86.162 99.8365
1.362806 85.955 99.1387
1.372681 85.744 98.4202
1.382628 85.527 97.6795
1.392647 85.304 96.9155
1.402739 85.075 96.1270
1.412904 84.841 95.3129
1.423142 84.600 94.4721
1.433455 84.351 93.6040
1.443843 84.094 92.7080
1.454305 83.828 91.7838
1.464844 83.549 90.8312
1.475459 83.257 89.8497
1.486150 82.948 88.8383
1.496920 82.621 87.7948
1.507767 82.275 86.7161
1.518693 81.909 85.5979
1.529698 81.525 84.4348
1.540783 81.122 83.2205
1.551948 80.703 81.9470
1.563194 80.269 80.6053
1.574521 79.821 79.1845
1.585931 79.361 77.6717
1.597423 78.891 76.0515
1.608999 78.413 74.3053
1.620658 77.931 72.4111
1.632402 77.445 70.3418
1.644232 76.958 68.0650
1.656146 76.474 65.5410
1.668147 75.995 62.7217
1.680235 75.525 59.5492
1.692411 75.065 55.9544
1.704675 74.621 51.8570
1.717028 74.195 47.1675
1.729470 73.792 41.7945
1.742003 73.416 35.6590
1.754626 73.071 28.7203
1.767341 72.762 21.0108
1.780147 72.495 12.6691
1.793047 72.273 3.9481
1.806040 72.102 -4.8227
1.819128 71.987 -13.3166
1.832310 71.932 -21.2861
1.845587 71.938 -28.5985
1.858961 72.007 -35.2206
1.872432 72.137 -41.1819
1.886001 72.327 -46.5410
1.899667 72.574 -51.3651
1.913433 72.872 -55.7194
1.927299 73.217 -59.6630
1.941265 73.605 -63.2472
1.955332 74.030 -66.5161
1.969501 74.486 -69.5072
1.983773 74.968 -72.2522
1.998148 75.470 -74.7777
2.012627 75.987 -77.1062
2.027212 76.513 -79.2566
2.041902 77.042 -81.2449
2.056698 77.569 -83.0848
2.071602 78.088 -84.7877
2.086614 78.593 -86.3637
2.101734 79.079 -87.8214
2.116964 79.542 -89.1690
2.132304 79.976 -90.4145
2.147756 80.378 -91.5664
2.163320 80.745 -92.6347
2.178996 81.076 -93.6316
2.194786 81.373 -94.5718
2.210690 81.639 -95.4714
2.226710 81.876 -96.3459
2.242845 82.088 -97.2074
2.259098 82.279 -98.0637
2.275468 82.450 -98.9187
2.291957 82.603 -99.7737
2.308566 82.739 -100.6276
2.325295 82.860 -101.4783
2.342145 82.967 -102.3225
2.359117 83.061 -103.1568
2.376212 83.142 -103.9768
2.393431 83.213 -104.7782
2.410775 83.273 -105.5561
2.428244 83.325 -106.3056
2.445840 83.370 -107.0216
2.463564 83.408 -107.6990
2.481416 83.442 -108.3329
2.499397 83.470 -108.9191
2.517509 83.495 -109.4548
2.535752 83.517 -109.9390
2.554127 83.534 -110.3732
2.572635 83.545 -110.7616
2.591277 83.550 -111.1103
2.610055 83.545 -111.4250
2.628968 83.531 -111.7101
2.648019 83.508 -111.9679
2.667208 83.474 -112.1993
2.686535 83.432 -112.4034
2.706003 83.382 -112.5784
2.725612 83.324 -112.7214
2.745363 83.261 -112.8289
2.765257 83.194 -112.8970
2.785295 83.123 -112.9210
2.805478 83.050 -112.8957
2.825808 82.978 -112.8157
2.846285 82.906 -112.6752
2.866910 82.836 -112.4680
2.887685 82.768 -112.1882
2.908611 82.703 -111.8297
2.929688 82.640 -111.3868
2.950917 82.578 -110.8547
2.972301 82.515 -110.2297
2.993839 82.452 -109.5096
3.015534 82.386 -108.6939
3.037386 82.321 -107.7838
3.059396 82.255 -106.7823
3.081565 82.192 -105.6936
3.103896 82.132 -104.5241
3.126388 82.078 -103.2817
3.149043 82.031 -101.9758
3.171862 81.995 -100.6174
3.194847 81.971 -99.2186
3.217998 81.963 -97.7911
3.241317 81.971 -96.3462
3.264805 81.998 -94.8922
3.288463 82.047 -93.4347
3.312293 82.117 -91.9758
3.336295 82.208 -90.5171
3.360471 82.321 -89.0626
3.384822 82.454 -87.6199
3.409350 82.604 -86.2003
3.434056 82.771 -84.8171
3.458940 82.950 -83.4844
3.484005 83.139 -82.2160
3.509252 83.336 -81.0244
3.534681 83.538 -79.9207
3.560295 83.743 -78.9134
3.586094 83.948 -78.0087
3.612081 84.153 -77.2102
3.638255 84.357 -76.5180
3.664620 84.560 -75.9295
3.691175 84.762 -75.4389
3.717923 84.966 -75.0394
3.744864 85.171 -74.7234
3.772001 85.377 -74.4836
3.799335 85.584 -74.3135
3.826866 85.790 -74.2068
3.854597 85.994 -74.1581
3.882529 86.195 -74.1624
3.910664 86.392 -74.2158
3.939002 86.582 -74.3152
3.967546 86.764 -74.4586
3.996296 86.939 -74.6455
4.025255 87.104 -74.8763
4.054423 87.261 -75.1517
4.083804 87.409 -75.4717
4.113396 87.549 -75.8343
4.143204 87.681 -76.2355
4.173227 87.805 -76.6697
4.203468 87.922 -77.1303
4.233928 88.031 -77.6104
4.264609 88.133 -78.1036
4.295512 88.229 -78.6045
4.326639 88.317 -79.1090
4.357992 88.397 -79.6154
4.389572 88.471 -80.1244
4.421380 88.536 -80.6385
4.453419 88.594 -81.1601
4.485691 88.643 -81.6906
4.518196 88.685 -82.2287
4.550936 88.719 -82.7706
4.583914 88.746 -83.3111
4.617131 88.767 -83.8440
4.650589 88.782 -84.3627
4.684289 88.791 -84.8611
4.718233 88.795 -85.3346
4.752424 88.794 -85.7805
4.786862 88.787 -86.1986
4.821549 88.774 -86.5897
4.856488 88.756 -86.9554
4.891680 88.732 -87.2961
4.927127 88.704 -87.6115
4.962831 88.673 -87.9000
4.998794 88.639 -88.1592
5.035017 88.604 -88.3863
5.071503 88.569 -88.5778
5.108253 88.533 -88.7307
5.145270 88.498 -88.8424
5.182555 88.463 -88.9119
5.220110 88.429 -88.9399
5.257937 88.396 -88.9293
5.296038 88.364 -88.8842
5.334415 88.335 -88.8100
5.373071 88.309 -88.7122
5.412006 88.288 -88.5957
5.451224 88.274 -88.4643
5.490725 88.265 -88.3201
5.530514 88.264 -88.1640
5.570590 88.270 -87.9976
5.610957 88.282 -87.8243
5.651616 88.301 -87.6502
5.692570 88.325 -87.4831
5.733821 88.356 -87.3319
5.775370 88.392 -87.2054
5.817221 88.433 -87.1103
5.859375 88.480 -87.0515
5.901834 88.532 -87.0310
5.944602 88.589 -87.0496
5.987679 88.651 -87.1079
6.031068 88.716 -87.2069
6.074771 88.784 -87.3488
6.118792 88.853 -87.5358
6.163131 88.922 -87.7706
6.207792 88.990 -88.0551
6.252776 89.057 -88.3902
6.298086 89.123 -88.7753
6.343725 89.188 -89.2078
6.389694 89.250 -89.6838
6.435996 89.310 -90.1984
6.482634 89.366 -90.7472
6.529610 89.419 -91.3267
6.576926 89.467 -91.9347
6.624585 89.510 -92.5698
6.672590 89.549 -93.2309
6.720942 89.583 -93.9153
6.769645 89.612 -94.6183
6.818700 89.637 -95.3339
6.868111 89.657 -96.0559
6.917881 89.673 -96.7793
6.968010 89.685 -97.5004
7.018504 89.693 -98.2175
7.069362 89.697 -98.9291
7.120590 89.697 -99.6330
7.172189 89.695 -100.3259
7.224161 89.691 -101.0037
7.276511 89.686 -101.6622
7.329239 89.680 -102.2984
7.382350 89.673 -102.9106
7.435845 89.667 -103.4984
7.489729 89.662 -104.0627
7.544002 89.658 -104.6044
7.598669 89.657 -105.1244
7.653732 89.659 -105.6234
7.709194 89.666 -106.1019
7.765058 89.676 -106.5607
7.821327 89.692 -107.0023
7.878004 89.712 -107.4303
7.935091 89.737 -107.8493
7.992592 89.768 -108.2638
8.050510 89.804 -108.6777
8.108847 89.846 -109.0936
8.167607 89.894 -109.5137
8.226793 89.946 -109.9408
8.286408 90.003 -110.3777
8.346454 90.064 -110.8279
8.406936 90.129 -111.2939
8.467856 90.196 -111.7774
8.529218 90.266 -112.2785
8.591024 90.338 -112.7966
8.653278 90.411 -113.3306
8.715983 90.485 -113.8795
8.779143 90.558 -114.4422
8.842760 90.631 -115.0172
8.906839 90.703 -115.6024
8.971381 90.774 -116.1950
9.036392 90.843 -116.7911
9.101873 90.910 -117.3873
9.167829 90.975 -117.9804
9.234263 91.038 -118.5678
9.301178 91.099 -119.1471
9.368578 91.158 -119.7154
9.436467 91.215 -120.2697
9.504847 91.271 -120.8072
9.573723 91.325 -121.3262
9.643099 91.378 -121.8254
9.712976 91.428 -122.3043
9.783361 91.477 -122.7625
9.854255 91.524 -123.1999
9.925663 91.569 -123.6166
9.997588 91.612 -124.0135
10.070035 91.654 -124.3918
10.143007 91.694 -124.7534
10.216507 91.734 -125.1004
10.290540 91.773 -125.4345
10.365109 91.812 -125.7575
10.440219 91.851 -126.0713
10.515873 91.890 -126.3778
10.592076 91.928 -126.6789
10.668830 91.967 -126.9760
10.746141 92.005 -127.2702
10.824012 92.043 -127.5620
10.902447 92.080 -127.8520
10.981451 92.116 -128.1403
11.061027 92.150 -128.4271
11.141180 92.183 -128.7119
11.221913 92.215 -128.9944
11.303232 92.245 -129.2738
11.385140 92.273 -129.5497
11.467641 92.299 -129.8214
11.550741 92.323 -130.0887
11.634442 92.346 -130.3513
11.718750 92.368 -130.6091
11.803669 92.389 -130.8622
11.889203 92.408 -131.1110
11.975357 92.427 -131.3562
12.062136 92.444 -131.5986
12.149543 92.461 -131.8390
12.237583 92.477 -132.0785
12.326262 92.492 -132.3181
12.415583 92.505 -132.5588
12.505552 92.518 -132.8014
12.596172 92.529 -133.0468
12.687449 92.538 -133.2953
12.779387 92.546 -133.5473
12.871992 92.552 -133.8030
12.965268 92.557 -134.0624
13.059220 92.560 -134.3251
13.153852 92.561 -134.5909
13.249170 92.561 -134.8595
13.345179 92.560 -135.1306
13.441884 92.559 -135.4042
13.539289 92.556 -135.6803
13.637401 92.553 -135.9593
13.736223 92.549 -136.2417
13.835761 92.545 -136.5284
13.936021 92.541 -136.8206
14.037007 92.538 -137.1194
14.138725 92.534 -137.4262
14.241180 92.530 -137.7425
14.344377 92.526 -138.0694
14.448323 92.523 -138.4081
14.553021 92.519 -138.7592
14.658478 92.515 -139.1231
14.764700 92.511 -139.4996
14.871691 92.507 -139.8882
14.979457 92.503 -140.2878
15.088005 92.498 -140.6971
15.197339 92.493 -141.1145
15.307465 92.488 -141.5381
15.418389 92.483 -141.9662
15.530117 92.477 -142.3971
15.642655 92.472 -142.8295
15.756008 92.468 -143.2621
15.870182 92.464 -143.6945
15.985184 92.462 -144.1262
16.101019 92.462 -144.5574
16.217694 92.462 -144.9886
16.335214 92.465 -145.4204
16.453586 92.470 -145.8533
16.572815 92.477 -146.2880
16.692909 92.485 -146.7248
16.813872 92.496 -147.1635
16.935713 92.507 -147.6038
17.058436 92.520 -148.0448
17.182048 92.534 -148.4850
17.306556 92.549 -148.9230
17.431967 92.564 -149.3570
17.558286 92.580 -149.7850
17.685521 92.595 -150.2055
17.813677 92.611 -150.6169
17.942762 92.627 -151.0181
18.072783 92.644 -151.4084
18.203746 92.661 -151.7876
18.335658 92.678 -152.1558
18.468526 92.696 -152.5135
18.602356 92.714 -152.8613
18.737156 92.732 -153.2000
18.872934 92.751 -153.5302
19.009695 92.770 -153.8526
19.147447 92.788 -154.1675
19.286197 92.806 -154.4751
19.425953 92.823 -154.7757
19.566721 92.840 -155.0692
19.708510 92.855 -155.3557
19.851326 92.869 -155.6356
19.995177 92.881 -155.9092
20.140070 92.892 -156.1770
20.286013 92.902 -156.4399
20.433014 92.911 -156.6989
20.581080 92.918 -156.9548
20.730219 92.924 -157.2088
20.880439 92.928 -157.4615
21.031747 92.931 -157.7140
21.184152 92.933 -157.9666
21.337661 92.933 -158.2200
21.492282 92.933 -158.4746
21.648024 92.930 -158.7309
21.804895 92.927 -158.9894
21.962902 92.923 -159.2509
22.122054 92.917 -159.5161
22.282360 92.911 -159.7859
22.443827 92.904 -160.0611
22.606464 92.897 -160.3423
22.770280 92.888 -160.6299
22.935283 92.880 -160.9240
23.101481 92.871 -161.2244
23.268884 92.862 -161.5305
23.437500 92.852 -161.8420
23.607338 92.843 -162.1584
23.778406 92.835 -162.4795
23.950714 92.827 -162.8056
24.124271 92.820 -163.1373
24.299086 92.815 -163.4756
24.475167 92.811 -163.8216
24.652524 92.809 -164.1762
24.831166 92.807 -164.5397
25.011103 92.807 -164.9119
25.192344 92.806 -165.2915
25.374898 92.807 -165.6764
25.558775 92.807 -166.0637
25.743984 92.806 -166.4501
25.930536 92.806 -166.8321
26.118439 92.805 -167.2066
26.307704 92.804 -167.5711
26.498341 92.803 -167.9239
26.690359 92.803 -168.2643
26.883768 92.803 -168.5924
27.078579 92.804 -168.9091
27.274801 92.805 -169.2157
27.472446 92.807 -169.5136
27.671522 92.809 -169.8041
27.872042 92.811 -170.0883
28.074014 92.812 -170.3670
28.277450 92.813 -170.6405
28.482360 92.812 -170.9092
28.688755 92.811 -171.1730
28.896645 92.808 -171.4322
29.106042 92.804 -171.6870
29.316957 92.798 -171.9379
29.529400 92.792 -172.1858
29.743382 92.785 -172.4318
29.958915 92.776 -172.6774
30.176009 92.767 -172.9239
30.394677 92.758 -173.1729
30.614929 92.747 -173.4256
30.836778 92.736 -173.6829
31.060234 92.723 -173.9454
31.285309 92.711 -174.2132
31.512015 92.697 -174.4862
31.740364 92.683 -174.7644
31.970368 92.669 -175.0477
32.202039 92.655 -175.3358
32.435388 92.640 -175.6291
32.670428 92.626 -175.9273
32.907171 92.613 -176.2305
33.145630 92.599 -176.5381
33.385817 92.586 -176.8494
33.627745 92.574 -177.1632
33.871425 92.561 -177.4783
34.116871 92.549 -177.7932
34.364096 92.537 -178.1063
34.613113 92.526 -178.4165
34.863934 92.514 -178.7226
35.116572 92.503 -179.0237
35.371041 92.492 -179.3192
35.627354 92.481 -179.6089
35.885525 92.470 -179.8924
36.145566 92.458 179.8303
36.407492 92.447 179.5590
36.671316 92.435 179.2938
36.937051 92.422 179.0348
37.204712 92.409 178.7817
37.474313 92.395 178.5344
37.745867 92.380 178.2923
38.019389 92.365 178.0544
38.294893 92.350 177.8198
38.572394 92.333 177.5875
38.851905 92.317 177.3569
39.133442 92.300 177.1277
39.417019 92.282 176.8998
39.702651 92.264 176.6728
39.990353 92.247 176.4456
40.280140 92.230 176.2166
40.572026 92.213 175.9838
40.866028 92.197 175.7458
41.162160 92.180 175.5020
41.460438 92.164 175.2535
41.760877 92.147 175.0020
42.063494 92.130 174.7497
42.368303 92.113 174.4984
42.675322 92.096 174.2486
42.984565 92.079 174.0001
43.296048 92.062 173.7526
43.609789 92.045 173.5058
43.925804 92.028 173.2604
44.244108 92.010 173.0171
44.564719 91.993 172.7762
44.887654 91.975 172.5369
45.212928 91.958 172.2975
45.540560 91.940 172.0563
45.870565 91.921 171.8126
46.202962 91.902 171.5676
46.537768 91.881 171.3237
46.875000 91.859 171.0836
47.214676 91.836 170.8489
47.556813 91.814 170.6194
47.901429 91.791 170.3932
48.248542 91.769 170.1682
48.598171 91.747 169.9435
48.950334 91.725 169.7197
49.305048 91.702 169.4985
49.662333 91.680 169.2816
50.022206 91.658 169.0690
50.384688 91.636 168.8598
50.749796 91.614 168.6517
51.117550 91.592 168.4431
51.487969 91.571 168.2336
51.861072 91.548 168.0239
52.236879 91.525 167.8156
52.615409 91.501 167.6097
52.996681 91.477 167.4069
53.380717 91.452 167.2070
53.767536 91.427 167.0097
54.157158 91.401 166.8146
54.549603 91.376 166.6211
54.944892 91.352 166.4281
55.343045 91.327 166.2338
55.744084 91.304 166.0363
56.148028 91.281 165.8345
56.554900 91.258 165.6280
56.964720 91.235 165.4177
57.377510 91.212 165.2047
57.793291 91.189 164.9905
58.212085 91.166 164.7762
58.633914 91.142 164.5632
59.058799 91.118 164.3529
59.486764 91.093 164.1474
59.917829 91.067 163.9480
60.352019 91.040 163.7550
60.789354 91.013 163.5670
61.229859 90.986 163.3814
61.673556 90.958 163.1956
62.120468 90.930 163.0079
62.570618 90.900 162.8187
63.024031 90.868 162.6302
63.480729 90.835 162.4453
63.940736 90.801 162.2660
64.404077 90.768 162.0924
64.870776 90.734 161.9230
65.340856 90.701 161.7557
65.814343 90.668 161.5898
66.291261 90.636 161.4261
66.771635 90.604 161.2653
67.255489 90.573 161.1071
67.742850 90.542 160.9505
68.233743 90.513 160.7943
68.728193 90.483 160.6378
69.226226 90.453 160.4814
69.727867 90.424 160.3256
70.233144 90.394 160.1703
70.742083 90.364 160.0154
71.254709 90.334 159.8608
71.771050 90.303 159.7062
72.291132 90.272 159.5509
72.814984 90.241 159.3944
73.342631 90.209 159.2374
73.874102 90.177 159.0816
74.409424 90.144 158.9294
74.948626 90.111 158.7822
75.491734 90.078 158.6393
76.038779 90.046 158.4988
76.589787 90.014 158.3588
77.144788 89.982 158.2191
77.703811 89.950 158.0803
78.266885 89.919 157.9430
78.834039 89.888 157.8066
79.405303 89.857 157.6688
79.980706 89.827 157.5262
80.560280 89.798 157.3761
81.144053 89.767 157.2180
81.732056 89.736 157.0537
82.324320 89.702 156.8868
82.920876 89.667 156.7203
83.521755 89.631 156.5568
84.126988 89.593 156.3975
84.736607 89.553 156.2437
85.350643 89.512 156.0970
85.969129 89.470 155.9592
86.592097 89.427 155.8318
87.219579 89.384 155.7155
87.851608 89.341 155.6104
88.488217 89.299 155.5159
89.129439 89.257 155.4304
89.775308 89.217 155.3510
90.425856 89.178 155.2746
91.081119 89.139 155.1996
91.741131 89.100 155.1254
92.405925 89.060 155.0529
93.075536 89.020 154.9827
93.750000 88.980 154.9148
94.429351 88.940 154.8491
95.113625 88.899 154.7855
95.802858 88.859 154.7249
96.497085 88.819 154.6673
97.196342 88.781 154.6127
97.900667 88.743 154.5608
98.610096 88.706 154.5125
99.324665 88.670 154.4689
100.044413 88.635 154.4304
100.769376 88.600 154.3960
101.499592 88.565 154.3646
102.235100 88.530 154.3355
102.975938 88.495 154.3079
103.722144 88.459 154.2805
104.473757 88.423 154.2524
105.230817 88.388 154.2228
105.993363 88.352 154.1905
106.761435 88.317 154.1527
107.535072 88.283 154.1067
108.314315 88.248 154.0520
109.099206 88.213 153.9897
109.889783 88.177 153.9191
110.686090 88.140 153.8374
111.488167 88.103 153.7409
112.296056 88.064 153.6275
113.109800 88.025 153.4979
113.929440 87.984 153.3561
114.755020 87.944 153.2082
115.586582 87.904 153.0609
116.424170 87.866 152.9212
117.267827 87.828 152.7963
118.117598 87.790 152.6939
118.973527 87.751 152.6251
119.835658 87.710 152.6056
120.704037 87.668 152.6459
121.578708 87.627 152.7377
122.459718 87.587 152.8562
123.347111 87.550 152.9758
124.240935 87.512 153.0796
125.141236 87.474 153.1606
126.048061 87.435 153.2186
126.961458 87.396 153.2576
127.881473 87.356 153.2826
128.808154 87.317 153.2988
129.741551 87.278 153.3098
130.681712 87.240 153.3161
131.628686 87.202 153.3154
132.582521 87.164 153.3047
133.543269 87.125 153.2849
134.510979 87.084 153.2626
135.485701 87.043 153.2449
136.467486 87.002 153.2350
137.456386 86.961 153.2328
138.452451 86.921 153.2389
139.455735 86.881 153.2543
140.466288 86.841 153.2797
141.484165 86.800 153.3133
142.509418 86.759 153.3519
143.542100 86.717 153.3919
144.582265 86.675 153.4301
145.629968 86.633 153.4632
146.685262 86.592 153.4899
147.748204 86.550 153.5115
148.818849 86.509 153.5327
149.897251 86.466 153.5608
150.983469 86.421 153.6033
152.077557 86.375 153.6674
153.179574 86.328 153.7563
154.289576 86.281 153.8677
155.407622 86.235 153.9942
156.533770 86.190 154.1286
157.668078 86.145 154.2659
158.810606 86.103 154.4020
159.961413 86.061 154.5330
161.120559 86.022 154.6561
162.288105 85.984 154.7715
163.464112 85.946 154.8815
164.648640 85.910 154.9903
165.841752 85.875 155.1027
167.043510 85.841 155.2211
168.253976 85.808 155.3428
169.473213 85.778 155.4630
170.701286 85.750 155.5778
171.938258 85.723 155.6844
173.184194 85.697 155.7809
174.439158 85.671 155.8663
175.703216 85.644 155.9399
176.976434 85.616 156.0007
178.258878 85.587 156.0477
179.550615 85.556 156.0817
180.851713 85.525 156.1035
182.162239 85.494 156.1152
183.482262 85.463 156.1230
184.811850 85.430 156.1387
186.151073 85.397 156.1772
187.500000 85.361 156.2488
188.858702 85.324 156.3508
190.227250 85.286 156.4692
191.605715 85.248 156.5883
192.994169 85.210 156.6988
194.392685 85.171 156.7999
195.801334 85.133 156.8965
197.220191 85.095 156.9951
198.649330 85.058 157.1010
200.088825 85.021 157.2161
201.538751 84.985 157.3393
202.999184 84.949 157.4677
204.470200 84.915 157.5973
205.951875 84.882 157.7243
207.444287 84.850 157.8458
208.947514 84.817 157.9611
210.461634 84.784 158.0724
211.986726 84.748 158.1844
213.522869 84.711 158.3031
215.070144 84.673 158.4346
216.628631 84.633 158.5829
218.198411 84.593 158.7481
219.779567 84.553 158.9257
221.372180 84.516 159.1082
222.976334 84.480 159.2876
224.592112 84.446 159.4588
226.219600 84.412 159.6212
227.858880 84.380 159.7779
229.510039 84.347 159.9346
231.173164 84.314 160.0958
232.848340 84.282 160.2633
234.535655 84.250 160.4357
236.235197 84.217 160.6089
237.947054 84.185 160.7784
239.671317 84.152 160.9407
241.408074 84.119 161.0963
243.157416 84.084 161.2487
244.919435 84.049 161.4039
246.694223 84.012 161.5683
248.481871 83.975 161.7473
250.282473 83.939 161.9445
252.096123 83.903 162.1605
253.922915 83.869 162.3921
255.762945 83.837 162.6315
257.616309 83.809 162.8681
259.483103 83.783 163.0920
261.363424 83.759 163.2985
263.257372 83.734 163.4891
265.165043 83.708 163.6706
267.086538 83.680 163.8511
269.021957 83.651 164.0380
270.971401 83.621 164.2364
272.934972 83.592 164.4480
274.912771 83.564 164.6713
276.904902 83.538 164.9034
278.911469 83.514 165.1410
280.932577 83.491 165.3810
282.968330 83.471 165.6194
285.018835 83.454 165.8512
287.084199 83.438 166.0699
289.164530 83.422 166.2697
291.259935 83.406 166.4488
293.370525 83.388 166.6115
295.496408 83.367 166.7672
297.637697 83.344 166.9258
299.794503 83.318 167.0942
301.966937 83.292 167.2747
304.155114 83.264 167.4659
306.359147 83.237 167.6650
308.579152 83.211 167.8688
310.815244 83.184 168.0745
313.067539 83.158 168.2811
315.336156 83.131 168.4900
317.621211 83.103 168.7056
319.922826 83.075 168.9320
322.241118 83.047 169.1709
324.576210 83.020 169.4200
326.928223 82.994 169.6755
329.297280 82.969 169.9338
331.683504 82.946 170.1923
334.087019 82.924 170.4489
336.507952 82.902 170.7021
338.946427 82.880 170.9506
341.402572 82.858 171.1952
343.876516 82.835 171.4380
346.368387 82.812 171.6818
348.878315 82.789 171.9286
351.406431 82.765 172.1801
353.952867 82.742 172.4366
356.517756 82.719 172.6974
359.101230 82.696 172.9610
361.703426 82.674 173.2263
364.324478 82.652 173.4930
366.964523 82.631 173.7616
369.623699 82.609 174.0322
372.302145 82.589 174.3051
375.000000 82.569 174.5801
377.717405 82.549 174.8573
380.454501 82.530 175.1367
383.211431 82.512 175.4181
385.988339 82.494 175.7018
388.785369 82.475 175.9880
391.602668 82.458 176.2774
394.440383 82.440 176.5697
397.298660 82.423 176.8638
400.177650 82.407 177.1579
403.077502 82.391 177.4501
405.998368 82.377 177.7393
408.940400 82.362 178.0256
411.903750 82.347 178.3114
414.888575 82.331 178.5999
417.895028 82.314 178.8947
420.923268 82.298 179.1987
423.973452 82.282 179.5132
427.045738 82.268 179.8371
430.140287 82.256 -179.8338
433.257261 82.246 -179.5054
436.396822 82.238 -179.1818
439.559133 82.230 -178.8641
442.744360 82.224 -178.5520
445.952668 82.219 -178.2464
449.184225 82.216 -177.9510
452.439199 82.213 -177.6711
455.717760 82.209 -177.4103
459.020079 82.204 -177.1653
462.346327 82.196 -176.9260
465.696680 82.185 -176.6808
469.071310 82.173 -176.4222
472.470394 82.160 -176.1484
475.894109 82.147 -175.8615
479.342634 82.135 -175.5663
482.816148 82.123 -175.2681
486.314833 82.110 -174.9693
489.838871 82.097 -174.6668
493.388445 82.083 -174.3537
496.963741 82.070 -174.0262
500.564945 82.058 -173.6874
504.192245 82.048 -173.3452
507.845830 82.040 -173.0064
511.525890 82.033 -172.6742
515.232618 82.026 -172.3474
518.966206 82.018 -172.0221
522.726849 82.010 -171.6936
526.514743 82.001 -171.3568
530.330086 81.994 -171.0088
534.173076 81.987 -170.6513
538.043915 81.982 -170.2892
541.942803 81.978 -169.9258
545.869944 81.974 -169.5621
549.825542 81.972 -169.1980
553.809805 81.970 -168.8353
557.822939 81.970 -168.4764
561.865154 81.970 -168.1229
565.936660 81.970 -167.7735
570.037671 81.970 -167.4249
574.168399 81.970 -167.0736
578.329060 81.970 -166.7180
582.519870 81.970 -166.3594
586.741049 81.969 -165.9984
590.992817 81.969 -165.6324
595.275394 81.969 -165.2578
599.589005 81.970 -164.8743
603.933874 81.972 -164.4861
608.310228 81.976 -164.0982
612.718295 81.980 -163.7130
617.158304 81.983 -163.3280
621.630488 81.987 -162.9369
626.135079 81.991 -162.5328
630.672311 81.997 -162.1136
635.242423 82.005 -161.6841
639.845651 82.015 -161.2512
644.482237 82.027 -160.8172
649.152421 82.042 -160.3812
653.856447 82.059 -159.9444
658.594560 82.079 -159.5134
663.367008 82.101 -159.0986
668.174039 82.125 -158.7082
673.015903 82.149 -158.3417
677.892854 82.171 -157.9912
682.805145 82.192 -157.6473
687.753032 82.210 -157.3024
692.736774 82.227 -156.9508
697.756631 82.243 -156.5882
702.812863 82.259 -156.2137
707.905735 82.275 -155.8302
713.035511 82.292 -155.4422
718.202461 82.311 -155.0534
723.406852 82.330 -154.6642
728.648956 82.350 -154.2731
733.929047 82.371 -153.8784
739.247399 82.393 -153.4799
744.604290 82.415 -153.0776
750.000000 82.438 -152.6713
755.434809 82.461 -152.2606
760.909001 82.486 -151.8457
766.422861 82.511 -151.4277
771.976677 82.538 -151.0075
777.570739 82.566 -150.5862
783.205337 82.595 -150.1642
788.880766 82.625 -149.7405
794.597321 82.656 -149.3129
800.355301 82.690 -148.8794
806.155005 82.726 -148.4412
811.996736 82.765 -148.0036
817.880799 82.808 -147.5747
823.807501 82.855 -147.1637
829.777150 82.904 -146.7788
835.790057 82.952 -146.4223
841.846536 83.000 -146.0879
847.946903 83.046 -145.7650
854.091476 83.090 -145.4453
860.280575 83.133 -145.1246
866.514523 83.174 -144.7998
872.793644 83.216 -144.4679
879.118267 83.258 -144.1286
885.488720 83.300 -143.7857
891.905336 83.344 -143.4430
898.368450 83.389 -143.1011
904.878398 83.434 -142.7576
911.435520 83.481 -142.4114
918.040157 83.530 -142.0642
924.692655 83.581 -141.7190
931.393359 83.634 -141.3795
938.142619 83.688 -141.0497
944.940787 83.744 -140.7316
951.788218 83.799 -140.4237
958.685268 83.856 -140.1233
965.632296 83.912 -139.8274
972.629666 83.969 -139.5335
979.677741 84.027 -139.2410
986.776890 84.085 -138.9506
993.927482 84.145 -138.6607
1001.129891 84.205 -138.3663
1008.384491 84.267 -138.0634
1015.691660 84.331 -137.7535
1023.051781 84.398 -137.4427
1030.465236 84.470 -137.1388
1037.932411 84.546 -136.8527
1045.453698 84.624 -136.5960
1053.029486 84.704 -136.3736
1060.660172 84.782 -136.1817
1068.346153 84.859 -136.0110
1076.087829 84.934 -135.8518
1083.885605 85.008 -135.6971
1091.739887 85.081 -135.5442
1099.651084 85.154 -135.3924
1107.619609 85.227 -135.2410
1115.645878 85.301 -135.0892
1123.730308 85.375 -134.9369
1131.873321 85.451 -134.7847
1140.075341 85.528 -134.6345
1148.336797 85.607 -134.4888
1156.658119 85.689 -134.3505
1165.039741 85.772 -134.2216
1173.482099 85.858 -134.1028
1181.985634 85.946 -133.9957
1190.550789 86.037 -133.9057
1199.178011 86.132 -133.8420
1207.867749 86.228 -133.8143
1216.620457 86.324 -133.8262
1225.436590 86.418 -133.8728
1234.316609 86.510 -133.9446
1243.260976 86.598 -134.0323
1252.270157 86.684 -134.1279
1261.344623 86.767 -134.2275
1270.484846 86.849 -134.3298
1279.691303 86.930 -134.4336
1288.964474 87.011 -134.5378
1298.304842 87.091 -134.6428
1307.712894 87.173 -134.7516
1317.189120 87.255 -134.8687
1326.734016 87.337 -134.9971
1336.348077 87.420 -135.1368
1346.031806 87.504 -135.2857
1355.785708 87.588 -135.4409
1365.610290 87.674 -135.5995
1375.506065 87.760 -135.7577
1385.473549 87.849 -135.9111
1395.513261 87.941 -136.0588
1405.625726 88.036 -136.2064
1415.811469 88.136 -136.3663
1426.071023 88.239 -136.5535
1436.404921 88.344 -136.7776
1446.813703 88.448 -137.0396
1457.297912 88.551 -137.3346
1467.858093 88.652 -137.6567
1478.494798 88.750 -138.0017
1489.208581 88.845 -138.3666
1500.000000 88.936 -138.7490
1510.869618 89.022 -139.1462
1521.818002 89.103 -139.5563
1532.845723 89.179 -139.9777
1543.953355 89.250 -140.4096
1555.141477 89.318 -140.8522
1566.410674 89.384 -141.3096
1577.761531 89.450 -141.7922
1589.194642 89.516 -142.3125
1600.710601 89.580 -142.8785
1612.310010 89.640 -143.4901
1623.993473 89.695 -144.1413
1635.761599 89.745 -144.8242
1647.615002 89.789 -145.5322
1659.554299 89.827 -146.2594
1671.580114 89.861 -147.0011
1683.693072 89.889 -147.7550
1695.893807 89.913 -148.5210
1708.182952 89.930 -149.2995
1720.561150 89.942 -150.0883
1733.029045 89.947 -150.8826
1745.587288 89.943 -151.6750
1758.236533 89.933 -152.4566
1770.977440 89.918 -153.2199
1783.810673 89.898 -153.9636
1796.736900 89.877 -154.6949
1809.756796 89.854 -155.4266
1822.871040 89.830 -156.1685
1836.080315 89.802 -156.9243
1849.385310 89.770 -157.6918
1862.786718 89.732 -158.4665
1876.285239 89.690 -159.2424
1889.881575 89.643 -160.0125
1903.576436 89.592 -160.7690
1917.370535 89.539 -161.5044
1931.264593 89.485 -162.2128
1945.259332 89.431 -162.8927
1959.355483 89.379 -163.5504
1973.553781 89.328 -164.1967
1987.854965 89.277 -164.8400
2002.259781 89.223 -165.4819
2016.768981 89.165 -166.1185
2031.383320 89.103 -166.7437
2046.103561 89.036 -167.3513
2060.930471 88.965 -167.9376
2075.864823 88.890 -168.5033
2090.907395 88.811 -169.0520
2106.058972 88.728 -169.5869
2121.320344 88.639 -170.1069
2136.692305 88.544 -170.6057
2152.175658 88.441 -171.0723
2167.771210 88.331 -171.4967
2183.479774 88.214 -171.8734
2199.302169 88.092 -172.1996
2215.239219 87.964 -172.4687
2231.291755 87.831 -172.6695
2247.460615 87.695 -172.7884
2263.746641 87.557 -172.8118
2280.150683 87.420 -172.7297
2296.673595 87.289 -172.5379
2313.316238 87.169 -172.2429
2330.079481 87.064 -171.8651
2346.964198 86.978 -171.4416
2363.971268 86.911 -171.0180
2381.101578 86.862 -170.6361
2398.356022 86.826 -170.3255
2415.735498 86.799 -170.1004
2433.240913 86.775 -169.9619
2450.873180 86.752 -169.9021
2468.633217 86.726 -169.9096
2486.521951 86.696 -169.9701
2504.540314 86.659 -170.0672
2522.689246 86.615 -170.1830
2540.969692 86.565 -170.3011
2559.382606 86.510 -170.4135
2577.928947 86.453 -170.5219
2596.609683 86.393 -170.6312
2615.425787 86.330 -170.7436
2634.378241 86.262 -170.8563
2653.468031 86.190 -170.9609
2672.696154 86.114 -171.0459
2692.063613 86.034 -171.0993
2711.571415 85.954 -171.1156
2731.220579 85.876 -171.1017
2751.012130 85.802 -171.0767
2770.947098 85.733 -171.0648
2791.026522 85.666 -171.0889
2811.251451 85.600 -171.1665
2831.622938 85.531 -171.3078
2852.142045 85.453 -171.5138
2872.809842 85.361 -171.7726
2893.627406 85.250 -172.0553
2914.595823 85.118 -172.3160
2935.716186 84.963 -172.4997
2956.989596 84.788 -172.5548
2978.417161 84.598 -172.4412
3000.000000 84.402 -172.1343
3021.739237 84.206 -171.6279
3043.636005 84.019 -170.9339
3065.691446 83.847 -170.0799
3087.906710 83.695 -169.1046
3110.282955 83.566 -168.0541
3132.821347 83.460 -166.9765
3155.523062 83.374 -165.9117
3178.389283 83.303 -164.8844
3201.421202 83.244 -163.9030
3224.620020 83.193 -162.9638
3247.986946 83.147 -162.0574
3271.523198 83.105 -161.1706
3295.230004 83.065 -160.2877
3319.108599 83.028 -159.3941
3343.160228 82.998 -158.4844
3367.386145 82.975 -157.5633
3391.787613 82.959 -156.6415
3416.365904 82.952 -155.7296
3441.122300 82.952 -154.8328
3466.058091 82.957 -153.9487
3491.174576 82.968 -153.0728
3516.473066 82.986 -152.2042
3541.954880 83.010 -151.3475
3567.621345 83.040 -150.5098
3593.473800 83.076 -149.6977
3619.513592 83.117 -148.9166
3645.742080 83.161 -148.1684
3672.160630 83.207 -147.4492
3698.770620 83.255 -146.7488
3725.573436 83.304 -146.0587
3752.570477 83.356 -145.3770
3779.763150 83.410 -144.7072
3807.152872 83.467 -144.0531
3834.741071 83.526 -143.4127
3862.529185 83.586 -142.7785
3890.518664 83.649 -142.1441
3918.710966 83.717 -141.5115
3947.107561 83.792 -140.8910
3975.709929 83.875 -140.2986
4004.519563 83.966 -139.7527
4033.537962 84.064 -139.2705
4062.766641 84.166 -138.8619
4092.207123 84.270 -138.5278
4121.860942 84.374 -138.2660
4151.729646 84.476 -138.0752
4181.814790 84.575 -137.9540
4212.117944 84.668 -137.8951
4242.640687 84.755 -137.8819
4273.384610 84.833 -137.8929
4304.351317 84.905 -137.9100
4335.542421 84.974 -137.9233
4366.959549 85.041 -137.9329
4398.604338 85.108 -137.9489
4430.478438 85.178 -137.9872
4462.583511 85.250 -138.0624
4494.921231 85.323 -138.1848
4527.493283 85.396 -138.3636
4560.301365 85.467 -138.6079
4593.347189 85.535 -138.9235
4626.632476 85.595 -139.3072
4660.158962 85.647 -139.7481
4693.928395 85.690 -140.2332
4727.942535 85.722 -140.7522
4762.203156 85.745 -141.2990
4796.712043 85.758 -141.8709
4831.470996 85.761 -142.4650
4866.481826 85.754 -143.0734
4901.746360 85.735 -143.6865
4937.266434 85.705 -144.2993
4973.043902 85.665 -144.9121
5009.080628 85.612 -145.5247
5045.378492 85.545 -146.1309
5081.939384 85.464 -146.7189
5118.765212 85.366 -147.2744
5155.857894 85.250 -147.7826
5193.219366 85.117 -148.2278
5230.851574 84.964 -148.5878
5268.756481 84.791 -148.8276
5306.936062 84.597 -148.8982
5345.392309 84.385 -148.7399
5384.127225 84.161 -148.2857
5423.142830 83.937 -147.4696
5462.441159 83.731 -146.2522
5502.024259 83.566 -144.6595
5541.894195 83.463 -142.8138
5582.053045 83.435 -140.9260
5622.502902 83.477 -139.2316
5663.245876 83.567 -137.9036
5704.284090 83.678 -137.0040
5745.619684 83.783 -136.4926
5787.254813 83.863 -136.2671
5829.191647 83.910 -136.2024
5871.432373 83.922 -136.1799
5913.979192 83.903 -136.1039
5956.834323 83.861 -135.9091
6000.000000 83.806 -135.5604
6043.478473 83.747 -135.0468
6087.272010 83.691 -134.3749
6131.382892 83.645 -133.5660
6175.813420 83.614 -132.6500
6220.565910 83.599 -131.6564
6265.642695 83.602 -130.6102
6311.046124 83.623 -129.5340
6356.778566 83.663 -128.4512
6402.842404 83.719 -127.3855
6449.240040 83.790 -126.3545
6495.973891 83.873 -125.3665
6543.046396 83.966 -124.4202
6590.460007 84.067 -123.5066
6638.217197 84.177 -122.6110
6686.320456 84.294 -121.7168
6734.772290 84.422 -120.8122
6783.575226 84.564 -119.8945
6832.731809 84.722 -118.9688
6882.244600 84.899 -118.0474
6932.116181 85.095 -117.1495
6982.349153 85.313 -116.2970
7032.946133 85.553 -115.5103
7083.909760 85.817 -114.8073
7135.242690 86.107 -114.2072
7186.947600 86.424 -113.7333
7239.027185 86.771 -113.4152
7291.484160 87.147 -113.2907
7344.321260 87.552 -113.4062
7397.541239 87.983 -113.8115
7451.146872 88.437 -114.5551
7505.140954 88.908 -115.6824
7559.526299 89.388 -117.2372
7614.305743 89.867 -119.2591
7669.482141 90.334 -121.7813
7725.058371 90.775 -124.8260
7781.037328 91.171 -128.3953
7837.421932 91.504 -132.4613
7894.215122 91.756 -136.9606
7951.419859 91.911 -141.7958
8009.039125 91.958 -146.8410
8067.075924 91.892 -151.9523
8125.533282 91.712 -156.9820
8184.414245 91.424 -161.7911
8243.721885 91.036 -166.2563
8303.459292 90.560 -170.2737
8363.629581 90.011 -173.7612
8424.235888 89.403 -176.6561
8485.281374 88.753 -178.9148
8546.769221 88.079 179.4856
8608.702634 87.400 178.5458
8671.084842 86.736 178.2414
8733.919097 86.103 178.5159
8797.208675 85.520 179.2788
8860.956876 84.998 -179.5857
8925.167022 84.543 -178.2019
8989.842461 84.153 -176.6813
9054.986566 83.822 -175.1044
9120.602731 83.540 -173.5120
9186.694378 83.298 -171.9090
9253.264952 83.091 -170.2754
9320.317925 82.917 -168.5853
9387.856790 82.777 -166.8230
9455.885071 82.676 -164.9882
9524.406312 82.617 -163.0924
9593.424086 82.606 -161.1541
9662.941992 82.648 -159.1961
9732.963653 82.748 -157.2524
9803.492719 82.911 -155.3730
9874.532869 83.141 -153.6211
9946.087805 83.437 -152.0667
10018.161257 83.800 -150.7810
10090.756983 84.227 -149.8392
10163.878768 84.714 -149.3288
10237.530423 85.254 -149.3509
10311.715789 85.830 -150.0091
10386.438732 86.422 -151.3882
10461.703149 87.007 -153.5347
10537.512962 87.559 -156.4500
10613.872125 88.054 -160.0975
10690.784618 88.471 -164.4113
10768.254450 88.788 -169.3002
10846.285661 88.986 -174.6392
10924.882318 89.047 179.7364
11004.048518 88.961 174.0264
11083.788390 88.728 168.4495
11164.106090 88.356 163.2177
11245.005805 87.862 158.5139
11326.491752 87.270 154.4747
11408.568180 86.609 151.1792
11491.239368 85.909 148.6460
11574.509626 85.200 146.8394
11658.383294 84.504 145.6873
11742.864745 83.842 145.1024
11827.958384 83.225 144.9964
11913.668646 82.663 145.2868
12000.000000 82.162 145.8974
12086.956947 81.727 146.7597
12174.544019 81.364 147.8052
12262.765784 81.080 148.9490
12351.626840 80.879 150.0743
12441.131819 80.763 151.0345
12531.285389 80.726 151.6744
12622.092249 80.753 151.8560
12713.557132 80.820 151.4792
12805.684808 80.900 150.4979
12898.480079 80.964 148.9294
12991.947783 80.983 146.8553
13086.092792 80.940 144.4042
13180.920015 80.823 141.7236
13276.434395 80.632 138.9510
13372.640911 80.371 136.1959
13469.544580 80.049 133.5334
13567.150452 79.674 131.0088
13665.463617 79.253 128.6493
13764.489200 78.791 126.4763
13864.232362 78.293 124.5110
13964.698305 77.764 122.7704
14065.892266 77.210 121.2640
14167.819519 76.633 119.9983
14270.485380 76.040 118.9838
14373.895200 75.432 118.2357
14478.054370 74.816 117.7668
14582.968320 74.194 117.5864
14688.642520 73.572 117.7048
14795.082478 72.955 118.1339
14902.293745 72.349 118.8815
15010.281908 71.763 119.9481
15119.052599 71.203 121.3277
15228.611486 70.679 123.0126
15338.964283 70.198 125.0044
15450.116741 69.770 127.3257
15562.074656 69.409 130.0127
15674.843864 69.136 133.0793
15788.430244 68.977 136.4711
15902.839718 68.957 140.0392
16018.078250 69.095 143.5581
16134.151848 69.396 146.7772
16251.066563 69.856 149.4676
16368.828491 70.463 151.4360
16487.443769 71.198 152.5034
16606.918584 72.030 152.4865
16727.259161 72.920 151.2113
16848.471777 73.817 148.5483
16970.562748 74.665 144.4433
17093.538442 75.407 138.9373
17217.405268 75.992 132.1760
17342.169684 76.376 124.4050
17467.838194 76.530 115.9514
17594.417350 76.441 107.1841
17721.913751 76.116 98.4578
17850.334044 75.578 90.0589
17979.684923 74.856 82.1815
18109.973131 73.984 74.9340
18241.205462 72.990 68.3609
18373.388756 71.898 62.4754
18506.529905 70.721 57.2955
18640.635849 69.468 52.8690
18775.713581 68.144 49.2836
18911.770141 66.755 46.6551
19048.812624 65.314 45.0879
19186.848172 63.846 44.6155
19325.883983 62.386 45.1495
19465.927305 60.984 46.4602
19606.985439 59.697 48.2070
19749.065738 58.603 50.0048
19892.175609 57.791 51.4825
20036.322514 57.355 52.3230
