* Measurement data measured by REW V5.31
* Source: EXCL: Microphone (USB Sound Device        ), MICROPHONE (Master Volume), L, volume: 0.390
* Format: 256k Log Swept Sine, 1 sweep at -15.0 dBFS with no timing reference
* Dated: Nov 29, 2024 12:53:18 AM
* REW Settings:
*  C-weighting compensation: Off
*  Target level: 75.0 dB
* Note: L SIMGOT ET142 Gold Foam 3
* Measurement: L SIMGOT ET142 Gold 3Foa
* Smoothing: 1/12 octave
* Frequency Step: 96 ppo
* Start Frequency: 0.36621094 Hz
*
* Freq(Hz)	SPL(dB)	Phase(degrees)
0.366211	83.072	159.1990
0.368865	83.065	159.1762
0.371538	83.054	159.1422
0.374230	83.042	159.0994
0.376942	83.027	159.0501
0.379673	83.011	158.9958
0.382424	82.995	158.9378
0.385196	82.978	158.8765
0.387987	82.961	158.8124
0.390798	82.944	158.7457
0.393630	82.926	158.6765
0.396483	82.909	158.6048
0.399356	82.891	158.5306
0.402250	82.873	158.4539
0.405165	82.855	158.3747
0.408101	82.837	158.2929
0.411058	82.818	158.2086
0.414037	82.800	158.1217
0.417037	82.781	158.0322
0.420059	82.763	157.9400
0.423103	82.744	157.8452
0.426169	82.725	157.7476
0.429257	82.706	157.6474
0.432368	82.686	157.5443
0.435501	82.667	157.4386
0.438656	82.647	157.3300
0.441835	82.628	157.2185
0.445037	82.608	157.1043
0.448262	82.588	156.9871
0.451510	82.568	156.8670
0.454782	82.548	156.7440
0.458077	82.527	156.6181
0.461397	82.507	156.4892
0.464740	82.486	156.3573
0.468108	82.465	156.2223
0.471500	82.444	156.0844
0.474917	82.423	155.9433
0.478358	82.402	155.7992
0.481825	82.380	155.6519
0.485316	82.359	155.5016
0.488833	82.337	155.3481
0.492375	82.315	155.1915
0.495943	82.293	155.0316
0.499537	82.271	154.8686
0.503157	82.248	154.7024
0.506803	82.226	154.5330
0.510475	82.203	154.3604
0.514175	82.180	154.1845
0.517900	82.157	154.0054
0.521653	82.134	153.8230
0.525434	82.110	153.6374
0.529241	82.087	153.4486
0.533076	82.063	153.2565
0.536939	82.039	153.0611
0.540830	82.015	152.8625
0.544749	81.991	152.6606
0.548696	81.966	152.4555
0.552673	81.942	152.2471
0.556677	81.917	152.0356
0.560711	81.892	151.8208
0.564774	81.867	151.6029
0.568867	81.841	151.3818
0.572989	81.816	151.1576
0.577141	81.790	150.9302
0.581324	81.764	150.6998
0.585536	81.738	150.4664
0.589779	81.712	150.2299
0.594053	81.685	149.9904
0.598358	81.659	149.7481
0.602694	81.632	149.5029
0.607061	81.605	149.2549
0.611460	81.578	149.0041
0.615891	81.550	148.7506
0.620354	81.523	148.4946
0.624849	81.495	148.2360
0.629377	81.467	147.9749
0.633938	81.438	147.7115
0.638532	81.410	147.4458
0.643159	81.381	147.1779
0.647819	81.352	146.9080
0.652514	81.323	146.6361
0.657242	81.294	146.3624
0.662005	81.265	146.0870
0.666802	81.235	145.8100
0.671634	81.205	145.5316
0.676501	81.175	145.2520
0.681403	81.145	144.9713
0.686341	81.114	144.6896
0.691314	81.083	144.4072
0.696324	81.052	144.1242
0.701370	81.020	143.8407
0.706452	80.988	143.5569
0.711571	80.955	143.2728
0.716728	80.922	142.9883
0.721921	80.886	142.7032
0.727153	80.849	142.4168
0.732422	80.809	142.1284
0.737729	80.765	141.8368
0.743075	80.719	141.5408
0.748460	80.670	141.2396
0.753883	80.618	140.9321
0.759346	80.565	140.6179
0.764849	80.510	140.2965
0.770391	80.454	139.9676
0.775974	80.397	139.6310
0.781597	80.338	139.2863
0.787261	80.279	138.9335
0.792966	80.218	138.5724
0.798712	80.156	138.2028
0.804500	80.093	137.8246
0.810329	80.029	137.4376
0.816201	79.963	137.0416
0.822116	79.897	136.6366
0.828073	79.829	136.2222
0.834074	79.760	135.7985
0.840118	79.690	135.3652
0.846206	79.619	134.9221
0.852338	79.546	134.4692
0.858514	79.472	134.0063
0.864735	79.398	133.5332
0.871001	79.322	133.0497
0.877313	79.245	132.5558
0.883670	79.166	132.0514
0.890074	79.087	131.5362
0.896524	79.006	131.0102
0.903020	78.924	130.4733
0.909564	78.841	129.9253
0.916155	78.756	129.3662
0.922794	78.671	128.7958
0.929481	78.584	128.2142
0.936216	78.496	127.6212
0.943000	78.407	127.0168
0.949834	78.317	126.4011
0.956717	78.226	125.7738
0.963649	78.133	125.1352
0.970632	78.039	124.4853
0.977666	77.944	123.8240
0.984750	77.848	123.1514
0.991886	77.751	122.4678
0.999074	77.653	121.7732
1.006314	77.553	121.0677
1.013606	77.453	120.3517
1.020951	77.351	119.6252
1.028349	77.248	118.8887
1.035801	77.144	118.1423
1.043307	77.039	117.3865
1.050867	76.933	116.6215
1.058482	76.826	115.8476
1.066152	76.717	115.0650
1.073878	76.607	114.2739
1.081660	76.496	113.4738
1.089498	76.382	112.6643
1.097393	76.266	111.8438
1.105345	76.146	111.0106
1.113355	76.022	110.1622
1.121423	75.893	109.2963
1.129549	75.758	108.4102
1.137734	75.619	107.5017
1.145979	75.474	106.5685
1.154283	75.323	105.6083
1.162647	75.168	104.6187
1.171072	75.007	103.5976
1.179558	74.842	102.5422
1.188106	74.673	101.4499
1.196715	74.501	100.3179
1.205387	74.324	99.1431
1.214122	74.145	97.9224
1.222920	73.964	96.6523
1.231782	73.780	95.3292
1.240708	73.595	93.9493
1.249699	73.409	92.5086
1.258754	73.222	91.0029
1.267876	73.036	89.4279
1.277063	72.850	87.7791
1.286318	72.665	86.0523
1.295639	72.483	84.2428
1.305027	72.303	82.3464
1.314484	72.127	80.3590
1.324009	71.955	78.2769
1.333604	71.788	76.0971
1.343268	71.627	73.8172
1.353002	71.472	71.4360
1.362806	71.325	68.9535
1.372681	71.186	66.3712
1.382628	71.057	63.6924
1.392647	70.939	60.9224
1.402739	70.832	58.0685
1.412904	70.737	55.1402
1.423142	70.657	52.1484
1.433455	70.591	49.1056
1.443843	70.541	46.0245
1.454305	70.507	42.9176
1.464844	70.492	39.7958
1.475459	70.494	36.6688
1.486150	70.514	33.5451
1.496920	70.553	30.4334
1.507767	70.609	27.3431
1.518693	70.682	24.2840
1.529698	70.773	21.2659
1.540783	70.879	18.2986
1.551948	71.001	15.3908
1.563194	71.138	12.5507
1.574521	71.288	9.7849
1.585931	71.452	7.0988
1.597423	71.627	4.4966
1.608999	71.813	1.9812
1.620658	72.009	-0.4457
1.632402	72.214	-2.7832
1.644232	72.427	-5.0317
1.656146	72.647	-7.1920
1.668147	72.872	-9.2657
1.680235	73.101	-11.2548
1.692411	73.333	-13.1617
1.704675	73.567	-14.9892
1.717028	73.801	-16.7402
1.729470	74.034	-18.4177
1.742003	74.265	-20.0249
1.754626	74.491	-21.5651
1.767341	74.713	-23.0417
1.780147	74.928	-24.4583
1.793047	75.137	-25.8188
1.806040	75.338	-27.1277
1.819128	75.532	-28.3898
1.832310	75.721	-29.6106
1.845587	75.905	-30.7956
1.858961	76.085	-31.9498
1.872432	76.264	-33.0771
1.886001	76.443	-34.1803
1.899667	76.620	-35.2611
1.913433	76.798	-36.3204
1.927299	76.976	-37.3588
1.941265	77.154	-38.3764
1.955332	77.331	-39.3733
1.969501	77.508	-40.3494
1.983773	77.685	-41.3043
1.998148	77.861	-42.2379
2.012627	78.036	-43.1499
2.027212	78.210	-44.0399
2.041902	78.383	-44.9076
2.056698	78.554	-45.7526
2.071602	78.724	-46.5745
2.086614	78.891	-47.3731
2.101734	79.057	-48.1480
2.116964	79.219	-48.8991
2.132304	79.379	-49.6264
2.147756	79.537	-50.3303
2.163320	79.690	-51.0115
2.178996	79.841	-51.6714
2.194786	79.987	-52.3123
2.210690	80.130	-52.9367
2.226710	80.270	-53.5475
2.242845	80.405	-54.1469
2.259098	80.536	-54.7367
2.275468	80.664	-55.3178
2.291957	80.789	-55.8907
2.308566	80.910	-56.4556
2.325295	81.028	-57.0122
2.342145	81.143	-57.5603
2.359117	81.255	-58.0995
2.376212	81.365	-58.6293
2.393431	81.473	-59.1491
2.410775	81.579	-59.6583
2.428244	81.684	-60.1564
2.445840	81.787	-60.6426
2.463564	81.889	-61.1164
2.481416	81.990	-61.5772
2.499397	82.091	-62.0244
2.517509	82.191	-62.4578
2.535752	82.291	-62.8773
2.554127	82.390	-63.2833
2.572635	82.488	-63.6763
2.591277	82.585	-64.0575
2.610055	82.681	-64.4277
2.628968	82.775	-64.7881
2.648019	82.867	-65.1394
2.667208	82.958	-65.4822
2.686535	83.047	-65.8171
2.706003	83.134	-66.1444
2.725612	83.220	-66.4645
2.745363	83.305	-66.7776
2.765257	83.389	-67.0840
2.785295	83.472	-67.3839
2.805478	83.555	-67.6773
2.825808	83.637	-67.9644
2.846285	83.720	-68.2451
2.866910	83.802	-68.5195
2.887685	83.885	-68.7874
2.908611	83.967	-69.0487
2.929688	84.050	-69.3031
2.950917	84.133	-69.5506
2.972301	84.216	-69.7909
2.993839	84.298	-70.0243
3.015534	84.380	-70.2511
3.037386	84.462	-70.4718
3.059396	84.543	-70.6870
3.081565	84.624	-70.8973
3.103896	84.704	-71.1036
3.126388	84.785	-71.3065
3.149043	84.865	-71.5067
3.171862	84.946	-71.7049
3.194847	85.027	-71.9016
3.217998	85.107	-72.0974
3.241317	85.189	-72.2924
3.264805	85.271	-72.4868
3.288463	85.353	-72.6803
3.312293	85.435	-72.8725
3.336295	85.518	-73.0629
3.360471	85.601	-73.2512
3.384822	85.685	-73.4378
3.409350	85.769	-73.6228
3.434056	85.853	-73.8072
3.458940	85.937	-73.9917
3.484005	86.021	-74.1774
3.509252	86.105	-74.3652
3.534681	86.189	-74.5562
3.560295	86.273	-74.7513
3.586094	86.357	-74.9514
3.612081	86.441	-75.1572
3.638255	86.525	-75.3689
3.664620	86.609	-75.5868
3.691175	86.693	-75.8105
3.717923	86.777	-76.0397
3.744864	86.860	-76.2740
3.772001	86.944	-76.5131
3.799335	87.027	-76.7569
3.826866	87.110	-77.0054
3.854597	87.193	-77.2585
3.882529	87.275	-77.5163
3.910664	87.357	-77.7791
3.939002	87.438	-78.0469
3.967546	87.519	-78.3200
3.996296	87.598	-78.5987
4.025255	87.677	-78.8833
4.054423	87.755	-79.1739
4.083804	87.833	-79.4705
4.113396	87.909	-79.7732
4.143204	87.984	-80.0814
4.173227	88.059	-80.3949
4.203468	88.133	-80.7130
4.233928	88.206	-81.0352
4.264609	88.277	-81.3610
4.295512	88.348	-81.6899
4.326639	88.418	-82.0218
4.357992	88.487	-82.3565
4.389572	88.554	-82.6943
4.421380	88.620	-83.0354
4.453419	88.685	-83.3801
4.485691	88.749	-83.7284
4.518196	88.811	-84.0801
4.550936	88.872	-84.4345
4.583914	88.932	-84.7909
4.617131	88.991	-85.1483
4.650589	89.049	-85.5060
4.684289	89.106	-85.8632
4.718233	89.162	-86.2194
4.752424	89.217	-86.5746
4.786862	89.271	-86.9287
4.821549	89.323	-87.2820
4.856488	89.375	-87.6348
4.891680	89.426	-87.9871
4.927127	89.475	-88.3385
4.962831	89.524	-88.6889
4.998794	89.572	-89.0377
5.035017	89.620	-89.3844
5.071503	89.667	-89.7287
5.108253	89.713	-90.0702
5.145270	89.760	-90.4089
5.182555	89.805	-90.7447
5.220110	89.850	-91.0781
5.257937	89.895	-91.4091
5.296038	89.940	-91.7383
5.334415	89.984	-92.0658
5.373071	90.028	-92.3919
5.412006	90.072	-92.7168
5.451224	90.116	-93.0405
5.490725	90.161	-93.3631
5.530514	90.205	-93.6845
5.570590	90.250	-94.0050
5.610957	90.295	-94.3248
5.651616	90.340	-94.6443
5.692570	90.385	-94.9642
5.733821	90.431	-95.2852
5.775370	90.477	-95.6078
5.817221	90.523	-95.9324
5.859375	90.569	-96.2595
5.901834	90.616	-96.5890
5.944602	90.663	-96.9212
5.987679	90.711	-97.2562
6.031068	90.759	-97.5943
6.074771	90.807	-97.9360
6.118792	90.855	-98.2817
6.163131	90.903	-98.6320
6.207792	90.951	-98.9870
6.252776	90.999	-99.3471
6.298086	91.048	-99.7123
6.343725	91.096	-100.0826
6.389694	91.144	-100.4577
6.435996	91.192	-100.8375
6.482634	91.240	-101.2218
6.529610	91.288	-101.6107
6.576926	91.335	-102.0040
6.624585	91.382	-102.4017
6.672590	91.429	-102.8038
6.720942	91.475	-103.2099
6.769645	91.520	-103.6197
6.818700	91.565	-104.0325
6.868111	91.610	-104.4479
6.917881	91.654	-104.8653
6.968010	91.698	-105.2845
7.018504	91.741	-105.7053
7.069362	91.784	-106.1275
7.120590	91.826	-106.5506
7.172189	91.867	-106.9743
7.224161	91.908	-107.3978
7.276511	91.949	-107.8207
7.329239	91.990	-108.2427
7.382350	92.030	-108.6634
7.435845	92.070	-109.0829
7.489729	92.110	-109.5009
7.544002	92.149	-109.9174
7.598669	92.189	-110.3321
7.653732	92.228	-110.7449
7.709194	92.268	-111.1556
7.765058	92.308	-111.5643
7.821327	92.347	-111.9711
7.878004	92.387	-112.3760
7.935091	92.428	-112.7794
7.992592	92.468	-113.1814
8.050510	92.509	-113.5821
8.108847	92.550	-113.9818
8.167607	92.591	-114.3805
8.226793	92.633	-114.7785
8.286408	92.675	-115.1761
8.346454	92.717	-115.5735
8.406936	92.760	-115.9710
8.467856	92.802	-116.3688
8.529218	92.845	-116.7669
8.591024	92.888	-117.1654
8.653278	92.932	-117.5644
8.715983	92.975	-117.9640
8.779143	93.018	-118.3641
8.842760	93.062	-118.7648
8.906839	93.105	-119.1659
8.971381	93.148	-119.5674
9.036392	93.191	-119.9690
9.101873	93.233	-120.3705
9.167829	93.276	-120.7716
9.234263	93.318	-121.1721
9.301178	93.359	-121.5720
9.368578	93.401	-121.9708
9.436467	93.442	-122.3682
9.504847	93.482	-122.7640
9.573723	93.522	-123.1579
9.643099	93.561	-123.5498
9.712976	93.599	-123.9394
9.783361	93.634	-124.3266
9.854255	93.668	-124.7113
9.925663	93.699	-125.0933
9.997588	93.728	-125.4725
10.070035	93.754	-125.8489
10.143007	93.778	-126.2226
10.216507	93.800	-126.5936
10.290540	93.820	-126.9618
10.365109	93.839	-127.3274
10.440219	93.856	-127.6905
10.515873	93.873	-128.0512
10.592076	93.889	-128.4095
10.668830	93.905	-128.7657
10.746141	93.920	-129.1197
10.824012	93.935	-129.4718
10.902447	93.949	-129.8219
10.981451	93.963	-130.1702
11.061027	93.977	-130.5167
11.141180	93.990	-130.8616
11.221913	94.003	-131.2049
11.303232	94.015	-131.5466
11.385140	94.027	-131.8869
11.467641	94.039	-132.2258
11.550741	94.050	-132.5635
11.634442	94.061	-132.8999
11.718750	94.072	-133.2353
11.803669	94.083	-133.5698
11.889203	94.094	-133.9034
11.975357	94.105	-134.2365
12.062136	94.116	-134.5691
12.149543	94.127	-134.9014
12.237583	94.137	-135.2337
12.326262	94.148	-135.5660
12.415583	94.158	-135.8985
12.505552	94.168	-136.2315
12.596172	94.177	-136.5649
12.687449	94.186	-136.8990
12.779387	94.194	-137.2337
12.871992	94.201	-137.5691
12.965268	94.209	-137.9052
13.059220	94.216	-138.2419
13.153852	94.222	-138.5793
13.249170	94.228	-138.9172
13.345179	94.234	-139.2556
13.441884	94.240	-139.5945
13.539289	94.246	-139.9339
13.637401	94.252	-140.2736
13.736223	94.257	-140.6138
13.835761	94.263	-140.9544
13.936021	94.268	-141.2957
14.037007	94.273	-141.6376
14.138725	94.277	-141.9805
14.241180	94.282	-142.3243
14.344377	94.286	-142.6694
14.448323	94.290	-143.0158
14.553021	94.294	-143.3638
14.658478	94.297	-143.7134
14.764700	94.301	-144.0648
14.871691	94.304	-144.4178
14.979457	94.308	-144.7725
15.088005	94.311	-145.1287
15.197339	94.315	-145.4862
15.307465	94.318	-145.8447
15.418389	94.321	-146.2040
15.530117	94.324	-146.5636
15.642655	94.327	-146.9233
15.756008	94.330	-147.2826
15.870182	94.332	-147.6413
15.985184	94.335	-147.9991
16.101019	94.337	-148.3558
16.217694	94.339	-148.7111
16.335214	94.342	-149.0652
16.453586	94.345	-149.4178
16.572815	94.348	-149.7691
16.692909	94.352	-150.1191
16.813872	94.356	-150.4679
16.935713	94.360	-150.8157
17.058436	94.365	-151.1623
17.182048	94.371	-151.5079
17.306556	94.376	-151.8524
17.431967	94.382	-152.1956
17.558286	94.388	-152.5372
17.685521	94.394	-152.8770
17.813677	94.399	-153.2147
17.942762	94.405	-153.5498
18.072783	94.410	-153.8819
18.203746	94.416	-154.2107
18.335658	94.421	-154.5359
18.468526	94.426	-154.8573
18.602356	94.431	-155.1747
18.737156	94.437	-155.4882
18.872934	94.443	-155.7981
19.009695	94.449	-156.1046
19.147447	94.456	-156.4083
19.286197	94.463	-156.7098
19.425953	94.470	-157.0098
19.566721	94.477	-157.3089
19.708510	94.485	-157.6079
19.851326	94.493	-157.9075
19.995177	94.500	-158.2083
20.140070	94.507	-158.5105
20.286013	94.514	-158.8145
20.433014	94.520	-159.1204
20.581080	94.526	-159.4280
20.730219	94.530	-159.7371
20.880439	94.535	-160.0473
21.031747	94.538	-160.3581
21.184152	94.541	-160.6692
21.337661	94.543	-160.9800
21.492282	94.545	-161.2902
21.648024	94.547	-161.5997
21.804895	94.548	-161.9083
21.962902	94.548	-162.2163
22.122054	94.548	-162.5238
22.282360	94.548	-162.8313
22.443827	94.547	-163.1392
22.606464	94.546	-163.4480
22.770280	94.545	-163.7579
22.935283	94.544	-164.0693
23.101481	94.542	-164.3823
23.268884	94.539	-164.6967
23.437500	94.536	-165.0124
23.607338	94.533	-165.3290
23.778406	94.529	-165.6460
23.950714	94.525	-165.9630
24.124271	94.520	-166.2796
24.299086	94.515	-166.5956
24.475167	94.509	-166.9106
24.652524	94.504	-167.2247
24.831166	94.498	-167.5379
25.011103	94.492	-167.8503
25.192344	94.487	-168.1620
25.374898	94.481	-168.4729
25.558775	94.476	-168.7830
25.743984	94.470	-169.0918
25.930536	94.465	-169.3992
26.118439	94.459	-169.7045
26.307704	94.453	-170.0075
26.498341	94.447	-170.3076
26.690359	94.441	-170.6048
26.883768	94.435	-170.8990
27.078579	94.429	-171.1906
27.274801	94.423	-171.4799
27.472446	94.417	-171.7673
27.671522	94.411	-172.0531
27.872042	94.404	-172.3375
28.074014	94.397	-172.6203
28.277450	94.389	-172.9008
28.482360	94.381	-173.1783
28.688755	94.372	-173.4518
28.896645	94.363	-173.7206
29.106042	94.353	-173.9841
29.316957	94.343	-174.2423
29.529400	94.333	-174.4957
29.743382	94.324	-174.7456
29.958915	94.315	-174.9934
30.176009	94.307	-175.2410
30.394677	94.299	-175.4903
30.614929	94.292	-175.7427
30.836778	94.285	-175.9992
31.060234	94.278	-176.2604
31.285309	94.270	-176.5262
31.512015	94.263	-176.7964
31.740364	94.255	-177.0705
31.970368	94.246	-177.3481
32.202039	94.237	-177.6289
32.435388	94.228	-177.9127
32.670428	94.218	-178.1990
32.907171	94.207	-178.4873
33.145630	94.196	-178.7768
33.385817	94.185	-179.0663
33.627745	94.172	-179.3544
33.871425	94.160	-179.6402
34.116871	94.147	-179.9228
34.364096	94.135	179.7979
34.613113	94.122	179.5209
34.863934	94.110	179.2452
35.116572	94.098	178.9694
35.371041	94.087	178.6923
35.627354	94.074	178.4138
35.885525	94.062	178.1346
36.145566	94.048	177.8568
36.407492	94.033	177.5828
36.671316	94.018	177.3146
36.937051	94.002	177.0534
37.204712	93.986	176.7989
37.474313	93.970	176.5495
37.745867	93.954	176.3030
38.019389	93.938	176.0576
38.294893	93.922	175.8128
38.572394	93.904	175.5701
38.851905	93.886	175.3320
39.133442	93.867	175.1010
39.417019	93.848	174.8781
39.702651	93.829	174.6610
39.990353	93.811	174.4456
40.280140	93.794	174.2262
40.572026	93.777	173.9991
40.866028	93.759	173.7644
41.162160	93.738	173.5266
41.460438	93.716	173.2934
41.760877	93.692	173.0721
42.063494	93.668	172.8663
42.368303	93.645	172.6728
42.675322	93.625	172.4823
42.984565	93.608	172.2830
43.296048	93.592	172.0651
43.609789	93.576	171.8253
43.925804	93.558	171.5682
44.244108	93.537	171.3039
44.564719	93.513	171.0438
44.887654	93.488	170.7957
45.212928	93.462	170.5612
45.540560	93.438	170.3365
45.870565	93.415	170.1156
46.202962	93.394	169.8930
46.537768	93.374	169.6668
46.875000	93.354	169.4379
47.214676	93.334	169.2086
47.556813	93.314	168.9799
47.901429	93.295	168.7517
48.248542	93.276	168.5227
48.598171	93.257	168.2923
48.950334	93.238	168.0611
49.305048	93.218	167.8311
49.662333	93.197	167.6042
50.022206	93.176	167.3818
50.384688	93.154	167.1643
50.749796	93.131	166.9514
51.117550	93.107	166.7428
51.487969	93.083	166.5389
51.861072	93.059	166.3397
52.236879	93.033	166.1453
52.615409	93.008	165.9547
52.996681	92.982	165.7668
53.380717	92.957	165.5801
53.767536	92.932	165.3936
54.157158	92.906	165.2062
54.549603	92.881	165.0174
54.944892	92.857	164.8265
55.343045	92.832	164.6331
55.744084	92.808	164.4369
56.148028	92.784	164.2382
56.554900	92.760	164.0371
56.964720	92.735	163.8343
57.377510	92.711	163.6302
57.793291	92.687	163.4259
58.212085	92.662	163.2222
58.633914	92.637	163.0199
59.058799	92.611	162.8199
59.486764	92.584	162.6230
59.917829	92.557	162.4297
60.352019	92.528	162.2410
60.789354	92.499	162.0574
61.229859	92.469	161.8791
61.673556	92.439	161.7057
62.120468	92.408	161.5365
62.570618	92.377	161.3700
63.024031	92.345	161.2045
63.480729	92.314	161.0388
63.940736	92.283	160.8725
64.404077	92.251	160.7065
64.870776	92.219	160.5420
65.340856	92.187	160.3794
65.814343	92.155	160.2179
66.291261	92.124	160.0561
66.771635	92.093	159.8933
67.255489	92.062	159.7302
67.742850	92.031	159.5687
68.233743	91.999	159.4104
68.728193	91.968	159.2552
69.226226	91.937	159.1000
69.727867	91.906	158.9409
70.233144	91.875	158.7756
70.742083	91.842	158.6071
71.254709	91.807	158.4427
71.771050	91.770	158.2900
72.291132	91.733	158.1519
72.814984	91.698	158.0245
73.342631	91.664	157.9007
73.874102	91.632	157.7740
74.409424	91.600	157.6404
74.948626	91.569	157.4995
75.491734	91.538	157.3530
76.038779	91.505	157.2042
76.589787	91.472	157.0576
77.144788	91.438	156.9163
77.703811	91.403	156.7818
78.266885	91.368	156.6539
78.834039	91.333	156.5325
79.405303	91.298	156.4177
79.980706	91.264	156.3082
80.560280	91.231	156.1999
81.144053	91.200	156.0863
81.732056	91.170	155.9621
82.324320	91.139	155.8266
82.920876	91.107	155.6836
83.521755	91.073	155.5386
84.126988	91.038	155.3965
84.736607	91.001	155.2617
85.350643	90.962	155.1384
85.969129	90.922	155.0292
86.592097	90.881	154.9346
87.219579	90.840	154.8536
87.851608	90.799	154.7852
88.488217	90.758	154.7262
89.129439	90.719	154.6702
89.775308	90.681	154.6077
90.425856	90.645	154.5293
91.081119	90.609	154.4312
91.741131	90.572	154.3172
92.405925	90.533	154.1963
93.075536	90.494	154.0762
93.750000	90.455	153.9616
94.429351	90.415	153.8550
95.113625	90.377	153.7584
95.802858	90.338	153.6722
96.497085	90.300	153.5955
97.196342	90.263	153.5275
97.900667	90.225	153.4684
98.610096	90.186	153.4171
99.324665	90.147	153.3719
100.044413	90.108	153.3315
100.769376	90.068	153.2963
101.499592	90.027	153.2676
102.235100	89.987	153.2459
102.975938	89.947	153.2291
103.722144	89.907	153.2136
104.473757	89.869	153.1956
105.230817	89.831	153.1727
105.993363	89.794	153.1434
106.761435	89.756	153.1060
107.535072	89.718	153.0590
108.314315	89.680	153.0019
109.099206	89.641	152.9357
109.889783	89.600	152.8633
110.686090	89.559	152.7877
111.488167	89.517	152.7094
112.296056	89.475	152.6262
113.109800	89.431	152.5368
113.929440	89.385	152.4442
114.755020	89.337	152.3542
115.586582	89.285	152.2729
116.424170	89.232	152.2052
117.267827	89.177	152.1574
118.117598	89.122	152.1402
118.973527	89.069	152.1675
119.835658	89.022	152.2423
120.704037	88.984	152.3434
121.578708	88.955	152.4381
122.459718	88.931	152.5089
123.347111	88.907	152.5580
124.240935	88.883	152.5931
125.141236	88.854	152.6198
126.048061	88.823	152.6424
126.961458	88.787	152.6636
127.881473	88.749	152.6856
128.808154	88.709	152.7091
129.741551	88.670	152.7322
130.681712	88.632	152.7515
131.628686	88.596	152.7643
132.582521	88.561	152.7708
133.543269	88.525	152.7749
134.510979	88.489	152.7817
135.485701	88.450	152.7947
136.467486	88.409	152.8155
137.456386	88.367	152.8436
138.452451	88.323	152.8771
139.455735	88.279	152.9143
140.466288	88.236	152.9542
141.484165	88.193	152.9953
142.509418	88.152	153.0357
143.542100	88.112	153.0745
144.582265	88.072	153.1134
145.629968	88.030	153.1564
146.685262	87.987	153.2070
147.748204	87.943	153.2664
148.818849	87.898	153.3337
149.897251	87.853	153.4082
150.983469	87.808	153.4895
152.077557	87.765	153.5767
153.179574	87.723	153.6703
154.289576	87.683	153.7704
155.407622	87.644	153.8745
156.533770	87.607	153.9781
157.668078	87.571	154.0775
158.810606	87.536	154.1697
159.961413	87.500	154.2520
161.120559	87.465	154.3229
162.288105	87.430	154.3832
163.464112	87.394	154.4357
164.648640	87.356	154.4855
165.841752	87.316	154.5380
167.043510	87.274	154.5966
168.253976	87.231	154.6620
169.473213	87.187	154.7339
170.701286	87.144	154.8116
171.938258	87.101	154.8953
173.184194	87.059	154.9863
174.439158	87.017	155.0861
175.703216	86.976	155.1938
176.976434	86.936	155.3060
178.258878	86.896	155.4188
179.550615	86.857	155.5300
180.851713	86.818	155.6405
182.162239	86.780	155.7519
183.482262	86.744	155.8655
184.811850	86.708	155.9818
186.151073	86.674	156.0997
187.500000	86.639	156.2182
188.858702	86.604	156.3361
190.227250	86.568	156.4532
191.605715	86.531	156.5699
192.994169	86.493	156.6871
194.392685	86.455	156.8063
195.801334	86.416	156.9280
197.220191	86.376	157.0535
198.649330	86.337	157.1849
200.088825	86.299	157.3245
201.538751	86.263	157.4718
202.999184	86.229	157.6226
204.470200	86.196	157.7723
205.951875	86.165	157.9177
207.444287	86.134	158.0574
208.947514	86.102	158.1923
210.461634	86.069	158.3250
211.986726	86.033	158.4584
213.522869	85.996	158.5965
215.070144	85.957	158.7436
216.628631	85.917	158.9045
218.198411	85.877	159.0820
219.779567	85.838	159.2747
221.372180	85.800	159.4773
222.976334	85.765	159.6826
224.592112	85.730	159.8847
226.219600	85.697	160.0803
227.858880	85.665	160.2698
229.510039	85.632	160.4554
231.173164	85.600	160.6404
232.848340	85.567	160.8274
234.535655	85.535	161.0172
236.235197	85.503	161.2088
237.947054	85.470	161.4008
239.671317	85.436	161.5914
241.408074	85.401	161.7800
243.157416	85.365	161.9673
244.919435	85.328	162.1558
246.694223	85.291	162.3503
248.481871	85.254	162.5573
250.282473	85.217	162.7824
252.096123	85.181	163.0267
253.922915	85.148	163.2856
255.762945	85.117	163.5495
257.616309	85.091	163.8068
259.483103	85.068	164.0493
261.363424	85.046	164.2744
263.257372	85.024	164.4841
265.165043	85.001	164.6840
267.086538	84.975	164.8812
269.021957	84.949	165.0833
270.971401	84.921	165.2955
272.934972	84.894	165.5192
274.912771	84.869	165.7520
276.904902	84.845	165.9905
278.911469	84.824	166.2318
280.932577	84.805	166.4744
282.968330	84.787	166.7153
285.018835	84.771	166.9490
287.084199	84.757	167.1683
289.164530	84.742	167.3677
291.259935	84.727	167.5463
293.370525	84.709	167.7094
295.496408	84.688	167.8672
297.637697	84.664	168.0297
299.794503	84.638	168.2036
301.966937	84.610	168.3910
304.155114	84.582	168.5909
306.359147	84.553	168.7998
308.579152	84.526	169.0140
310.815244	84.499	169.2301
313.067539	84.471	169.4470
315.336156	84.443	169.6660
317.621211	84.414	169.8910
319.922826	84.385	170.1260
322.241118	84.356	170.3729
324.576210	84.328	170.6304
326.928223	84.301	170.8952
329.297280	84.275	171.1635
331.683504	84.251	171.4323
334.087019	84.227	171.6990
336.507952	84.204	171.9616
338.946427	84.181	172.2196
341.402572	84.157	172.4744
343.876516	84.133	172.7292
346.368387	84.109	172.9868
348.878315	84.084	173.2488
351.406431	84.059	173.5157
353.952867	84.035	173.7877
356.517756	84.011	174.0644
359.101230	83.987	174.3448
361.703426	83.964	174.6280
364.324478	83.941	174.9130
366.964523	83.918	175.1995
369.623699	83.896	175.4880
372.302145	83.874	175.7794
375.000000	83.852	176.0740
377.717405	83.831	176.3716
380.454501	83.810	176.6716
383.211431	83.789	176.9731
385.988339	83.769	177.2757
388.785369	83.749	177.5797
391.602668	83.729	177.8863
394.440383	83.710	178.1959
397.298660	83.692	178.5081
400.177650	83.674	178.8212
403.077502	83.657	179.1339
405.998368	83.640	179.4449
408.940400	83.623	179.7542
411.903750	83.605	-179.9370
414.888575	83.587	-179.6259
417.895028	83.569	-179.3092
420.923268	83.552	-178.9839
423.973452	83.535	-178.6486
427.045738	83.519	-178.3040
430.140287	83.505	-177.9535
433.257261	83.494	-177.6021
436.396822	83.484	-177.2537
439.559133	83.475	-176.9100
442.744360	83.467	-176.5716
445.952668	83.461	-176.2404
449.184225	83.455	-175.9204
452.439199	83.450	-175.6166
455.717760	83.445	-175.3315
459.020079	83.437	-175.0613
462.346327	83.426	-174.7957
465.696680	83.413	-174.5228
469.071310	83.398	-174.2349
472.470394	83.382	-173.9304
475.894109	83.366	-173.6125
479.342634	83.351	-173.2874
482.816148	83.337	-172.9615
486.314833	83.323	-172.6370
489.838871	83.308	-172.3091
493.388445	83.292	-171.9690
496.963741	83.276	-171.6123
500.564945	83.263	-171.2427
504.192245	83.251	-170.8683
507.845830	83.241	-170.4961
511.525890	83.231	-170.1293
515.232618	83.222	-169.7670
518.966206	83.213	-169.4058
522.726849	83.202	-169.0411
526.514743	83.192	-168.6681
530.330086	83.182	-168.2848
534.173076	83.173	-167.8937
538.043915	83.165	-167.4997
541.942803	83.159	-167.1052
545.869944	83.153	-166.7090
549.825542	83.149	-166.3103
553.809805	83.145	-165.9110
557.822939	83.143	-165.5149
561.865154	83.141	-165.1241
565.936660	83.139	-164.7375
570.037671	83.136	-164.3514
574.168399	83.133	-163.9617
578.329060	83.130	-163.5660
582.519870	83.127	-163.1647
586.741049	83.124	-162.7583
590.992817	83.120	-162.3454
595.275394	83.118	-161.9240
599.589005	83.116	-161.4950
603.933874	83.116	-161.0628
608.310228	83.116	-160.6314
612.718295	83.117	-160.2023
617.158304	83.118	-159.7732
621.630488	83.119	-159.3381
626.135079	83.120	-158.8901
630.672311	83.122	-158.4265
635.242423	83.127	-157.9511
639.845651	83.134	-157.4705
644.482237	83.143	-156.9870
649.152421	83.155	-156.4999
653.856447	83.169	-156.0106
658.594560	83.186	-155.5263
663.367008	83.206	-155.0578
668.174039	83.227	-154.6129
673.015903	83.248	-154.1908
677.892854	83.267	-153.7833
682.805145	83.284	-153.3808
687.753032	83.299	-152.9763
692.736774	83.312	-152.5646
697.756631	83.325	-152.1417
702.812863	83.338	-151.7066
707.905735	83.351	-151.2617
713.035511	83.366	-150.8112
718.202461	83.382	-150.3584
723.406852	83.399	-149.9041
728.648956	83.416	-149.4475
733.929047	83.434	-148.9872
739.247399	83.452	-148.5222
744.604290	83.471	-148.0523
750.000000	83.490	-147.5775
755.434809	83.511	-147.0983
760.909001	83.532	-146.6157
766.422861	83.555	-146.1299
771.976677	83.579	-145.6413
777.570739	83.604	-145.1497
783.205337	83.631	-144.6549
788.880766	83.658	-144.1554
794.597321	83.687	-143.6484
800.355301	83.718	-143.1320
806.155005	83.752	-142.6080
811.996736	83.789	-142.0828
817.880799	83.830	-141.5661
823.807501	83.875	-141.0681
829.777150	83.921	-140.5971
835.790057	83.967	-140.1543
841.846536	84.012	-139.7322
847.946903	84.055	-139.3197
854.091476	84.097	-138.9085
860.280575	84.137	-138.4948
866.514523	84.177	-138.0753
872.793644	84.216	-137.6468
879.118267	84.256	-137.2094
885.488720	84.297	-136.7677
891.905336	84.339	-136.3261
898.368450	84.383	-135.8853
904.878398	84.427	-135.4430
911.435520	84.473	-134.9978
918.040157	84.520	-134.5511
924.692655	84.569	-134.1052
931.393359	84.621	-133.6629
938.142619	84.674	-133.2278
944.940787	84.728	-132.8021
951.788218	84.782	-132.3849
958.685268	84.838	-131.9743
965.632296	84.893	-131.5676
972.629666	84.950	-131.1623
979.677741	85.007	-130.7574
986.776890	85.065	-130.3532
993.927482	85.124	-129.9486
1001.129891	85.183	-129.5393
1008.384491	85.244	-129.1217
1015.691660	85.307	-128.6962
1023.051781	85.373	-128.2673
1030.465236	85.444	-127.8428
1037.932411	85.519	-127.4342
1045.453698	85.597	-127.0543
1053.029486	85.677	-126.7087
1060.660172	85.755	-126.3940
1068.346153	85.832	-126.1010
1076.087829	85.908	-125.8199
1083.885605	85.982	-125.5438
1091.739887	86.055	-125.2701
1099.651084	86.128	-124.9987
1107.619609	86.201	-124.7294
1115.645878	86.273	-124.4617
1123.730308	86.345	-124.1947
1131.873321	86.417	-123.9274
1140.075341	86.489	-123.6587
1148.336797	86.562	-123.3879
1156.658119	86.635	-123.1145
1165.039741	86.709	-122.8375
1173.482099	86.785	-122.5557
1181.985634	86.863	-122.2697
1190.550789	86.945	-121.9855
1199.178011	87.032	-121.7146
1207.867749	87.121	-121.4684
1216.620457	87.211	-121.2527
1225.436590	87.301	-121.0638
1234.316609	87.388	-120.8934
1243.260976	87.474	-120.7331
1252.270157	87.558	-120.5753
1261.344623	87.640	-120.4159
1270.484846	87.721	-120.2539
1279.691303	87.802	-120.0880
1288.964474	87.884	-119.9168
1298.304842	87.966	-119.7410
1307.712894	88.049	-119.5634
1317.189120	88.134	-119.3881
1326.734016	88.220	-119.2177
1336.348077	88.307	-119.0515
1346.031806	88.396	-118.8867
1355.785708	88.486	-118.7198
1365.610290	88.579	-118.5473
1375.506065	88.673	-118.3650
1385.473549	88.771	-118.1685
1395.513261	88.874	-117.9573
1405.625726	88.981	-117.7373
1415.811469	89.095	-117.5206
1426.071023	89.214	-117.3225
1436.404921	89.336	-117.1528
1446.813703	89.460	-117.0127
1457.297912	89.584	-116.8977
1467.858093	89.708	-116.8019
1478.494798	89.831	-116.7213
1489.208581	89.953	-116.6529
1500.000000	90.073	-116.5942
1510.869618	90.191	-116.5429
1521.818002	90.306	-116.4972
1532.845723	90.419	-116.4559
1543.953355	90.530	-116.4180
1555.141477	90.642	-116.3841
1566.410674	90.756	-116.3592
1577.761531	90.873	-116.3551
1589.194642	90.993	-116.3866
1600.710601	91.116	-116.4637
1612.310010	91.239	-116.5878
1623.993473	91.362	-116.7549
1635.761599	91.483	-116.9587
1647.615002	91.603	-117.1945
1659.554299	91.723	-117.4589
1671.580114	91.841	-117.7495
1683.693072	91.959	-118.0665
1695.893807	92.077	-118.4121
1708.182952	92.193	-118.7883
1720.561150	92.307	-119.1947
1733.029045	92.418	-119.6278
1745.587288	92.525	-120.0816
1758.236533	92.629	-120.5485
1770.977440	92.730	-121.0217
1783.810673	92.832	-121.5001
1796.736900	92.934	-121.9907
1809.756796	93.039	-122.5060
1822.871040	93.146	-123.0561
1836.080315	93.253	-123.6460
1849.385310	93.360	-124.2778
1862.786718	93.468	-124.9529
1876.285239	93.577	-125.6736
1889.881575	93.686	-126.4420
1903.576436	93.795	-127.2594
1917.370535	93.906	-128.1268
1931.264593	94.017	-129.0444
1945.259332	94.128	-130.0141
1959.355483	94.240	-131.0421
1973.553781	94.348	-132.1370
1987.854965	94.451	-133.3030
2002.259781	94.545	-134.5367
2016.768981	94.627	-135.8288
2031.383320	94.697	-137.1668
2046.103561	94.753	-138.5373
2060.930471	94.794	-139.9277
2075.864823	94.821	-141.3276
2090.907395	94.833	-142.7274
2106.058972	94.830	-144.1156
2121.320344	94.811	-145.4778
2136.692305	94.778	-146.7966
2152.175658	94.731	-148.0549
2167.771210	94.673	-149.2414
2183.479774	94.608	-150.3554
2199.302169	94.538	-151.4038
2215.239219	94.465	-152.3952
2231.291755	94.389	-153.3369
2247.460615	94.312	-154.2348
2263.746641	94.232	-155.0937
2280.150683	94.151	-155.9165
2296.673595	94.069	-156.7045
2313.316238	93.986	-157.4589
2330.079481	93.904	-158.1835
2346.964198	93.822	-158.8884
2363.971268	93.742	-159.5862
2381.101578	93.661	-160.2865
2398.356022	93.578	-160.9923
2415.735498	93.490	-161.7012
2433.240913	93.398	-162.4075
2450.873180	93.300	-163.1052
2468.633217	93.197	-163.7900
2486.521951	93.087	-164.4573
2504.540314	92.970	-165.1003
2522.689246	92.847	-165.7088
2540.969692	92.717	-166.2721
2559.382606	92.584	-166.7855
2577.928947	92.447	-167.2526
2596.609683	92.309	-167.6816
2615.425787	92.169	-168.0791
2634.378241	92.025	-168.4479
2653.468031	91.877	-168.7857
2672.696154	91.723	-169.0842
2692.063613	91.564	-169.3309
2711.571415	91.399	-169.5128
2731.220579	91.231	-169.6212
2751.012130	91.060	-169.6519
2770.947098	90.887	-169.6007
2791.026522	90.715	-169.4623
2811.251451	90.544	-169.2313
2831.622938	90.376	-168.9062
2852.142045	90.216	-168.4918
2872.809842	90.063	-167.9980
2893.627406	89.920	-167.4356
2914.595823	89.788	-166.8140
2935.716186	89.669	-166.1432
2956.989596	89.562	-165.4391
2978.417161	89.470	-164.7222
3000.000000	89.390	-164.0122
3021.739237	89.322	-163.3235
3043.636005	89.262	-162.6627
3065.691446	89.210	-162.0284
3087.906710	89.163	-161.4145
3110.282955	89.122	-160.8177
3132.821347	89.086	-160.2408
3155.523062	89.056	-159.6906
3178.389283	89.029	-159.1723
3201.421202	89.005	-158.6879
3224.620020	88.982	-158.2359
3247.986946	88.959	-157.8128
3271.523198	88.934	-157.4111
3295.230004	88.906	-157.0177
3319.108599	88.877	-156.6171
3343.160228	88.847	-156.1996
3367.386145	88.818	-155.7642
3391.787613	88.791	-155.3152
3416.365904	88.766	-154.8568
3441.122300	88.744	-154.3888
3466.058091	88.723	-153.9054
3491.174576	88.706	-153.4008
3516.473066	88.694	-152.8758
3541.954880	88.687	-152.3382
3567.621345	88.685	-151.7989
3593.473800	88.689	-151.2676
3619.513592	88.698	-150.7520
3645.742080	88.709	-150.2560
3672.160630	88.721	-149.7766
3698.770620	88.734	-149.3039
3725.573436	88.747	-148.8278
3752.570477	88.762	-148.3436
3779.763150	88.778	-147.8521
3807.152872	88.796	-147.3543
3834.741071	88.815	-146.8469
3862.529185	88.837	-146.3214
3890.518664	88.861	-145.7711
3918.710966	88.892	-145.1979
3947.107561	88.932	-144.6121
3975.709929	88.982	-144.0302
4004.519563	89.043	-143.4721
4033.537962	89.114	-142.9582
4062.766641	89.195	-142.5040
4092.207123	89.282	-142.1176
4121.860942	89.375	-141.8046
4151.729646	89.472	-141.5717
4181.814790	89.571	-141.4245
4212.117944	89.667	-141.3626
4242.640687	89.760	-141.3755
4273.384610	89.848	-141.4475
4304.351317	89.931	-141.5656
4335.542421	90.011	-141.7240
4366.959549	90.087	-141.9244
4398.604338	90.161	-142.1748
4430.478438	90.232	-142.4848
4462.583511	90.298	-142.8590
4494.921231	90.358	-143.2960
4527.493283	90.411	-143.7932
4560.301365	90.457	-144.3496
4593.347189	90.492	-144.9641
4626.632476	90.516	-145.6309
4660.158962	90.528	-146.3394
4693.928395	90.527	-147.0801
4727.942535	90.511	-147.8481
4762.203156	90.482	-148.6425
4796.712043	90.436	-149.4633
4831.470996	90.371	-150.3045
4866.481826	90.280	-151.1442
4901.746360	90.162	-151.9426
4937.266434	90.011	-152.6426
4973.043902	89.830	-153.1703
5009.080628	89.620	-153.4339
5045.378492	89.392	-153.3329
5081.939384	89.164	-152.7867
5118.765212	88.964	-151.7767
5155.857894	88.819	-150.3877
5193.219366	88.750	-148.8152
5230.851574	88.761	-147.3149
5268.756481	88.837	-146.1127
5306.936062	88.951	-145.3372
5345.392309	89.074	-145.0072
5384.127225	89.180	-145.0602
5423.142830	89.254	-145.3899
5462.441159	89.288	-145.8799
5502.024259	89.282	-146.4247
5541.894195	89.239	-146.9402
5582.053045	89.164	-147.3665
5622.502902	89.066	-147.6624
5663.245876	88.949	-147.7994
5704.284090	88.823	-147.7605
5745.619684	88.694	-147.5443
5787.254813	88.569	-147.1640
5829.191647	88.455	-146.6438
5871.432373	88.353	-146.0150
5913.979192	88.268	-145.3123
5956.834323	88.198	-144.5706
6000.000000	88.143	-143.8204
6043.478473	88.098	-143.0809
6087.272010	88.062	-142.3575
6131.382892	88.031	-141.6457
6175.813420	88.002	-140.9346
6220.565910	87.975	-140.2069
6265.642695	87.950	-139.4428
6311.046124	87.928	-138.6246
6356.778566	87.913	-137.7432
6402.842404	87.906	-136.7994
6449.240040	87.912	-135.7995
6495.973891	87.931	-134.7527
6543.046396	87.964	-133.6704
6590.460007	88.013	-132.5632
6638.217197	88.078	-131.4374
6686.320456	88.159	-130.2955
6734.772290	88.259	-129.1398
6783.575226	88.379	-127.9774
6832.731809	88.521	-126.8203
6882.244600	88.685	-125.6857
6932.116181	88.872	-124.5955
6982.349153	89.083	-123.5725
7032.946133	89.317	-122.6348
7083.909760	89.574	-121.7954
7135.242690	89.857	-121.0660
7186.947600	90.167	-120.4635
7239.027185	90.506	-120.0130
7291.484160	90.875	-119.7510
7344.321260	91.275	-119.7259
7397.541239	91.704	-119.9915
7451.146872	92.156	-120.6005
7505.140954	92.625	-121.6025
7559.526299	93.103	-123.0434
7614.305743	93.580	-124.9631
7669.482141	94.043	-127.3909
7725.058371	94.475	-130.3416
7781.037328	94.861	-133.8062
7837.421932	95.181	-137.7440
7894.215122	95.422	-142.0797
7951.419859	95.569	-146.7092
8009.039125	95.615	-151.5073
8067.075924	95.558	-156.3384
8125.533282	95.398	-161.0679
8184.414245	95.143	-165.5723
8243.721885	94.802	-169.7445
8303.459292	94.386	-173.4970
8363.629581	93.909	-176.7638
8424.235888	93.387	-179.5006
8485.281374	92.836	178.3134
8546.769221	92.272	176.6724
8608.702634	91.712	175.5457
8671.084842	91.167	174.8865
8733.919097	90.649	174.6418
8797.208675	90.163	174.7613
8860.956876	89.716	175.2014
8925.167022	89.314	175.9190
8989.842461	88.960	176.8640
9054.986566	88.659	177.9774
9120.602731	88.414	179.1951
9186.694378	88.225	-179.5444
9253.264952	88.090	-178.2938
9320.317925	88.007	-177.1000
9387.856790	87.975	-176.0080
9455.885071	87.989	-175.0600
9524.406312	88.046	-174.2916
9593.424086	88.143	-173.7269
9662.941992	88.275	-173.3792
9732.963653	88.444	-173.2621
9803.492719	88.651	-173.4032
9874.532869	88.896	-173.8541
9946.087805	89.176	-174.6909
10018.161257	89.485	-176.0039
10090.756983	89.809	-177.8809
10163.878768	90.126	179.6098
10237.530423	90.410	176.4371
10311.715789	90.631	172.6221
10386.438732	90.760	168.2505
10461.703149	90.772	163.4724
10537.512962	90.651	158.4873
10613.872125	90.392	153.5116
10690.784618	90.001	148.7487
10768.254450	89.489	144.3676
10846.285661	88.875	140.4980
10924.882318	88.178	137.2306
11004.048518	87.420	134.6193
11083.788390	86.620	132.6826
11164.106090	85.799	131.4104
11245.005805	84.973	130.7743
11326.491752	84.159	130.7356
11408.568180	83.369	131.2440
11491.239368	82.615	132.2311
11574.509626	81.909	133.6083
11658.383294	81.255	135.2753
11742.864745	80.655	137.1339
11827.958384	80.105	139.1014
11913.668646	79.597	141.1238
12000.000000	79.118	143.1930
12086.956947	78.658	145.3609
12174.544019	78.209	147.7316
12262.765784	77.776	150.4250
12351.626840	77.371	153.5252
12441.131819	77.014	157.0453
12531.285389	76.724	160.9238
12622.092249	76.520	165.0447
12713.557132	76.412	169.2645
12805.684808	76.403	173.4332
12898.480079	76.492	177.4128
12991.947783	76.672	-178.9124
13086.092792	76.934	-175.6355
13180.920015	77.266	-172.8293
13276.434395	77.655	-170.5453
13372.640911	78.089	-168.8137
13469.544580	78.558	-167.6531
13567.150452	79.052	-167.0865
13665.463617	79.559	-167.1467
13764.489200	80.066	-167.8665
13864.232362	80.554	-169.2627
13964.698305	81.005	-171.3281
14065.892266	81.399	-174.0257
14167.819519	81.715	-177.2842
14270.485380	81.936	179.0050
14373.895200	82.049	174.9818
14478.054370	82.047	170.8074
14582.968320	81.928	166.6540
14688.642520	81.696	162.6938
14795.082478	81.364	159.0836
14902.293745	80.949	155.9514
15010.281908	80.473	153.3939
15119.052599	79.961	151.4781
15228.611486	79.438	150.2424
15338.964283	78.936	149.6934
15450.116741	78.487	149.7982
15562.074656	78.124	150.4705
15674.843864	77.878	151.5579
15788.430244	77.772	152.8447
15902.839718	77.817	154.0782
16018.078250	78.007	155.0055
16134.151848	78.326	155.4019
16251.066563	78.751	155.0850
16368.828491	79.252	153.9171
16487.443769	79.795	151.8008
16606.918584	80.345	148.6734
16727.259161	80.864	144.5135
16848.471777	81.310	139.3528
16970.562748	81.644	133.2866
17093.538442	81.829	126.4811
17217.405268	81.834	119.1756
17342.169684	81.643	111.6647
17467.838194	81.253	104.2614
17594.417350	80.678	97.2498
17721.913751	79.945	90.8432
17850.334044	79.089	85.1570
17979.684923	78.149	80.2088
18109.973131	77.159	75.9418
18241.205462	76.145	72.2582
18373.388756	75.123	69.0565
18506.529905	74.097	66.2602
18640.635849	73.068	63.8286
18775.713581	72.031	61.7488
18911.770141	70.984	60.0224
19048.812624	69.927	58.6483
19186.848172	68.863	57.6103
19325.883983	67.802	56.8742
19465.927305	66.758	56.3914
19606.985439	65.765	56.1069
19749.065738	64.879	55.9650
19892.175609	64.192	55.9130
20036.322514	63.810	55.9037
