* Measurement data measured by REW V5.31
* Source: EXCL: Microphone (USB Sound Device        ), MICROPHONE (Master Volume), L, volume: 0.250
* Format: 256k Log Swept Sine, 1 sweep at -5.0 dBFS with no timing reference
* Dated: Jun 9, 2024 12:24:57 AM
* REW Settings:
*  C-weighting compensation: Off
*  Target level: 75.0 dB
* Note: Simgot EM10 L
* Measurement: L Simgot EM10
* Smoothing: 1/12 octave
* Frequency Step: 96 ppo
* Start Frequency: 0.36621094 Hz
*
* Freq(Hz) SPL(dB) Phase(degrees)
0.366211 84.999 170.6092
0.368865 84.994 170.5978
0.371538 84.988 170.5807
0.374230 84.980 170.5594
0.376942 84.972 170.5348
0.379673 84.962 170.5078
0.382424 84.952 170.4790
0.385196 84.942 170.4487
0.387987 84.932 170.4170
0.390798 84.921 170.3842
0.393630 84.911 170.3502
0.396483 84.900 170.3150
0.399356 84.890 170.2788
0.402250 84.879 170.2414
0.405165 84.868 170.2028
0.408101 84.857 170.1631
0.411058 84.846 170.1222
0.414037 84.835 170.0802
0.417037 84.824 170.0370
0.420059 84.812 169.9925
0.423103 84.801 169.9469
0.426169 84.790 169.9001
0.429257 84.778 169.8521
0.432368 84.767 169.8028
0.435501 84.755 169.7523
0.438656 84.743 169.7005
0.441835 84.731 169.6476
0.445037 84.719 169.5933
0.448262 84.707 169.5377
0.451510 84.695 169.4809
0.454782 84.683 169.4228
0.458077 84.671 169.3634
0.461397 84.658 169.3027
0.464740 84.646 169.2407
0.468108 84.633 169.1774
0.471500 84.621 169.1128
0.474917 84.608 169.0468
0.478358 84.595 168.9795
0.481825 84.582 168.9109
0.485316 84.569 168.8409
0.488833 84.556 168.7696
0.492375 84.543 168.6970
0.495943 84.530 168.6230
0.499537 84.516 168.5476
0.503157 84.503 168.4709
0.506803 84.489 168.3928
0.510475 84.476 168.3134
0.514175 84.462 168.2326
0.517900 84.448 168.1505
0.521653 84.434 168.0670
0.525434 84.420 167.9822
0.529241 84.406 167.8960
0.533076 84.391 167.8085
0.536939 84.377 167.7197
0.540830 84.362 167.6295
0.544749 84.348 167.5380
0.548696 84.333 167.4451
0.552673 84.318 167.3510
0.556677 84.303 167.2556
0.560711 84.288 167.1588
0.564774 84.273 167.0608
0.568867 84.258 166.9616
0.572989 84.243 166.8611
0.577141 84.227 166.7593
0.581324 84.212 166.6564
0.585536 84.196 166.5522
0.589779 84.180 166.4469
0.594053 84.164 166.3404
0.598358 84.148 166.2328
0.602694 84.132 166.1240
0.607061 84.116 166.0142
0.611460 84.099 165.9034
0.615891 84.083 165.7915
0.620354 84.066 165.6786
0.624849 84.049 165.5648
0.629377 84.033 165.4501
0.633938 84.016 165.3345
0.638532 83.998 165.2180
0.643159 83.981 165.1008
0.647819 83.964 164.9828
0.652514 83.946 164.8641
0.657242 83.929 164.7448
0.662005 83.911 164.6249
0.666802 83.893 164.5045
0.671634 83.875 164.3836
0.676501 83.857 164.2623
0.681403 83.839 164.1407
0.686341 83.820 164.0188
0.691314 83.802 163.8967
0.696324 83.783 163.7744
0.701370 83.764 163.6521
0.706452 83.745 163.5298
0.711571 83.725 163.4074
0.716728 83.705 163.2850
0.721921 83.683 163.1624
0.727153 83.661 163.0393
0.732422 83.636 162.9154
0.737729 83.610 162.7903
0.743075 83.582 162.6634
0.748460 83.553 162.5343
0.753883 83.523 162.4027
0.759346 83.492 162.2684
0.764849 83.461 162.1313
0.770391 83.430 161.9912
0.775974 83.398 161.8481
0.781597 83.365 161.7019
0.787261 83.333 161.5526
0.792966 83.300 161.4003
0.798712 83.266 161.2449
0.804500 83.233 161.0864
0.810329 83.198 160.9248
0.816201 83.164 160.7601
0.822116 83.129 160.5922
0.828073 83.093 160.4213
0.834074 83.057 160.2473
0.840118 83.021 160.0702
0.846206 82.984 159.8900
0.852338 82.946 159.7068
0.858514 82.907 159.5206
0.864735 82.868 159.3313
0.871001 82.828 159.1391
0.877313 82.787 158.9439
0.883670 82.745 158.7458
0.890074 82.702 158.5449
0.896524 82.658 158.3411
0.903020 82.613 158.1346
0.909564 82.567 157.9253
0.916155 82.520 157.7134
0.922794 82.472 157.4990
0.929481 82.422 157.2821
0.936216 82.371 157.0628
0.943000 82.318 156.8412
0.949834 82.264 156.6175
0.956717 82.209 156.3916
0.963649 82.152 156.1639
0.970632 82.093 155.9343
0.977666 82.032 155.7031
0.984750 81.970 155.4705
0.991886 81.905 155.2365
0.999074 81.839 155.0014
1.006314 81.770 154.7655
1.013606 81.700 154.5288
1.020951 81.626 154.2918
1.028349 81.551 154.0546
1.035801 81.473 153.8174
1.043307 81.392 153.5807
1.050867 81.309 153.3447
1.058482 81.222 153.1096
1.066152 81.133 152.8758
1.073878 81.041 152.6434
1.081660 80.946 152.4125
1.089498 80.847 152.1829
1.097393 80.745 151.9543
1.105345 80.639 151.7262
1.113355 80.530 151.4978
1.121423 80.418 151.2686
1.129549 80.301 151.0379
1.137734 80.181 150.8055
1.145979 80.058 150.5711
1.154283 79.931 150.3343
1.162647 79.800 150.0951
1.171072 79.666 149.8534
1.179558 79.528 149.6089
1.188106 79.387 149.3617
1.196715 79.242 149.1116
1.205387 79.093 148.8586
1.214122 78.942 148.6024
1.222920 78.787 148.3431
1.231782 78.628 148.0805
1.240708 78.467 147.8145
1.249699 78.302 147.5451
1.258754 78.134 147.2720
1.267876 77.963 146.9953
1.277063 77.788 146.7147
1.286318 77.611 146.4302
1.295639 77.431 146.1416
1.305027 77.249 145.8489
1.314484 77.063 145.5519
1.324009 76.875 145.2505
1.333604 76.684 144.9446
1.343268 76.491 144.6340
1.353002 76.296 144.3188
1.362806 76.098 143.9987
1.372681 75.898 143.6736
1.382628 75.696 143.3435
1.392647 75.493 143.0082
1.402739 75.287 142.6676
1.412904 75.079 142.3215
1.423142 74.870 141.9696
1.433455 74.658 141.6115
1.443843 74.442 141.2464
1.454305 74.222 140.8733
1.464844 73.996 140.4905
1.475459 73.761 140.0956
1.486150 73.516 139.6860
1.496920 73.258 139.2585
1.507767 72.986 138.8099
1.518693 72.701 138.3365
1.529698 72.403 137.8341
1.540783 72.092 137.2977
1.551948 71.770 136.7215
1.563194 71.438 136.0977
1.574521 71.097 135.4168
1.585931 70.750 134.6658
1.597423 70.397 133.8277
1.608999 70.042 132.8789
1.620658 69.686 131.7857
1.632402 69.331 130.4991
1.644232 68.979 128.9439
1.656146 68.634 126.9991
1.668147 68.297 124.4585
1.680235 67.972 120.9404
1.692411 67.660 115.6660
1.704675 67.367 106.8355
1.717028 67.094 89.8209
1.729470 66.845 55.7708
1.742003 66.625 15.2024
1.754626 66.436 -7.8644
1.767341 66.284 -19.3003
1.780147 66.173 -25.7945
1.793047 66.106 -29.9911
1.806040 66.090 -32.9750
1.819128 66.128 -35.2513
1.832310 66.224 -37.0823
1.845587 66.381 -38.6156
1.858961 66.599 -39.9395
1.872432 66.878 -41.1098
1.886001 67.216 -42.1634
1.899667 67.609 -43.1254
1.913433 68.052 -44.0139
1.927299 68.542 -44.8423
1.941265 69.072 -45.6208
1.955332 69.638 -46.3571
1.969501 70.234 -47.0575
1.983773 70.854 -47.7271
1.998148 71.492 -48.3700
2.012627 72.144 -48.9895
2.027212 72.803 -49.5886
2.041902 73.463 -50.1698
2.056698 74.119 -50.7351
2.071602 74.766 -51.2865
2.086614 75.397 -51.8257
2.101734 76.007 -52.3543
2.116964 76.592 -52.8737
2.132304 77.146 -53.3855
2.147756 77.667 -53.8912
2.163320 78.153 -54.3927
2.178996 78.602 -54.8919
2.194786 79.015 -55.3910
2.210690 79.396 -55.8920
2.226710 79.748 -56.3965
2.242845 80.074 -56.9055
2.259098 80.376 -57.4190
2.275468 80.658 -57.9365
2.291957 80.922 -58.4571
2.308566 81.167 -58.9800
2.325295 81.398 -59.5038
2.342145 81.613 -60.0276
2.359117 81.816 -60.5504
2.376212 82.008 -61.0712
2.393431 82.190 -61.5891
2.410775 82.364 -62.1034
2.428244 82.531 -62.6134
2.445840 82.694 -63.1186
2.463564 82.854 -63.6186
2.481416 83.013 -64.1132
2.499397 83.172 -64.6025
2.517509 83.332 -65.0871
2.535752 83.493 -65.5680
2.554127 83.656 -66.0468
2.572635 83.818 -66.5254
2.591277 83.980 -67.0060
2.610055 84.139 -67.4901
2.628968 84.293 -67.9785
2.648019 84.444 -68.4712
2.667208 84.589 -68.9677
2.686535 84.730 -69.4670
2.706003 84.866 -69.9679
2.725612 84.998 -70.4692
2.745363 85.125 -70.9696
2.765257 85.249 -71.4677
2.785295 85.370 -71.9622
2.805478 85.487 -72.4520
2.825808 85.603 -72.9360
2.846285 85.716 -73.4133
2.866910 85.827 -73.8835
2.887685 85.936 -74.3465
2.908611 86.044 -74.8031
2.929688 86.150 -75.2544
2.950917 86.253 -75.7024
2.972301 86.354 -76.1488
2.993839 86.452 -76.5947
3.015534 86.546 -77.0407
3.037386 86.638 -77.4868
3.059396 86.726 -77.9323
3.081565 86.811 -78.3763
3.103896 86.893 -78.8177
3.126388 86.973 -79.2552
3.149043 87.051 -79.6874
3.171862 87.127 -80.1131
3.194847 87.201 -80.5309
3.217998 87.273 -80.9398
3.241317 87.344 -81.3389
3.264805 87.414 -81.7280
3.288463 87.482 -82.1072
3.312293 87.549 -82.4773
3.336295 87.614 -82.8394
3.360471 87.676 -83.1944
3.384822 87.737 -83.5430
3.409350 87.796 -83.8858
3.434056 87.852 -84.2229
3.458940 87.907 -84.5541
3.484005 87.960 -84.8792
3.509252 88.013 -85.1977
3.534681 88.064 -85.5092
3.560295 88.114 -85.8131
3.586094 88.164 -86.1089
3.612081 88.213 -86.3960
3.638255 88.263 -86.6741
3.664620 88.311 -86.9427
3.691175 88.360 -87.2019
3.717923 88.407 -87.4519
3.744864 88.454 -87.6931
3.772001 88.501 -87.9262
3.799335 88.546 -88.1519
3.826866 88.592 -88.3711
3.854597 88.637 -88.5846
3.882529 88.682 -88.7932
3.910664 88.727 -88.9976
3.939002 88.772 -89.1983
3.967546 88.818 -89.3957
3.996296 88.865 -89.5898
4.025255 88.912 -89.7804
4.054423 88.960 -89.9671
4.083804 89.009 -90.1495
4.113396 89.059 -90.3278
4.143204 89.108 -90.5027
4.173227 89.159 -90.6751
4.203468 89.210 -90.8466
4.233928 89.261 -91.0187
4.264609 89.313 -91.1929
4.295512 89.366 -91.3709
4.326639 89.419 -91.5537
4.357992 89.473 -91.7422
4.389572 89.527 -91.9369
4.421380 89.583 -92.1374
4.453419 89.639 -92.3436
4.485691 89.696 -92.5553
4.518196 89.753 -92.7726
4.550936 89.811 -92.9959
4.583914 89.869 -93.2262
4.617131 89.928 -93.4642
4.650589 89.986 -93.7110
4.684289 90.045 -93.9674
4.718233 90.103 -94.2344
4.752424 90.161 -94.5124
4.786862 90.218 -94.8018
4.821549 90.276 -95.1023
4.856488 90.333 -95.4137
4.891680 90.389 -95.7356
4.927127 90.446 -96.0674
4.962831 90.501 -96.4087
4.998794 90.556 -96.7591
5.035017 90.610 -97.1184
5.071503 90.663 -97.4865
5.108253 90.714 -97.8636
5.145270 90.765 -98.2500
5.182555 90.814 -98.6458
5.220110 90.862 -99.0510
5.257937 90.908 -99.4649
5.296038 90.953 -99.8864
5.334415 90.997 -100.3143
5.373071 91.040 -100.7474
5.412006 91.081 -101.1844
5.451224 91.121 -101.6247
5.490725 91.159 -102.0679
5.530514 91.196 -102.5141
5.570590 91.231 -102.9634
5.610957 91.265 -103.4156
5.651616 91.297 -103.8700
5.692570 91.328 -104.3257
5.733821 91.359 -104.7815
5.775370 91.388 -105.2362
5.817221 91.416 -105.6889
5.859375 91.443 -106.1389
5.901834 91.470 -106.5860
5.944602 91.495 -107.0304
5.987679 91.520 -107.4722
6.031068 91.545 -107.9115
6.074771 91.569 -108.3480
6.118792 91.592 -108.7816
6.163131 91.616 -109.2119
6.207792 91.641 -109.6386
6.252776 91.665 -110.0616
6.298086 91.690 -110.4810
6.343725 91.715 -110.8970
6.389694 91.741 -111.3105
6.435996 91.767 -111.7222
6.482634 91.794 -112.1328
6.529610 91.822 -112.5432
6.576926 91.851 -112.9537
6.624585 91.881 -113.3647
6.672590 91.912 -113.7765
6.720942 91.944 -114.1894
6.769645 91.977 -114.6043
6.818700 92.011 -115.0222
6.868111 92.046 -115.4440
6.917881 92.082 -115.8707
6.968010 92.119 -116.3027
7.018504 92.157 -116.7405
7.069362 92.196 -117.1841
7.120590 92.235 -117.6336
7.172189 92.275 -118.0892
7.224161 92.315 -118.5510
7.276511 92.356 -119.0192
7.329239 92.396 -119.4940
7.382350 92.437 -119.9754
7.435845 92.478 -120.4631
7.489729 92.519 -120.9563
7.544002 92.559 -121.4545
7.598669 92.599 -121.9567
7.653732 92.639 -122.4623
7.709194 92.678 -122.9707
7.765058 92.717 -123.4814
7.821327 92.755 -123.9939
7.878004 92.793 -124.5070
7.935091 92.830 -125.0198
7.992592 92.867 -125.5310
8.050510 92.903 -126.0397
8.108847 92.938 -126.5453
8.167607 92.973 -127.0473
8.226793 93.008 -127.5452
8.286408 93.042 -128.0384
8.346454 93.076 -128.5262
8.406936 93.110 -129.0081
8.467856 93.144 -129.4838
8.529218 93.178 -129.9531
8.591024 93.213 -130.4162
8.653278 93.247 -130.8733
8.715983 93.282 -131.3246
8.779143 93.318 -131.7703
8.842760 93.354 -132.2108
8.906839 93.390 -132.6464
8.971381 93.427 -133.0776
9.036392 93.465 -133.5051
9.101873 93.503 -133.9296
9.167829 93.541 -134.3517
9.234263 93.580 -134.7719
9.301178 93.620 -135.1905
9.368578 93.659 -135.6078
9.436467 93.699 -136.0244
9.504847 93.738 -136.4406
9.573723 93.777 -136.8565
9.643099 93.815 -137.2721
9.712976 93.852 -137.6874
9.783361 93.887 -138.1021
9.854255 93.920 -138.5159
9.925663 93.949 -138.9285
9.997588 93.976 -139.3396
10.070035 94.000 -139.7488
10.143007 94.021 -140.1554
10.216507 94.039 -140.5590
10.290540 94.055 -140.9590
10.365109 94.069 -141.3550
10.440219 94.081 -141.7468
10.515873 94.092 -142.1341
10.592076 94.102 -142.5165
10.668830 94.110 -142.8939
10.746141 94.118 -143.2664
10.824012 94.125 -143.6342
10.902447 94.132 -143.9975
10.981451 94.138 -144.3566
11.061027 94.144 -144.7119
11.141180 94.149 -145.0639
11.221913 94.153 -145.4131
11.303232 94.157 -145.7603
11.385140 94.161 -146.1058
11.467641 94.164 -146.4503
11.550741 94.167 -146.7942
11.634442 94.170 -147.1379
11.718750 94.172 -147.4820
11.803669 94.174 -147.8265
11.889203 94.176 -148.1718
11.975357 94.177 -148.5179
12.062136 94.178 -148.8649
12.149543 94.178 -149.2126
12.237583 94.178 -149.5612
12.326262 94.177 -149.9104
12.415583 94.175 -150.2601
12.505552 94.173 -150.6104
12.596172 94.170 -150.9610
12.687449 94.166 -151.3122
12.779387 94.162 -151.6640
12.871992 94.157 -152.0166
12.965268 94.151 -152.3701
13.059220 94.146 -152.7251
13.153852 94.140 -153.0818
13.249170 94.134 -153.4407
13.345179 94.128 -153.8023
13.441884 94.123 -154.1670
13.539289 94.117 -154.5354
13.637401 94.112 -154.9078
13.736223 94.107 -155.2844
13.835761 94.102 -155.6657
13.936021 94.096 -156.0517
14.037007 94.090 -156.4425
14.138725 94.085 -156.8381
14.241180 94.079 -157.2384
14.344377 94.072 -157.6432
14.448323 94.066 -158.0524
14.553021 94.059 -158.4657
14.658478 94.052 -158.8829
14.764700 94.046 -159.3037
14.871691 94.039 -159.7279
14.979457 94.033 -160.1555
15.088005 94.026 -160.5860
15.197339 94.021 -161.0196
15.307465 94.015 -161.4558
15.418389 94.010 -161.8947
15.530117 94.005 -162.3359
15.642655 94.000 -162.7792
15.756008 93.995 -163.2243
15.870182 93.991 -163.6707
15.985184 93.986 -164.1181
16.101019 93.982 -164.5659
16.217694 93.978 -165.0136
16.335214 93.974 -165.4607
16.453586 93.970 -165.9066
16.572815 93.967 -166.3510
16.692909 93.965 -166.7934
16.813872 93.962 -167.2334
16.935713 93.961 -167.6710
17.058436 93.960 -168.1059
17.182048 93.960 -168.5381
17.306556 93.960 -168.9675
17.431967 93.960 -169.3942
17.558286 93.961 -169.8182
17.685521 93.961 -170.2392
17.813677 93.962 -170.6573
17.942762 93.962 -171.0721
18.072783 93.962 -171.4833
18.203746 93.962 -171.8907
18.335658 93.962 -172.2938
18.468526 93.961 -172.6924
18.602356 93.960 -173.0861
18.737156 93.959 -173.4748
18.872934 93.957 -173.8585
19.009695 93.956 -174.2375
19.147447 93.954 -174.6122
19.286197 93.952 -174.9829
19.425953 93.951 -175.3505
19.566721 93.948 -175.7156
19.708510 93.946 -176.0789
19.851326 93.943 -176.4412
19.995177 93.939 -176.8031
20.140070 93.935 -177.1651
20.286013 93.930 -177.5275
20.433014 93.924 -177.8905
20.581080 93.917 -178.2545
20.730219 93.909 -178.6194
20.880439 93.901 -178.9853
21.031747 93.892 -179.3524
21.184152 93.882 -179.7208
21.337661 93.872 179.9093
21.492282 93.862 179.5375
21.648024 93.851 179.1637
21.804895 93.839 178.7875
21.962902 93.827 178.4088
22.122054 93.815 178.0274
22.282360 93.802 177.6432
22.443827 93.788 177.2562
22.606464 93.775 176.8665
22.770280 93.761 176.4742
22.935283 93.747 176.0793
23.101481 93.732 175.6820
23.268884 93.718 175.2822
23.437500 93.704 174.8800
23.607338 93.690 174.4753
23.778406 93.676 174.0682
23.950714 93.662 173.6588
24.124271 93.648 173.2473
24.299086 93.634 172.8338
24.475167 93.621 172.4189
24.652524 93.607 172.0029
24.831166 93.594 171.5865
25.011103 93.581 171.1702
25.192344 93.568 170.7545
25.374898 93.556 170.3401
25.558775 93.543 169.9273
25.743984 93.531 169.5167
25.930536 93.519 169.1086
26.118439 93.507 168.7036
26.307704 93.494 168.3021
26.498341 93.482 167.9042
26.690359 93.470 167.5104
26.883768 93.457 167.1207
27.078579 93.445 166.7351
27.274801 93.432 166.3533
27.472446 93.419 165.9751
27.671522 93.406 165.5999
27.872042 93.392 165.2272
28.074014 93.378 164.8564
28.277450 93.363 164.4872
28.482360 93.348 164.1191
28.688755 93.332 163.7519
28.896645 93.315 163.3852
29.106042 93.298 163.0189
29.316957 93.280 162.6528
29.529400 93.261 162.2867
29.743382 93.241 161.9203
29.958915 93.222 161.5533
30.176009 93.201 161.1853
30.394677 93.181 160.8161
30.614929 93.160 160.4451
30.836778 93.139 160.0720
31.060234 93.118 159.6964
31.285309 93.097 159.3177
31.512015 93.076 158.9356
31.740364 93.054 158.5498
31.970368 93.033 158.1603
32.202039 93.012 157.7672
32.435388 92.990 157.3710
32.670428 92.969 156.9724
32.907171 92.947 156.5723
33.145630 92.925 156.1715
33.385817 92.904 155.7708
33.627745 92.882 155.3705
33.871425 92.860 154.9710
34.116871 92.839 154.5722
34.364096 92.818 154.1741
34.613113 92.797 153.7767
34.863934 92.775 153.3803
35.116572 92.754 152.9855
35.371041 92.731 152.5932
35.627354 92.709 152.2042
35.885525 92.686 151.8195
36.145566 92.662 151.4395
36.407492 92.638 151.0643
36.671316 92.614 150.6934
36.937051 92.590 150.3257
37.204712 92.566 149.9599
37.474313 92.542 149.5945
37.745867 92.518 149.2280
38.019389 92.493 148.8596
38.294893 92.469 148.4887
38.572394 92.443 148.1154
38.851905 92.417 147.7402
39.133442 92.391 147.3643
39.417019 92.363 146.9886
39.702651 92.335 146.6142
39.990353 92.307 146.2416
40.280140 92.279 145.8708
40.572026 92.251 145.5011
40.866028 92.224 145.1309
41.162160 92.197 144.7589
41.460438 92.170 144.3838
41.760877 92.143 144.0051
42.063494 92.116 143.6233
42.368303 92.088 143.2396
42.675322 92.059 142.8554
42.984565 92.030 142.4724
43.296048 92.000 142.0914
43.609789 91.969 141.7131
43.925804 91.938 141.3371
44.244108 91.907 140.9633
44.564719 91.875 140.5914
44.887654 91.843 140.2213
45.212928 91.811 139.8532
45.540560 91.778 139.4871
45.870565 91.745 139.1230
46.202962 91.712 138.7604
46.537768 91.679 138.3990
46.875000 91.646 138.0381
47.214676 91.613 137.6774
47.556813 91.580 137.3163
47.901429 91.547 136.9546
48.248542 91.514 136.5922
48.598171 91.482 136.2292
48.950334 91.449 135.8661
49.305048 91.416 135.5033
49.662333 91.383 135.1411
50.022206 91.349 134.7797
50.384688 91.316 134.4193
50.749796 91.282 134.0598
51.117550 91.248 133.7018
51.487969 91.213 133.3457
51.861072 91.178 132.9919
52.236879 91.143 132.6403
52.615409 91.108 132.2905
52.996681 91.073 131.9417
53.380717 91.038 131.5932
53.767536 91.003 131.2448
54.157158 90.968 130.8966
54.549603 90.932 130.5488
54.944892 90.898 130.2015
55.343045 90.863 129.8545
55.744084 90.829 129.5071
56.148028 90.795 129.1583
56.554900 90.762 128.8070
56.964720 90.728 128.4522
57.377510 90.695 128.0932
57.793291 90.662 127.7299
58.212085 90.627 127.3632
58.633914 90.592 126.9952
59.058799 90.555 126.6281
59.486764 90.518 126.2640
59.917829 90.479 125.9034
60.352019 90.440 125.5457
60.789354 90.401 125.1901
61.229859 90.360 124.8356
61.673556 90.320 124.4822
62.120468 90.279 124.1298
62.570618 90.238 123.7779
63.024031 90.197 123.4255
63.480729 90.156 123.0722
63.940736 90.114 122.7181
64.404077 90.073 122.3643
64.870776 90.031 122.0120
65.340856 89.989 121.6617
65.814343 89.948 121.3138
66.291261 89.906 120.9684
66.771635 89.864 120.6252
67.255489 89.822 120.2843
67.742850 89.780 119.9457
68.233743 89.738 119.6092
68.728193 89.695 119.2747
69.226226 89.652 118.9421
69.727867 89.609 118.6110
70.233144 89.566 118.2802
70.742083 89.523 117.9487
71.254709 89.479 117.6158
71.771050 89.436 117.2813
72.291132 89.392 116.9454
72.814984 89.348 116.6090
73.342631 89.304 116.2732
73.874102 89.260 115.9394
74.409424 89.215 115.6085
74.948626 89.171 115.2802
75.491734 89.128 114.9538
76.038779 89.084 114.6284
76.589787 89.041 114.3031
77.144788 88.999 113.9774
77.703811 88.956 113.6503
78.266885 88.914 113.3208
78.834039 88.871 112.9879
79.405303 88.829 112.6506
79.980706 88.786 112.3082
80.560280 88.743 111.9606
81.144053 88.699 111.6077
81.732056 88.654 111.2499
82.324320 88.609 110.8871
82.920876 88.562 110.5198
83.521755 88.514 110.1497
84.126988 88.464 109.7802
84.736607 88.413 109.4153
85.350643 88.360 109.0588
85.969129 88.306 108.7130
86.592097 88.252 108.3786
87.219579 88.198 108.0553
87.851608 88.144 107.7421
88.488217 88.091 107.4374
89.129439 88.039 107.1390
89.775308 87.987 106.8451
90.425856 87.937 106.5542
91.081119 87.886 106.2652
91.741131 87.837 105.9767
92.405925 87.787 105.6880
93.075536 87.738 105.3985
93.750000 87.688 105.1085
94.429351 87.638 104.8185
95.113625 87.588 104.5291
95.802858 87.538 104.2400
96.497085 87.487 103.9511
97.196342 87.437 103.6625
97.900667 87.386 103.3754
98.610096 87.335 103.0914
99.324665 87.285 102.8120
100.044413 87.234 102.5381
100.769376 87.183 102.2696
101.499592 87.133 102.0059
102.235100 87.084 101.7456
102.975938 87.034 101.4869
103.722144 86.985 101.2279
104.473757 86.936 100.9673
105.230817 86.888 100.7036
105.993363 86.840 100.4358
106.761435 86.792 100.1634
107.535072 86.745 99.8871
108.314315 86.698 99.6083
109.099206 86.651 99.3285
109.889783 86.604 99.0482
110.686090 86.556 98.7671
111.488167 86.507 98.4839
112.296056 86.456 98.1971
113.109800 86.402 97.9054
113.929440 86.347 97.6075
114.755020 86.288 97.3031
115.586582 86.228 96.9935
116.424170 86.166 96.6827
117.267827 86.103 96.3776
118.117598 86.042 96.0873
118.973527 85.982 95.8236
119.835658 85.926 95.5962
120.704037 85.876 95.4039
121.578708 85.832 95.2330
122.459718 85.791 95.0681
123.347111 85.752 94.9016
124.240935 85.711 94.7328
125.141236 85.668 94.5618
126.048061 85.623 94.3859
126.961458 85.576 94.2013
127.881473 85.528 94.0055
128.808154 85.479 93.7983
129.741551 85.431 93.5812
130.681712 85.383 93.3558
131.628686 85.335 93.1243
132.582521 85.288 92.8891
133.543269 85.241 92.6524
134.510979 85.194 92.4156
135.485701 85.147 92.1799
136.467486 85.099 91.9465
137.456386 85.051 91.7170
138.452451 85.004 91.4927
139.455735 84.957 91.2747
140.466288 84.910 91.0628
141.484165 84.863 90.8558
142.509418 84.816 90.6514
143.542100 84.769 90.4472
144.582265 84.721 90.2428
145.629968 84.674 90.0403
146.685262 84.626 89.8441
147.748204 84.578 89.6602
148.818849 84.531 89.4940
149.897251 84.483 89.3470
150.983469 84.435 89.2151
152.077557 84.388 89.0916
153.179574 84.340 88.9708
154.289576 84.293 88.8502
155.407622 84.246 88.7292
156.533770 84.201 88.6053
157.668078 84.159 88.4760
158.810606 84.118 88.3409
159.961413 84.078 88.2021
161.120559 84.038 88.0603
162.288105 83.998 87.9147
163.464112 83.958 87.7621
164.648640 83.919 87.5969
165.841752 83.880 87.4142
167.043510 83.842 87.2150
168.253976 83.804 87.0084
169.473213 83.766 86.8063
170.701286 83.729 86.6176
171.938258 83.691 86.4450
173.184194 83.655 86.2858
174.439158 83.619 86.1343
175.703216 83.584 85.9855
176.976434 83.550 85.8355
178.258878 83.517 85.6820
179.550615 83.483 85.5235
180.851713 83.448 85.3596
182.162239 83.413 85.1910
183.482262 83.378 85.0193
184.811850 83.342 84.8473
186.151073 83.308 84.6766
187.500000 83.275 84.5074
188.858702 83.243 84.3395
190.227250 83.212 84.1744
191.605715 83.181 84.0135
192.994169 83.152 83.8574
194.392685 83.122 83.7054
195.801334 83.092 83.5578
197.220191 83.062 83.4161
198.649330 83.032 83.2821
200.088825 83.002 83.1570
201.538751 82.974 83.0396
202.999184 82.947 82.9261
204.470200 82.922 82.8115
205.951875 82.899 82.6907
207.444287 82.878 82.5594
208.947514 82.856 82.4160
210.461634 82.835 82.2623
211.986726 82.812 82.1039
213.522869 82.788 81.9475
215.070144 82.762 81.7994
216.628631 82.736 81.6639
218.198411 82.709 81.5420
219.779567 82.684 81.4306
221.372180 82.661 81.3238
222.976334 82.640 81.2142
224.592112 82.621 81.0959
226.219600 82.603 80.9662
227.858880 82.586 80.8255
229.510039 82.570 80.6746
231.173164 82.554 80.5137
232.848340 82.538 80.3438
234.535655 82.522 80.1673
236.235197 82.505 79.9861
237.947054 82.487 79.8011
239.671317 82.467 79.6113
241.408074 82.446 79.4167
243.157416 82.424 79.2210
244.919435 82.401 79.0325
246.694223 82.378 78.8623
248.481871 82.355 78.7187
250.282473 82.334 78.6025
252.096123 82.313 78.5084
253.922915 82.294 78.4285
255.762945 82.278 78.3530
257.616309 82.264 78.2705
259.483103 82.252 78.1707
261.363424 82.242 78.0494
263.257372 82.232 77.9099
265.165043 82.220 77.7605
267.086538 82.208 77.6110
269.021957 82.194 77.4697
270.971401 82.181 77.3411
272.934972 82.168 77.2253
274.912771 82.157 77.1189
276.904902 82.147 77.0176
278.911469 82.139 76.9176
280.932577 82.134 76.8159
282.968330 82.131 76.7093
285.018835 82.129 76.5927
287.084199 82.130 76.4598
289.164530 82.132 76.3053
291.259935 82.133 76.1286
293.370525 82.132 75.9352
295.496408 82.128 75.7346
297.637697 82.122 75.5357
299.794503 82.114 75.3445
301.966937 82.104 75.1631
304.155114 82.094 74.9908
306.359147 82.085 74.8246
308.579152 82.075 74.6613
310.815244 82.066 74.4978
313.067539 82.056 74.3332
315.336156 82.046 74.1694
317.621211 82.034 74.0106
319.922826 82.022 73.8608
322.241118 82.009 73.7219
324.576210 81.997 73.5935
326.928223 81.987 73.4731
329.297280 81.977 73.3577
331.683504 81.969 73.2443
334.087019 81.962 73.1302
336.507952 81.955 73.0135
338.946427 81.948 72.8931
341.402572 81.940 72.7697
343.876516 81.932 72.6451
346.368387 81.923 72.5216
348.878315 81.914 72.4008
351.406431 81.906 72.2836
353.952867 81.897 72.1703
356.517756 81.890 72.0611
359.101230 81.883 71.9559
361.703426 81.876 71.8539
364.324478 81.870 71.7541
366.964523 81.863 71.6552
369.623699 81.857 71.5572
372.302145 81.851 71.4608
375.000000 81.845 71.3673
377.717405 81.840 71.2775
380.454501 81.835 71.1911
383.211431 81.830 71.1069
385.988339 81.826 71.0241
388.785369 81.822 70.9424
391.602668 81.819 70.8625
394.440383 81.817 70.7849
397.298660 81.815 70.7100
400.177650 81.814 70.6373
403.077502 81.813 70.5650
405.998368 81.812 70.4914
408.940400 81.810 70.4154
411.903750 81.808 70.3380
414.888575 81.805 70.2625
417.895028 81.803 70.1929
420.923268 81.800 70.1332
423.973452 81.799 70.0845
427.045738 81.799 70.0450
430.140287 81.801 70.0102
433.257261 81.804 69.9750
436.396822 81.809 69.9362
439.559133 81.816 69.8934
442.744360 81.823 69.8471
445.952668 81.832 69.7957
449.184225 81.841 69.7346
452.439199 81.851 69.6571
455.717760 81.860 69.5595
459.020079 81.867 69.4456
462.346327 81.871 69.3265
465.696680 81.872 69.2153
469.071310 81.871 69.1200
472.470394 81.870 69.0423
475.894109 81.868 68.9786
479.342634 81.868 68.9223
482.816148 81.868 68.8669
486.314833 81.867 68.8108
489.838871 81.865 68.7587
493.388445 81.863 68.7188
496.963741 81.860 68.6949
500.564945 81.860 68.6828
504.192245 81.861 68.6743
507.845830 81.864 68.6628
511.525890 81.867 68.6461
515.232618 81.871 68.6265
518.966206 81.873 68.6086
522.726849 81.875 68.5970
526.514743 81.877 68.5952
530.330086 81.879 68.6036
534.173076 81.881 68.6189
538.043915 81.884 68.6364
541.942803 81.888 68.6548
545.869944 81.893 68.6763
549.825542 81.899 68.7027
553.809805 81.905 68.7325
557.822939 81.913 68.7621
561.865154 81.920 68.7884
565.936660 81.928 68.8113
570.037671 81.936 68.8333
574.168399 81.943 68.8579
578.329060 81.950 68.8867
582.519870 81.957 68.9193
586.741049 81.964 68.9553
590.992817 81.970 68.9973
595.275394 81.978 69.0480
599.589005 81.986 69.1067
603.933874 81.995 69.1688
608.310228 82.005 69.2301
612.718295 82.014 69.2894
617.158304 82.024 69.3491
621.630488 82.032 69.4150
626.135079 82.039 69.4938
630.672311 82.047 69.5887
635.242423 82.056 69.6969
639.845651 82.067 69.8139
644.482237 82.079 69.9388
649.152421 82.092 70.0729
653.856447 82.108 70.2151
658.594560 82.127 70.3588
663.367008 82.149 70.4938
668.174039 82.172 70.6120
673.015903 82.195 70.7133
677.892854 82.217 70.8045
682.805145 82.238 70.8934
687.753032 82.257 70.9858
692.736774 82.274 71.0859
697.756631 82.292 71.1975
702.812863 82.309 71.3219
707.905735 82.328 71.4567
713.035511 82.348 71.5975
718.202461 82.369 71.7407
723.406852 82.390 71.8850
728.648956 82.412 72.0316
733.929047 82.435 72.1820
739.247399 82.457 72.3372
744.604290 82.480 72.4980
750.000000 82.504 72.6653
755.434809 82.529 72.8390
760.909001 82.555 73.0185
766.422861 82.581 73.2026
771.976677 82.609 73.3903
777.570739 82.638 73.5808
783.205337 82.668 73.7743
788.880766 82.698 73.9725
794.597321 82.730 74.1788
800.355301 82.763 74.3960
806.155005 82.799 74.6228
811.996736 82.839 74.8527
817.880799 82.882 75.0765
823.807501 82.929 75.2846
829.777150 82.978 75.4684
835.790057 83.026 75.6259
841.846536 83.073 75.7642
847.946903 83.119 75.8945
854.091476 83.162 76.0250
860.280575 83.204 76.1599
866.514523 83.244 76.3022
872.793644 83.285 76.4551
879.118267 83.326 76.6180
885.488720 83.368 76.7864
891.905336 83.412 76.9561
898.368450 83.456 77.1271
904.878398 83.501 77.3017
911.435520 83.548 77.4810
918.040157 83.596 77.6628
924.692655 83.647 77.8437
931.393359 83.699 78.0198
938.142619 83.753 78.1876
944.940787 83.809 78.3450
951.788218 83.865 78.4934
958.685268 83.922 78.6359
965.632296 83.979 78.7758
972.629666 84.037 78.9160
979.677741 84.095 79.0575
986.776890 84.155 79.1990
993.927482 84.214 79.3402
1001.129891 84.275 79.4839
1008.384491 84.337 79.6335
1015.691660 84.401 79.7886
1023.051781 84.469 79.9448
1030.465236 84.540 80.0946
1037.932411 84.616 80.2268
1045.453698 84.695 80.3298
1053.029486 84.775 80.3987
1060.660172 84.854 80.4371
1068.346153 84.931 80.4532
1076.087829 85.006 80.4559
1083.885605 85.079 80.4515
1091.739887 85.152 80.4417
1099.651084 85.223 80.4260
1107.619609 85.293 80.4043
1115.645878 85.362 80.3781
1123.730308 85.430 80.3490
1131.873321 85.497 80.3191
1140.075341 85.564 80.2894
1148.336797 85.630 80.2605
1156.658119 85.695 80.2330
1165.039741 85.761 80.2081
1173.482099 85.827 80.1876
1181.985634 85.896 80.1710
1190.550789 85.967 80.1524
1199.178011 86.041 80.1206
1207.867749 86.117 80.0638
1216.620457 86.194 79.9763
1225.436590 86.268 79.8614
1234.316609 86.340 79.7276
1243.260976 86.408 79.5843
1252.270157 86.473 79.4401
1261.344623 86.534 79.3000
1270.484846 86.594 79.1652
1279.691303 86.652 79.0369
1288.964474 86.709 78.9160
1298.304842 86.765 78.8019
1307.712894 86.821 78.6922
1317.189120 86.877 78.5840
1326.734016 86.933 78.4753
1336.348077 86.988 78.3672
1346.031806 87.044 78.2626
1355.785708 87.099 78.1653
1365.610290 87.155 78.0792
1375.506065 87.212 78.0088
1385.473549 87.271 77.9589
1395.513261 87.332 77.9304
1405.625726 87.396 77.9178
1415.811469 87.465 77.9095
1426.071023 87.537 77.8909
1436.404921 87.611 77.8530
1446.813703 87.686 77.7953
1457.297912 87.759 77.7234
1467.858093 87.830 77.6437
1478.494798 87.898 77.5614
1489.208581 87.964 77.4804
1500.000000 88.026 77.4041
1510.869618 88.084 77.3358
1521.818002 88.138 77.2778
1532.845723 88.188 77.2324
1543.953355 88.234 77.2013
1555.141477 88.278 77.1850
1566.410674 88.323 77.1794
1577.761531 88.370 77.1739
1589.194642 88.418 77.1545
1600.710601 88.468 77.1123
1612.310010 88.517 77.0472
1623.993473 88.564 76.9653
1635.761599 88.610 76.8750
1647.615002 88.652 76.7834
1659.554299 88.693 76.6960
1671.580114 88.733 76.6167
1683.693072 88.771 76.5468
1695.893807 88.809 76.4853
1708.182952 88.846 76.4311
1720.561150 88.882 76.3857
1733.029045 88.915 76.3538
1745.587288 88.947 76.3425
1758.236533 88.977 76.3604
1770.977440 89.008 76.4142
1783.810673 89.042 76.5040
1796.736900 89.081 76.6205
1809.756796 89.127 76.7480
1822.871040 89.180 76.8730
1836.080315 89.239 76.9879
1849.385310 89.304 77.0886
1862.786718 89.375 77.1711
1876.285239 89.451 77.2308
1889.881575 89.534 77.2629
1903.576436 89.622 77.2635
1917.370535 89.717 77.2303
1931.264593 89.817 77.1626
1945.259332 89.923 77.0586
1959.355483 90.033 76.9127
1973.553781 90.145 76.7176
1987.854965 90.257 76.4709
2002.259781 90.365 76.1783
2016.768981 90.468 75.8515
2031.383320 90.566 75.5038
2046.103561 90.658 75.1482
2060.930471 90.745 74.7945
2075.864823 90.827 74.4485
2090.907395 90.905 74.1131
2106.058972 90.979 73.7922
2121.320344 91.050 73.4919
2136.692305 91.119 73.2206
2152.175658 91.186 72.9854
2167.771210 91.256 72.7863
2183.479774 91.329 72.6123
2199.302169 91.408 72.4448
2215.239219 91.493 72.2659
2231.291755 91.583 72.0613
2247.460615 91.677 71.8214
2263.746641 91.773 71.5407
2280.150683 91.869 71.2183
2296.673595 91.966 70.8569
2313.316238 92.061 70.4618
2330.079481 92.154 70.0363
2346.964198 92.247 69.5784
2363.971268 92.338 69.0838
2381.101578 92.427 68.5510
2398.356022 92.510 67.9836
2415.735498 92.589 67.3890
2433.240913 92.662 66.7759
2450.873180 92.730 66.1512
2468.633217 92.794 65.5190
2486.521951 92.852 64.8821
2504.540314 92.905 64.2451
2522.689246 92.955 63.6150
2540.969692 93.001 62.9978
2559.382606 93.045 62.3934
2577.928947 93.089 61.7938
2596.609683 93.132 61.1892
2615.425787 93.173 60.5735
2634.378241 93.212 59.9455
2653.468031 93.248 59.3102
2672.696154 93.279 58.6765
2692.063613 93.307 58.0554
2711.571415 93.333 57.4535
2731.220579 93.359 56.8684
2751.012130 93.387 56.2898
2770.947098 93.416 55.7054
2791.026522 93.446 55.1054
2811.251451 93.475 54.4840
2831.622938 93.504 53.8387
2852.142045 93.529 53.1687
2872.809842 93.550 52.4768
2893.627406 93.566 51.7707
2914.595823 93.576 51.0633
2935.716186 93.581 50.3672
2956.989596 93.582 49.6878
2978.417161 93.582 49.0229
3000.000000 93.579 48.3673
3021.739237 93.575 47.7169
3043.636005 93.568 47.0713
3065.691446 93.559 46.4348
3087.906710 93.547 45.8140
3110.282955 93.534 45.2122
3132.821347 93.521 44.6255
3155.523062 93.508 44.0465
3178.389283 93.495 43.4683
3201.421202 93.482 42.8860
3224.620020 93.467 42.2974
3247.986946 93.451 41.7019
3271.523198 93.431 41.1024
3295.230004 93.407 40.5075
3319.108599 93.379 39.9282
3343.160228 93.348 39.3712
3367.386145 93.316 38.8368
3391.787613 93.284 38.3213
3416.365904 93.251 37.8217
3441.122300 93.217 37.3395
3466.058091 93.182 36.8816
3491.174576 93.147 36.4545
3516.473066 93.113 36.0587
3541.954880 93.082 35.6876
3567.621345 93.055 35.3311
3593.473800 93.030 34.9789
3619.513592 93.008 34.6219
3645.742080 92.986 34.2542
3672.160630 92.964 33.8766
3698.770620 92.939 33.4969
3725.573436 92.912 33.1237
3752.570477 92.884 32.7610
3779.763150 92.854 32.4078
3807.152872 92.822 32.0632
3834.741071 92.787 31.7305
3862.529185 92.749 31.4184
3890.518664 92.709 31.1349
3918.710966 92.669 30.8815
3947.107561 92.631 30.6523
3975.709929 92.596 30.4375
4004.519563 92.564 30.2248
4033.537962 92.534 30.0036
4062.766641 92.505 29.7697
4092.207123 92.476 29.5269
4121.860942 92.447 29.2804
4151.729646 92.417 29.0325
4181.814790 92.386 28.7823
4212.117944 92.353 28.5312
4242.640687 92.318 28.2868
4273.384610 92.280 28.0599
4304.351317 92.241 27.8576
4335.542421 92.202 27.6797
4366.959549 92.165 27.5197
4398.604338 92.130 27.3663
4430.478438 92.097 27.2088
4462.583511 92.066 27.0422
4494.921231 92.035 26.8684
4527.493283 92.004 26.6897
4560.301365 91.972 26.5065
4593.347189 91.939 26.3190
4626.632476 91.904 26.1339
4660.158962 91.867 25.9625
4693.928395 91.829 25.8159
4727.942535 91.792 25.6989
4762.203156 91.758 25.6086
4796.712043 91.727 25.5356
4831.470996 91.701 25.4691
4866.481826 91.680 25.4031
4901.746360 91.662 25.3353
4937.266434 91.648 25.2632
4973.043902 91.638 25.1827
5009.080628 91.630 25.0935
5045.378492 91.623 25.0012
5081.939384 91.619 24.9130
5118.765212 91.619 24.8315
5155.857894 91.624 24.7516
5193.219366 91.638 24.6589
5230.851574 91.658 24.5354
5268.756481 91.686 24.3644
5306.936062 91.720 24.1310
5345.392309 91.757 23.8199
5384.127225 91.795 23.4178
5423.142830 91.830 22.9200
5462.441159 91.860 22.3306
5502.024259 91.880 21.6583
5541.894195 91.890 20.9122
5582.053045 91.889 20.0986
5622.502902 91.876 19.2233
5663.245876 91.848 18.2957
5704.284090 91.804 17.3291
5745.619684 91.743 16.3379
5787.254813 91.663 15.3391
5829.191647 91.564 14.3557
5871.432373 91.444 13.4159
5913.979192 91.305 12.5482
5956.834323 91.150 11.7764
6000.000000 90.982 11.1161
6043.478473 90.804 10.5769
6087.272010 90.620 10.1636
6131.382892 90.432 9.8753
6175.813420 90.244 9.7068
6220.565910 90.057 9.6539
6265.642695 89.873 9.7155
6311.046124 89.693 9.8932
6356.778566 89.520 10.1864
6402.842404 89.356 10.5895
6449.240040 89.203 11.0929
6495.973891 89.065 11.6836
6543.046396 88.942 12.3451
6590.460007 88.835 13.0609
6638.217197 88.745 13.8184
6686.320456 88.671 14.6105
6734.772290 88.614 15.4325
6783.575226 88.575 16.2778
6832.731809 88.555 17.1375
6882.244600 88.554 17.9983
6932.116181 88.573 18.8422
6982.349153 88.612 19.6488
7032.946133 88.672 20.4002
7083.909760 88.751 21.0822
7135.242690 88.852 21.6808
7186.947600 88.975 22.1793
7239.027185 89.121 22.5554
7291.484160 89.292 22.7788
7344.321260 89.486 22.8114
7397.541239 89.702 22.6115
7451.146872 89.935 22.1399
7505.140954 90.181 21.3629
7559.526299 90.432 20.2499
7614.305743 90.682 18.7751
7669.482141 90.923 16.9186
7725.058371 91.143 14.6677
7781.037328 91.332 12.0242
7837.421932 91.474 9.0119
7894.215122 91.558 5.6816
7951.419859 91.572 2.1080
8009.039125 91.510 -1.6156
8067.075924 91.367 -5.3873
8125.533282 91.144 -9.1079
8184.414245 90.845 -12.6892
8243.721885 90.475 -16.0546
8303.459292 90.040 -19.1387
8363.629581 89.549 -21.8863
8424.235888 89.009 -24.2524
8485.281374 88.430 -26.2048
8546.769221 87.824 -27.7285
8608.702634 87.201 -28.8253
8671.084842 86.571 -29.5079
8733.919097 85.941 -29.7941
8797.208675 85.320 -29.7050
8860.956876 84.714 -29.2670
8925.167022 84.129 -28.5181
8989.842461 83.572 -27.5061
9054.986566 83.043 -26.2764
9120.602731 82.543 -24.8640
9186.694378 82.073 -23.2963
9253.264952 81.633 -21.5996
9320.317925 81.221 -19.8016
9387.856790 80.837 -17.9260
9455.885071 80.478 -15.9848
9524.406312 80.142 -13.9808
9593.424086 79.828 -11.9115
9662.941992 79.535 -9.7706
9732.963653 79.264 -7.5544
9803.492719 79.018 -5.2677
9874.532869 78.797 -2.9225
9946.087805 78.602 -0.5345
10018.161257 78.431 1.8865
10090.756983 78.285 4.3381
10163.878768 78.162 6.8188
10237.530423 78.064 9.3207
10311.715789 77.992 11.8296
10386.438732 77.944 14.3312
10461.703149 77.920 16.8187
10537.512962 77.920 19.2903
10613.872125 77.945 21.7416
10690.784618 77.995 24.1611
10768.254450 78.070 26.5337
10846.285661 78.170 28.8482
10924.882318 78.293 31.0982
11004.048518 78.442 33.2747
11083.788390 78.616 35.3605
11164.106090 78.815 37.3311
11245.005805 79.038 39.1624
11326.491752 79.284 40.8351
11408.568180 79.550 42.3303
11491.239368 79.834 43.6262
11574.509626 80.132 44.7003
11658.383294 80.438 45.5379
11742.864745 80.748 46.1366
11827.958384 81.056 46.5018
11913.668646 81.358 46.6403
12000.000000 81.651 46.5594
12086.956947 81.930 46.2737
12174.544019 82.192 45.8071
12262.765784 82.434 45.1880
12351.626840 82.656 44.4406
12441.131819 82.857 43.5849
12531.285389 83.036 42.6406
12622.092249 83.192 41.6288
12713.557132 83.327 40.5693
12805.684808 83.439 39.4800
12898.480079 83.528 38.3821
12991.947783 83.595 37.3041
13086.092792 83.641 36.2796
13180.920015 83.669 35.3399
13276.434395 83.683 34.5123
13372.640911 83.688 33.8214
13469.544580 83.691 33.2882
13567.150452 83.700 32.9214
13665.463617 83.723 32.7116
13764.489200 83.771 32.6356
13864.232362 83.850 32.6605
13964.698305 83.970 32.7417
14065.892266 84.138 32.8195
14167.819519 84.360 32.8207
14270.485380 84.640 32.6624
14373.895200 84.978 32.2514
14478.054370 85.371 31.4850
14582.968320 85.811 30.2597
14688.642520 86.284 28.4831
14795.082478 86.772 26.0793
14902.293745 87.253 22.9972
15010.281908 87.702 19.2217
15119.052599 88.092 14.7844
15228.611486 88.400 9.7667
15338.964283 88.604 4.2979
15450.116741 88.690 -1.4498
15562.074656 88.650 -7.2765
15674.843864 88.489 -12.9775
15788.430244 88.218 -18.3681
15902.839718 87.856 -23.3011
16018.078250 87.431 -27.6792
16134.151848 86.970 -31.4615
16251.066563 86.504 -34.6643
16368.828491 86.062 -37.3528
16487.443769 85.668 -39.6343
16606.918584 85.341 -41.6510
16727.259161 85.093 -43.5670
16848.471777 84.925 -45.5537
16970.562748 84.831 -47.7770
17093.538442 84.795 -50.3809
17217.405268 84.792 -53.4696
17342.169684 84.790 -57.0940
17467.838194 84.756 -61.2438
17594.417350 84.655 -65.8401
17721.913751 84.456 -70.7350
17850.334044 84.138 -75.7195
17979.684923 83.689 -80.5399
18109.973131 83.117 -84.9290
18241.205462 82.446 -88.6632
18373.388756 81.724 -91.6433
18506.529905 81.010 -93.9685
18640.635849 80.356 -95.9342
18775.713581 79.780 -97.8953
18911.770141 79.267 -100.0822
19048.812624 78.777 -102.5300
19186.848172 78.273 -105.1224
19325.883983 77.735 -107.6705
19465.927305 77.170 -109.9904
19606.985439 76.610 -111.9498
19749.065738 76.108 -113.4723
19892.175609 75.729 -114.5150
20036.322514 75.524 -115.0472
