* Measurement data measured by REW V5.31
* Source: EXCL: Microphone (USB Sound Device        ), MICROPHONE (Master Volume), L, volume: 0.390
* Format: 256k Log Swept Sine, 1 sweep at -4.0 dBFS with no timing reference
* Dated: Aug 27, 2024 12:20:24 PM
* REW Settings:
*  C-weighting compensation: Off
*  Target level: 75.0 dB
* Note: EW300 DSP
* Measurement: Simgot EW300DSPSilver Fm
* Smoothing: 1/12 octave
* Frequency Step: 96 ppo
* Start Frequency: 0.36621094 Hz
*
* Freq(Hz) SPL(dB) Phase(degrees)
0.366211 89.409 -59.2489
0.368865 89.415 -59.3095
0.371538 89.424 -59.4000
0.374230 89.435 -59.5135
0.376942 89.448 -59.6438
0.379673 89.461 -59.7864
0.382424 89.475 -59.9384
0.385196 89.489 -60.0979
0.387987 89.504 -60.2639
0.390798 89.519 -60.4359
0.393630 89.534 -60.6135
0.396483 89.549 -60.7966
0.399356 89.564 -60.9851
0.402250 89.579 -61.1791
0.405165 89.594 -61.3784
0.408101 89.610 -61.5831
0.411058 89.625 -61.7932
0.414037 89.641 -62.0087
0.417037 89.657 -62.2297
0.420059 89.673 -62.4560
0.423103 89.689 -62.6878
0.426169 89.705 -62.9251
0.429257 89.721 -63.1677
0.432368 89.738 -63.4157
0.435501 89.754 -63.6692
0.438656 89.771 -63.9280
0.441835 89.788 -64.1922
0.445037 89.805 -64.4618
0.448262 89.822 -64.7366
0.451510 89.839 -65.0168
0.454782 89.856 -65.3022
0.458077 89.873 -65.5929
0.461397 89.891 -65.8887
0.464740 89.909 -66.1897
0.468108 89.926 -66.4958
0.471500 89.944 -66.8070
0.474917 89.962 -67.1231
0.478358 89.980 -67.4442
0.481825 89.999 -67.7701
0.485316 90.017 -68.1009
0.488833 90.036 -68.4364
0.492375 90.054 -68.7765
0.495943 90.073 -69.1212
0.499537 90.092 -69.4704
0.503157 90.111 -69.8241
0.506803 90.130 -70.1820
0.510475 90.150 -70.5441
0.514175 90.169 -70.9104
0.517900 90.189 -71.2806
0.521653 90.209 -71.6548
0.525434 90.229 -72.0327
0.529241 90.249 -72.4144
0.533076 90.269 -72.7995
0.536939 90.289 -73.1881
0.540830 90.310 -73.5801
0.544749 90.331 -73.9751
0.548696 90.351 -74.3733
0.552673 90.372 -74.7743
0.556677 90.393 -75.1781
0.560711 90.415 -75.5845
0.564774 90.436 -75.9934
0.568867 90.458 -76.4046
0.572989 90.479 -76.8180
0.577141 90.501 -77.2335
0.581324 90.523 -77.6508
0.585536 90.546 -78.0699
0.589779 90.568 -78.4905
0.594053 90.591 -78.9125
0.598358 90.613 -79.3358
0.602694 90.636 -79.7602
0.607061 90.659 -80.1855
0.611460 90.682 -80.6117
0.615891 90.706 -81.0384
0.620354 90.729 -81.4656
0.624849 90.753 -81.8931
0.629377 90.777 -82.3207
0.633938 90.801 -82.7483
0.638532 90.825 -83.1758
0.643159 90.850 -83.6029
0.647819 90.874 -84.0295
0.652514 90.899 -84.4555
0.657242 90.924 -84.8808
0.662005 90.949 -85.3051
0.666802 90.974 -85.7283
0.671634 91.000 -86.1502
0.676501 91.025 -86.5709
0.681403 91.051 -86.9900
0.686341 91.077 -87.4074
0.691314 91.103 -87.8232
0.696324 91.130 -88.2371
0.701370 91.156 -88.6490
0.706452 91.183 -89.0591
0.711571 91.209 -89.4674
0.716728 91.235 -89.8740
0.721921 91.261 -90.2796
0.727153 91.285 -90.6848
0.732422 91.309 -91.0906
0.737729 91.331 -91.4983
0.743075 91.351 -91.9092
0.748460 91.371 -92.3242
0.753883 91.390 -92.7440
0.759346 91.408 -93.1691
0.764849 91.426 -93.5996
0.770391 91.444 -94.0357
0.775974 91.462 -94.4773
0.781597 91.479 -94.9243
0.787261 91.497 -95.3766
0.792966 91.514 -95.8339
0.798712 91.531 -96.2962
0.804500 91.547 -96.7633
0.810329 91.564 -97.2349
0.816201 91.580 -97.7109
0.822116 91.596 -98.1911
0.828073 91.612 -98.6752
0.834074 91.628 -99.1630
0.840118 91.644 -99.6543
0.846206 91.659 -100.1489
0.852338 91.674 -100.6465
0.858514 91.688 -101.1468
0.864735 91.703 -101.6497
0.871001 91.717 -102.1548
0.877313 91.731 -102.6619
0.883670 91.745 -103.1706
0.890074 91.758 -103.6808
0.896524 91.771 -104.1921
0.903020 91.783 -104.7043
0.909564 91.795 -105.2170
0.916155 91.807 -105.7299
0.922794 91.818 -106.2427
0.929481 91.829 -106.7552
0.936216 91.840 -107.2669
0.943000 91.850 -107.7777
0.949834 91.860 -108.2870
0.956717 91.869 -108.7947
0.963649 91.877 -109.3004
0.970632 91.886 -109.8037
0.977666 91.893 -110.3044
0.984750 91.900 -110.8019
0.991886 91.907 -111.2961
0.999074 91.913 -111.7866
1.006314 91.918 -112.2729
1.013606 91.923 -112.7549
1.020951 91.926 -113.2319
1.028349 91.930 -113.7038
1.035801 91.932 -114.1702
1.043307 91.934 -114.6307
1.050867 91.935 -115.0850
1.058482 91.936 -115.5329
1.066152 91.935 -115.9742
1.073878 91.934 -116.4089
1.081660 91.932 -116.8374
1.089498 91.929 -117.2602
1.097393 91.925 -117.6785
1.105345 91.921 -118.0937
1.113355 91.915 -118.5073
1.121423 91.909 -118.9209
1.129549 91.902 -119.3353
1.137734 91.894 -119.7515
1.145979 91.885 -120.1699
1.154283 91.875 -120.5908
1.162647 91.864 -121.0144
1.171072 91.852 -121.4408
1.179558 91.839 -121.8700
1.188106 91.826 -122.3020
1.196715 91.811 -122.7368
1.205387 91.795 -123.1742
1.214122 91.778 -123.6142
1.222920 91.760 -124.0566
1.231782 91.742 -124.5013
1.240708 91.722 -124.9479
1.249699 91.700 -125.3964
1.258754 91.678 -125.8463
1.267876 91.655 -126.2974
1.277063 91.630 -126.7493
1.286318 91.604 -127.2014
1.295639 91.577 -127.6535
1.305027 91.549 -128.1048
1.314484 91.520 -128.5549
1.324009 91.489 -129.0029
1.333604 91.457 -129.4483
1.343268 91.423 -129.8902
1.353002 91.389 -130.3276
1.362806 91.353 -130.7597
1.372681 91.315 -131.1855
1.382628 91.276 -131.6037
1.392647 91.236 -132.0132
1.402739 91.194 -132.4128
1.412904 91.151 -132.8013
1.423142 91.106 -133.1774
1.433455 91.059 -133.5401
1.443843 91.011 -133.8885
1.454305 90.960 -134.2222
1.464844 90.907 -134.5414
1.475459 90.852 -134.8466
1.486150 90.794 -135.1387
1.496920 90.732 -135.4184
1.507767 90.668 -135.6864
1.518693 90.600 -135.9428
1.529698 90.529 -136.1878
1.540783 90.456 -136.4213
1.551948 90.379 -136.6431
1.563194 90.300 -136.8528
1.574521 90.218 -137.0501
1.585931 90.134 -137.2343
1.597423 90.047 -137.4051
1.608999 89.959 -137.5618
1.620658 89.869 -137.7037
1.632402 89.777 -137.8301
1.644232 89.684 -137.9402
1.656146 89.591 -138.0332
1.668147 89.496 -138.1082
1.680235 89.401 -138.1642
1.692411 89.306 -138.2001
1.704675 89.211 -138.2150
1.717028 89.117 -138.2075
1.729470 89.023 -138.1765
1.742003 88.931 -138.1205
1.754626 88.840 -138.0384
1.767341 88.751 -137.9283
1.780147 88.664 -137.7888
1.793047 88.579 -137.6176
1.806040 88.495 -137.4124
1.819128 88.414 -137.1703
1.832310 88.334 -136.8879
1.845587 88.255 -136.5614
1.858961 88.175 -136.1871
1.872432 88.095 -135.7622
1.886001 88.014 -135.2841
1.899667 87.932 -134.7513
1.913433 87.850 -134.1627
1.927299 87.767 -133.5178
1.941265 87.684 -132.8166
1.955332 87.602 -132.0595
1.969501 87.522 -131.2474
1.983773 87.443 -130.3816
1.998148 87.367 -129.4641
2.012627 87.294 -128.4975
2.027212 87.225 -127.4849
2.041902 87.160 -126.4304
2.056698 87.102 -125.3385
2.071602 87.049 -124.2148
2.086614 87.004 -123.0653
2.101734 86.967 -121.8965
2.116964 86.939 -120.7155
2.132304 86.922 -119.5291
2.147756 86.915 -118.3436
2.163320 86.921 -117.1641
2.178996 86.939 -115.9938
2.194786 86.972 -114.8335
2.210690 87.019 -113.6821
2.226710 87.081 -112.5382
2.242845 87.157 -111.4015
2.259098 87.248 -110.2739
2.275468 87.353 -109.1595
2.291957 87.471 -108.0632
2.308566 87.602 -106.9911
2.325295 87.742 -105.9491
2.342145 87.893 -104.9431
2.359117 88.052 -103.9784
2.376212 88.219 -103.0601
2.393431 88.391 -102.1924
2.410775 88.568 -101.3789
2.428244 88.748 -100.6228
2.445840 88.930 -99.9264
2.463564 89.112 -99.2919
2.481416 89.292 -98.7205
2.499397 89.471 -98.2131
2.517509 89.647 -97.7698
2.535752 89.820 -97.3900
2.554127 89.991 -97.0720
2.572635 90.159 -96.8133
2.591277 90.326 -96.6107
2.610055 90.493 -96.4607
2.628968 90.661 -96.3596
2.648019 90.830 -96.3040
2.667208 91.000 -96.2906
2.686535 91.170 -96.3163
2.706003 91.342 -96.3781
2.725612 91.513 -96.4733
2.745363 91.683 -96.5992
2.765257 91.853 -96.7535
2.785295 92.020 -96.9341
2.805478 92.185 -97.1391
2.825808 92.347 -97.3668
2.846285 92.505 -97.6163
2.866910 92.659 -97.8871
2.887685 92.808 -98.1792
2.908611 92.953 -98.4937
2.929688 93.092 -98.8322
2.950917 93.226 -99.1966
2.972301 93.355 -99.5882
2.993839 93.479 -100.0072
3.015534 93.599 -100.4525
3.037386 93.715 -100.9217
3.059396 93.826 -101.4119
3.081565 93.934 -101.9198
3.103896 94.037 -102.4417
3.126388 94.136 -102.9742
3.149043 94.232 -103.5137
3.171862 94.324 -104.0570
3.194847 94.412 -104.6015
3.217998 94.497 -105.1451
3.241317 94.578 -105.6867
3.264805 94.656 -106.2267
3.288463 94.729 -106.7667
3.312293 94.799 -107.3097
3.336295 94.864 -107.8590
3.360471 94.925 -108.4167
3.384822 94.981 -108.9836
3.409350 95.032 -109.5589
3.434056 95.080 -110.1405
3.458940 95.123 -110.7255
3.484005 95.162 -111.3102
3.509252 95.197 -111.8909
3.534681 95.229 -112.4636
3.560295 95.258 -113.0244
3.586094 95.284 -113.5703
3.612081 95.307 -114.0987
3.638255 95.327 -114.6085
3.664620 95.343 -115.1002
3.691175 95.356 -115.5753
3.717923 95.366 -116.0361
3.744864 95.371 -116.4842
3.772001 95.373 -116.9201
3.799335 95.372 -117.3437
3.826866 95.367 -117.7537
3.854597 95.360 -118.1479
3.882529 95.351 -118.5237
3.910664 95.340 -118.8774
3.939002 95.329 -119.2050
3.967546 95.317 -119.5018
3.996296 95.304 -119.7637
4.025255 95.291 -119.9881
4.054423 95.278 -120.1759
4.083804 95.263 -120.3331
4.113396 95.248 -120.4673
4.143204 95.232 -120.5849
4.173227 95.216 -120.6899
4.203468 95.200 -120.7840
4.233928 95.185 -120.8665
4.264609 95.172 -120.9356
4.295512 95.161 -120.9886
4.326639 95.154 -121.0222
4.357992 95.150 -121.0334
4.389572 95.149 -121.0196
4.421380 95.153 -120.9793
4.453419 95.161 -120.9128
4.485691 95.173 -120.8219
4.518196 95.189 -120.7105
4.550936 95.208 -120.5836
4.583914 95.232 -120.4469
4.617131 95.259 -120.3066
4.650589 95.290 -120.1685
4.684289 95.325 -120.0377
4.718233 95.364 -119.9181
4.752424 95.408 -119.8118
4.786862 95.456 -119.7194
4.821549 95.509 -119.6404
4.856488 95.566 -119.5750
4.891680 95.628 -119.5240
4.927127 95.693 -119.4896
4.962831 95.761 -119.4743
4.998794 95.831 -119.4813
5.035017 95.902 -119.5137
5.071503 95.973 -119.5742
5.108253 96.045 -119.6648
5.145270 96.118 -119.7863
5.182555 96.190 -119.9385
5.220110 96.263 -120.1201
5.257937 96.336 -120.3294
5.296038 96.408 -120.5642
5.334415 96.480 -120.8223
5.373071 96.549 -121.1019
5.412006 96.616 -121.4016
5.451224 96.681 -121.7208
5.490725 96.742 -122.0595
5.530514 96.800 -122.4179
5.570590 96.855 -122.7955
5.610957 96.906 -123.1907
5.651616 96.954 -123.6004
5.692570 96.999 -124.0209
5.733821 97.040 -124.4477
5.775370 97.077 -124.8771
5.817221 97.111 -125.3061
5.859375 97.141 -125.7331
5.901834 97.167 -126.1575
5.944602 97.189 -126.5792
5.987679 97.207 -126.9971
6.031068 97.222 -127.4091
6.074771 97.234 -127.8122
6.118792 97.244 -128.2032
6.163131 97.251 -128.5786
6.207792 97.256 -128.9360
6.252776 97.259 -129.2737
6.298086 97.260 -129.5913
6.343725 97.260 -129.8890
6.389694 97.258 -130.1672
6.435996 97.256 -130.4261
6.482634 97.255 -130.6659
6.529610 97.254 -130.8861
6.576926 97.254 -131.0865
6.624585 97.256 -131.2670
6.672590 97.259 -131.4279
6.720942 97.265 -131.5711
6.769645 97.272 -131.6993
6.818700 97.282 -131.8159
6.868111 97.295 -131.9246
6.917881 97.311 -132.0283
6.968010 97.330 -132.1293
7.018504 97.353 -132.2292
7.069362 97.379 -132.3296
7.120590 97.408 -132.4332
7.172189 97.439 -132.5429
7.224161 97.473 -132.6624
7.276511 97.510 -132.7948
7.329239 97.548 -132.9426
7.382350 97.588 -133.1070
7.435845 97.629 -133.2884
7.489729 97.671 -133.4871
7.544002 97.714 -133.7030
7.598669 97.757 -133.9363
7.653732 97.799 -134.1871
7.709194 97.840 -134.4553
7.765058 97.879 -134.7405
7.821327 97.917 -135.0411
7.878004 97.953 -135.3549
7.935091 97.988 -135.6793
7.992592 98.019 -136.0116
8.050510 98.049 -136.3496
8.108847 98.075 -136.6916
8.167607 98.099 -137.0359
8.226793 98.121 -137.3803
8.286408 98.139 -137.7220
8.346454 98.156 -138.0584
8.406936 98.170 -138.3867
8.467856 98.183 -138.7054
8.529218 98.194 -139.0132
8.591024 98.203 -139.3093
8.653278 98.212 -139.5931
8.715983 98.220 -139.8638
8.779143 98.228 -140.1209
8.842760 98.236 -140.3644
8.906839 98.244 -140.5946
8.971381 98.253 -140.8129
9.036392 98.263 -141.0208
9.101873 98.274 -141.2201
9.167829 98.287 -141.4124
9.234263 98.301 -141.5993
9.301178 98.316 -141.7824
9.368578 98.333 -141.9638
9.436467 98.352 -142.1457
9.504847 98.371 -142.3302
9.573723 98.392 -142.5187
9.643099 98.413 -142.7123
9.712976 98.433 -142.9119
9.783361 98.453 -143.1179
9.854255 98.470 -143.3308
9.925663 98.485 -143.5508
9.997588 98.498 -143.7775
10.070035 98.508 -144.0103
10.143007 98.515 -144.2479
10.216507 98.519 -144.4893
10.290540 98.520 -144.7332
10.365109 98.519 -144.9786
10.440219 98.517 -145.2240
10.515873 98.512 -145.4683
10.592076 98.506 -145.7100
10.668830 98.498 -145.9482
10.746141 98.490 -146.1822
10.824012 98.481 -146.4116
10.902447 98.471 -146.6361
10.981451 98.462 -146.8558
11.061027 98.452 -147.0707
11.141180 98.441 -147.2814
11.221913 98.431 -147.4885
11.303232 98.421 -147.6929
11.385140 98.411 -147.8956
11.467641 98.402 -148.0972
11.550741 98.393 -148.2985
11.634442 98.383 -148.5002
11.718750 98.375 -148.7029
11.803669 98.366 -148.9069
11.889203 98.357 -149.1124
11.975357 98.349 -149.3191
12.062136 98.340 -149.5268
12.149543 98.331 -149.7350
12.237583 98.322 -149.9431
12.326262 98.312 -150.1505
12.415583 98.302 -150.3566
12.505552 98.292 -150.5606
12.596172 98.281 -150.7622
12.687449 98.269 -150.9612
12.779387 98.258 -151.1575
12.871992 98.246 -151.3512
12.965268 98.235 -151.5428
13.059220 98.223 -151.7329
13.153852 98.213 -151.9225
13.249170 98.203 -152.1124
13.345179 98.193 -152.3035
13.441884 98.185 -152.4968
13.539289 98.176 -152.6930
13.637401 98.168 -152.8929
13.736223 98.160 -153.0966
13.835761 98.152 -153.3042
13.936021 98.143 -153.5153
14.037007 98.134 -153.7294
14.138725 98.124 -153.9456
14.241180 98.113 -154.1628
14.344377 98.102 -154.3797
14.448323 98.089 -154.5953
14.553021 98.076 -154.8084
14.658478 98.063 -155.0182
14.764700 98.049 -155.2240
14.871691 98.035 -155.4256
14.979457 98.022 -155.6231
15.088005 98.009 -155.8171
15.197339 97.997 -156.0082
15.307465 97.985 -156.1976
15.418389 97.975 -156.3865
15.530117 97.965 -156.5762
15.642655 97.955 -156.7677
15.756008 97.947 -156.9620
15.870182 97.938 -157.1598
15.985184 97.930 -157.3613
16.101019 97.921 -157.5664
16.217694 97.913 -157.7746
16.335214 97.904 -157.9852
16.453586 97.894 -158.1971
16.572815 97.885 -158.4091
16.692909 97.875 -158.6203
16.813872 97.865 -158.8296
16.935713 97.855 -159.0361
17.058436 97.845 -159.2394
17.182048 97.835 -159.4393
17.306556 97.826 -159.6359
17.431967 97.817 -159.8295
17.558286 97.808 -160.0205
17.685521 97.800 -160.2097
17.813677 97.792 -160.3975
17.942762 97.784 -160.5844
18.072783 97.776 -160.7707
18.203746 97.768 -160.9566
18.335658 97.760 -161.1419
18.468526 97.752 -161.3266
18.602356 97.745 -161.5104
18.737156 97.737 -161.6929
18.872934 97.729 -161.8740
19.009695 97.721 -162.0536
19.147447 97.714 -162.2316
19.286197 97.706 -162.4081
19.425953 97.699 -162.5832
19.566721 97.691 -162.7571
19.708510 97.683 -162.9300
19.851326 97.675 -163.1019
19.995177 97.667 -163.2725
20.140070 97.658 -163.4418
20.286013 97.649 -163.6095
20.433014 97.639 -163.7752
20.581080 97.630 -163.9388
20.730219 97.620 -164.1003
20.880439 97.610 -164.2597
21.031747 97.600 -164.4174
21.184152 97.590 -164.5742
21.337661 97.581 -164.7305
21.492282 97.572 -164.8871
21.648024 97.563 -165.0447
21.804895 97.553 -165.2036
21.962902 97.544 -165.3639
22.122054 97.534 -165.5253
22.282360 97.524 -165.6873
22.443827 97.514 -165.8494
22.606464 97.503 -166.0108
22.770280 97.491 -166.1710
22.935283 97.480 -166.3297
23.101481 97.468 -166.4869
23.268884 97.456 -166.6430
23.437500 97.444 -166.7983
23.607338 97.432 -166.9537
23.778406 97.420 -167.1096
23.950714 97.408 -167.2664
24.124271 97.396 -167.4243
24.299086 97.383 -167.5830
24.475167 97.371 -167.7422
24.652524 97.358 -167.9011
24.831166 97.344 -168.0593
25.011103 97.331 -168.2163
25.192344 97.318 -168.3720
25.374898 97.305 -168.5265
25.558775 97.292 -168.6802
25.743984 97.279 -168.8334
25.930536 97.266 -168.9867
26.118439 97.253 -169.1402
26.307704 97.241 -169.2939
26.498341 97.228 -169.4477
26.690359 97.215 -169.6010
26.883768 97.201 -169.7531
27.078579 97.188 -169.9035
27.274801 97.173 -170.0515
27.472446 97.159 -170.1966
27.671522 97.144 -170.3386
27.872042 97.130 -170.4772
28.074014 97.115 -170.6127
28.277450 97.100 -170.7453
28.482360 97.085 -170.8754
28.688755 97.070 -171.0039
28.896645 97.056 -171.1315
29.106042 97.041 -171.2593
29.316957 97.027 -171.3880
29.529400 97.012 -171.5182
29.743382 96.997 -171.6499
29.958915 96.981 -171.7825
30.176009 96.965 -171.9151
30.394677 96.948 -172.0460
30.614929 96.930 -172.1738
30.836778 96.913 -172.2976
31.060234 96.895 -172.4169
31.285309 96.877 -172.5321
31.512015 96.859 -172.6445
31.740364 96.842 -172.7559
31.970368 96.825 -172.8680
32.202039 96.809 -172.9823
32.435388 96.793 -173.0994
32.670428 96.776 -173.2191
32.907171 96.759 -173.3407
33.145630 96.741 -173.4629
33.385817 96.723 -173.5842
33.627745 96.705 -173.7037
33.871425 96.686 -173.8207
34.116871 96.668 -173.9350
34.364096 96.649 -174.0465
34.613113 96.630 -174.1555
34.863934 96.611 -174.2621
35.116572 96.593 -174.3665
35.371041 96.574 -174.4684
35.627354 96.555 -174.5678
35.885525 96.537 -174.6648
36.145566 96.519 -174.7596
36.407492 96.500 -174.8524
36.671316 96.482 -174.9440
36.937051 96.465 -175.0350
37.204712 96.447 -175.1263
37.474313 96.430 -175.2189
37.745867 96.413 -175.3136
38.019389 96.396 -175.4109
38.294893 96.378 -175.5110
38.572394 96.360 -175.6134
38.851905 96.341 -175.7171
39.133442 96.321 -175.8205
39.417019 96.300 -175.9216
39.702651 96.279 -176.0186
39.990353 96.257 -176.1105
40.280140 96.235 -176.1970
40.572026 96.213 -176.2791
40.866028 96.191 -176.3589
41.162160 96.170 -176.4384
41.460438 96.150 -176.5195
41.760877 96.129 -176.6032
42.063494 96.108 -176.6891
42.368303 96.086 -176.7758
42.675322 96.063 -176.8614
42.984565 96.039 -176.9441
43.296048 96.015 -177.0228
43.609789 95.990 -177.0972
43.925804 95.966 -177.1676
44.244108 95.941 -177.2346
44.564719 95.916 -177.2990
44.887654 95.892 -177.3615
45.212928 95.867 -177.4229
45.540560 95.843 -177.4844
45.870565 95.818 -177.5467
46.202962 95.793 -177.6103
46.537768 95.768 -177.6748
46.875000 95.742 -177.7389
47.214676 95.715 -177.8009
47.556813 95.687 -177.8587
47.901429 95.660 -177.9109
48.248542 95.632 -177.9571
48.598171 95.604 -177.9981
48.950334 95.577 -178.0359
49.305048 95.551 -178.0728
49.662333 95.525 -178.1105
50.022206 95.498 -178.1493
50.384688 95.471 -178.1884
50.749796 95.443 -178.2256
51.117550 95.415 -178.2592
51.487969 95.387 -178.2887
51.861072 95.359 -178.3153
52.236879 95.331 -178.3414
52.615409 95.304 -178.3694
52.996681 95.276 -178.4003
53.380717 95.247 -178.4338
53.767536 95.218 -178.4678
54.157158 95.188 -178.4998
54.549603 95.158 -178.5278
54.944892 95.127 -178.5507
55.343045 95.097 -178.5686
55.744084 95.067 -178.5827
56.148028 95.037 -178.5953
56.554900 95.009 -178.6086
56.964720 94.980 -178.6245
57.377510 94.952 -178.6427
57.793291 94.923 -178.6613
58.212085 94.893 -178.6767
58.633914 94.862 -178.6853
59.058799 94.831 -178.6849
59.486764 94.800 -178.6756
59.917829 94.770 -178.6590
60.352019 94.739 -178.6377
60.789354 94.708 -178.6133
61.229859 94.676 -178.5863
61.673556 94.643 -178.5561
62.120468 94.610 -178.5213
62.570618 94.575 -178.4803
63.024031 94.539 -178.4323
63.480729 94.503 -178.3769
63.940736 94.466 -178.3153
64.404077 94.429 -178.2497
64.870776 94.393 -178.1827
65.340856 94.356 -178.1166
65.814343 94.320 -178.0529
66.291261 94.283 -177.9913
66.771635 94.246 -177.9304
67.255489 94.209 -177.8680
67.742850 94.172 -177.8027
68.233743 94.135 -177.7341
68.728193 94.099 -177.6628
69.226226 94.064 -177.5901
69.727867 94.029 -177.5173
70.233144 93.995 -177.4448
70.742083 93.961 -177.3724
71.254709 93.926 -177.2996
71.771050 93.892 -177.2257
72.291132 93.856 -177.1493
72.814984 93.820 -177.0693
73.342631 93.784 -176.9844
73.874102 93.746 -176.8940
74.409424 93.709 -176.7978
74.948626 93.670 -176.6958
75.491734 93.632 -176.5882
76.038779 93.593 -176.4758
76.589787 93.554 -176.3602
77.144788 93.515 -176.2425
77.703811 93.476 -176.1233
78.266885 93.437 -176.0018
78.834039 93.397 -175.8770
79.405303 93.357 -175.7482
79.980706 93.318 -175.6155
80.560280 93.278 -175.4791
81.144053 93.239 -175.3395
81.732056 93.199 -175.1969
82.324320 93.160 -175.0512
82.920876 93.120 -174.9016
83.521755 93.080 -174.7464
84.126988 93.041 -174.5843
84.736607 93.002 -174.4158
85.350643 92.963 -174.2428
85.969129 92.925 -174.0675
86.592097 92.887 -173.8911
87.219579 92.850 -173.7136
87.851608 92.813 -173.5340
88.488217 92.775 -173.3511
89.129439 92.738 -173.1641
89.775308 92.701 -172.9724
90.425856 92.664 -172.7764
91.081119 92.627 -172.5765
91.741131 92.591 -172.3732
92.405925 92.555 -172.1669
93.075536 92.519 -171.9576
93.750000 92.482 -171.7451
94.429351 92.445 -171.5292
95.113625 92.408 -171.3093
95.802858 92.370 -171.0841
96.497085 92.331 -170.8530
97.196342 92.293 -170.6164
97.900667 92.254 -170.3755
98.610096 92.216 -170.1319
99.324665 92.179 -169.8873
100.044413 92.142 -169.6429
100.769376 92.105 -169.3988
101.499592 92.069 -169.1545
102.235100 92.032 -168.9091
102.975938 91.996 -168.6619
103.722144 91.960 -168.4119
104.473757 91.924 -168.1583
105.230817 91.887 -167.9006
105.993363 91.850 -167.6381
106.761435 91.814 -167.3706
107.535072 91.777 -167.0981
108.314315 91.741 -166.8212
109.099206 91.705 -166.5400
109.889783 91.669 -166.2543
110.686090 91.633 -165.9635
111.488167 91.596 -165.6675
112.296056 91.560 -165.3681
113.109800 91.522 -165.0682
113.929440 91.484 -164.7706
114.755020 91.443 -164.4765
115.586582 91.401 -164.1857
116.424170 91.357 -163.8969
117.267827 91.312 -163.6062
118.117598 91.267 -163.3067
118.973527 91.224 -162.9909
119.835658 91.185 -162.6575
120.704037 91.152 -162.3167
121.578708 91.124 -161.9816
122.459718 91.098 -161.6564
123.347111 91.074 -161.3360
124.240935 91.049 -161.0145
125.141236 91.023 -160.6893
126.048061 90.995 -160.3614
126.961458 90.965 -160.0327
127.881473 90.933 -159.7031
128.808154 90.901 -159.3701
129.741551 90.869 -159.0325
130.681712 90.837 -158.6918
131.628686 90.808 -158.3488
132.582521 90.779 -158.0027
133.543269 90.752 -157.6536
134.510979 90.725 -157.3040
135.485701 90.697 -156.9580
136.467486 90.669 -156.6181
137.456386 90.639 -156.2826
138.452451 90.608 -155.9479
139.455735 90.575 -155.6104
140.466288 90.542 -155.2686
141.484165 90.508 -154.9224
142.509418 90.475 -154.5724
143.542100 90.442 -154.2189
144.582265 90.409 -153.8619
145.629968 90.376 -153.5014
146.685262 90.343 -153.1378
147.748204 90.309 -152.7719
148.818849 90.276 -152.4046
149.897251 90.242 -152.0358
150.983469 90.207 -151.6643
152.077557 90.172 -151.2884
153.179574 90.135 -150.9064
154.289576 90.099 -150.5184
155.407622 90.062 -150.1253
156.533770 90.026 -149.7289
157.668078 89.990 -149.3305
158.810606 89.955 -148.9307
159.961413 89.920 -148.5295
161.120559 89.885 -148.1255
162.288105 89.850 -147.7173
163.464112 89.815 -147.3040
164.648640 89.779 -146.8859
165.841752 89.743 -146.4641
167.043510 89.708 -146.0398
168.253976 89.672 -145.6136
169.473213 89.636 -145.1856
170.701286 89.600 -144.7550
171.938258 89.565 -144.3206
173.184194 89.529 -143.8815
174.439158 89.493 -143.4369
175.703216 89.457 -142.9862
176.976434 89.422 -142.5298
178.258878 89.387 -142.0684
179.550615 89.353 -141.6026
180.851713 89.320 -141.1330
182.162239 89.287 -140.6594
183.482262 89.253 -140.1814
184.811850 89.220 -139.6989
186.151073 89.187 -139.2122
187.500000 89.153 -138.7215
188.858702 89.120 -138.2261
190.227250 89.087 -137.7250
191.605715 89.054 -137.2172
192.994169 89.023 -136.7012
194.392685 88.993 -136.1755
195.801334 88.965 -135.6390
197.220191 88.938 -135.0924
198.649330 88.914 -134.5376
200.088825 88.892 -133.9771
201.538751 88.872 -133.4139
202.999184 88.854 -132.8513
204.470200 88.837 -132.2920
205.951875 88.821 -131.7384
207.444287 88.807 -131.1941
208.947514 88.793 -130.6633
210.461634 88.780 -130.1501
211.986726 88.767 -129.6568
213.522869 88.754 -129.1821
215.070144 88.740 -128.7209
216.628631 88.726 -128.2668
218.198411 88.712 -127.8159
219.779567 88.698 -127.3659
221.372180 88.683 -126.9121
222.976334 88.667 -126.4497
224.592112 88.649 -125.9782
226.219600 88.629 -125.5000
227.858880 88.608 -125.0180
229.510039 88.586 -124.5335
231.173164 88.562 -124.0467
232.848340 88.538 -123.5567
234.535655 88.514 -123.0624
236.235197 88.489 -122.5626
237.947054 88.464 -122.0568
239.671317 88.439 -121.5446
241.408074 88.415 -121.0258
243.157416 88.390 -120.5006
244.919435 88.366 -119.9697
246.694223 88.342 -119.4341
248.481871 88.318 -118.8952
250.282473 88.295 -118.3538
252.096123 88.272 -117.8094
253.922915 88.249 -117.2614
255.762945 88.227 -116.7090
257.616309 88.206 -116.1524
259.483103 88.185 -115.5923
261.363424 88.164 -115.0294
263.257372 88.143 -114.4640
265.165043 88.123 -113.8962
267.086538 88.104 -113.3265
269.021957 88.084 -112.7555
270.971401 88.066 -112.1831
272.934972 88.048 -111.6092
274.912771 88.031 -111.0331
276.904902 88.015 -110.4548
278.911469 87.999 -109.8745
280.932577 87.983 -109.2925
282.968330 87.968 -108.7088
285.018835 87.953 -108.1232
287.084199 87.938 -107.5358
289.164530 87.924 -106.9463
291.259935 87.910 -106.3545
293.370525 87.896 -105.7605
295.496408 87.882 -105.1645
297.637697 87.868 -104.5672
299.794503 87.854 -103.9691
301.966937 87.841 -103.3703
304.155114 87.828 -102.7707
306.359147 87.815 -102.1697
308.579152 87.802 -101.5670
310.815244 87.789 -100.9626
313.067539 87.777 -100.3564
315.336156 87.764 -99.7486
317.621211 87.752 -99.1395
319.922826 87.740 -98.5294
322.241118 87.729 -97.9186
324.576210 87.717 -97.3075
326.928223 87.706 -96.6962
329.297280 87.696 -96.0846
331.683504 87.685 -95.4721
334.087019 87.675 -94.8585
336.507952 87.664 -94.2441
338.946427 87.654 -93.6291
341.402572 87.643 -93.0134
343.876516 87.633 -92.3968
346.368387 87.623 -91.7788
348.878315 87.613 -91.1595
351.406431 87.603 -90.5387
353.952867 87.594 -89.9166
356.517756 87.584 -89.2934
359.101230 87.575 -88.6692
361.703426 87.566 -88.0435
364.324478 87.557 -87.4158
366.964523 87.548 -86.7859
369.623699 87.539 -86.1545
372.302145 87.531 -85.5223
375.000000 87.523 -84.8898
377.717405 87.515 -84.2567
380.454501 87.507 -83.6224
383.211431 87.500 -82.9867
385.988339 87.493 -82.3498
388.785369 87.486 -81.7120
391.602668 87.479 -81.0736
394.440383 87.472 -80.4348
397.298660 87.465 -79.7957
400.177650 87.458 -79.1563
403.077502 87.452 -78.5166
405.998368 87.445 -77.8761
408.940400 87.439 -77.2346
411.903750 87.433 -76.5921
414.888575 87.427 -75.9488
417.895028 87.422 -75.3050
420.923268 87.416 -74.6605
423.973452 87.411 -74.0147
427.045738 87.405 -73.3671
430.140287 87.400 -72.7175
433.257261 87.394 -72.0661
436.396822 87.389 -71.4132
439.559133 87.384 -70.7597
442.744360 87.379 -70.1059
445.952668 87.375 -69.4520
449.184225 87.371 -68.7973
452.439199 87.367 -68.1415
455.717760 87.363 -67.4843
459.020079 87.359 -66.8258
462.346327 87.355 -66.1666
465.696680 87.351 -65.5067
469.071310 87.347 -64.8461
472.470394 87.344 -64.1846
475.894109 87.340 -63.5220
479.342634 87.337 -62.8584
482.816148 87.334 -62.1938
486.314833 87.331 -61.5281
489.838871 87.328 -60.8613
493.388445 87.325 -60.1934
496.963741 87.322 -59.5244
500.564945 87.320 -58.8546
504.192245 87.318 -58.1840
507.845830 87.315 -57.5124
511.525890 87.313 -56.8394
515.232618 87.311 -56.1648
518.966206 87.309 -55.4889
522.726849 87.307 -54.8119
526.514743 87.305 -54.1338
530.330086 87.304 -53.4546
534.173076 87.303 -52.7741
538.043915 87.302 -52.0920
541.942803 87.301 -51.4081
545.869944 87.301 -50.7227
549.825542 87.302 -50.0360
553.809805 87.302 -49.3485
557.822939 87.303 -48.6608
561.865154 87.304 -47.9730
565.936660 87.305 -47.2851
570.037671 87.307 -46.5965
574.168399 87.309 -45.9065
578.329060 87.310 -45.2149
582.519870 87.312 -44.5217
586.741049 87.314 -43.8273
590.992817 87.317 -43.1317
595.275394 87.319 -42.4346
599.589005 87.322 -41.7353
603.933874 87.325 -41.0333
608.310228 87.328 -40.3285
612.718295 87.332 -39.6207
617.158304 87.336 -38.9102
621.630488 87.341 -38.1970
626.135079 87.347 -37.4811
630.672311 87.353 -36.7622
635.242423 87.360 -36.0400
639.845651 87.366 -35.3147
644.482237 87.374 -34.5870
649.152421 87.381 -33.8571
653.856447 87.389 -33.1257
658.594560 87.397 -32.3936
663.367008 87.406 -31.6612
668.174039 87.415 -30.9288
673.015903 87.424 -30.1964
677.892854 87.433 -29.4632
682.805145 87.443 -28.7289
687.753032 87.454 -27.9930
692.736774 87.465 -27.2558
697.756631 87.476 -26.5177
702.812863 87.488 -25.7790
707.905735 87.500 -25.0399
713.035511 87.513 -24.3000
718.202461 87.526 -23.5592
723.406852 87.540 -22.8172
728.648956 87.555 -22.0740
733.929047 87.570 -21.3295
739.247399 87.586 -20.5840
744.604290 87.603 -19.8378
750.000000 87.620 -19.0911
755.434809 87.638 -18.3443
760.909001 87.656 -17.5977
766.422861 87.675 -16.8515
771.976677 87.695 -16.1063
777.570739 87.715 -15.3623
783.205337 87.736 -14.6197
788.880766 87.758 -13.8779
794.597321 87.781 -13.1367
800.355301 87.805 -12.3963
806.155005 87.829 -11.6569
811.996736 87.855 -10.9189
817.880799 87.882 -10.1828
823.807501 87.910 -9.4489
829.777150 87.938 -8.7173
835.790057 87.968 -7.9884
841.846536 87.998 -7.2623
847.946903 88.030 -6.5395
854.091476 88.062 -5.8203
860.280575 88.095 -5.1052
866.514523 88.129 -4.3949
872.793644 88.164 -3.6897
879.118267 88.200 -2.9900
885.488720 88.237 -2.2958
891.905336 88.275 -1.6072
898.368450 88.315 -0.9246
904.878398 88.355 -0.2483
911.435520 88.397 0.4216
918.040157 88.439 1.0849
924.692655 88.483 1.7414
931.393359 88.527 2.3902
938.142619 88.573 3.0309
944.940787 88.620 3.6628
951.788218 88.668 4.2855
958.685268 88.717 4.8983
965.632296 88.768 5.5008
972.629666 88.819 6.0926
979.677741 88.871 6.6736
986.776890 88.924 7.2438
993.927482 88.978 7.8027
1001.129891 89.033 8.3498
1008.384491 89.087 8.8850
1015.691660 89.143 9.4081
1023.051781 89.198 9.9194
1030.465236 89.254 10.4195
1037.932411 89.310 10.9091
1045.453698 89.365 11.3892
1053.029486 89.421 11.8607
1060.660172 89.477 12.3248
1068.346153 89.533 12.7820
1076.087829 89.589 13.2328
1083.885605 89.645 13.6778
1091.739887 89.700 14.1173
1099.651084 89.755 14.5520
1107.619609 89.809 14.9823
1115.645878 89.862 15.4090
1123.730308 89.914 15.8335
1131.873321 89.965 16.2575
1140.075341 90.015 16.6836
1148.336797 90.064 17.1148
1156.658119 90.113 17.5546
1165.039741 90.161 18.0065
1173.482099 90.210 18.4738
1181.985634 90.259 18.9599
1190.550789 90.310 19.4676
1199.178011 90.364 19.9982
1207.867749 90.423 20.5516
1216.620457 90.488 21.1249
1225.436590 90.561 21.7109
1234.316609 90.642 22.2975
1243.260976 90.733 22.8676
1252.270157 90.833 23.4013
1261.344623 90.939 23.8795
1270.484846 91.051 24.2877
1279.691303 91.165 24.6180
1288.964474 91.278 24.8708
1298.304842 91.387 25.0534
1307.712894 91.491 25.1779
1317.189120 91.589 25.2585
1326.734016 91.681 25.3095
1336.348077 91.767 25.3437
1346.031806 91.848 25.3715
1355.785708 91.926 25.4006
1365.610290 92.002 25.4361
1375.506065 92.076 25.4808
1385.473549 92.150 25.5353
1395.513261 92.222 25.5991
1405.625726 92.294 25.6713
1415.811469 92.366 25.7507
1426.071023 92.437 25.8359
1436.404921 92.508 25.9259
1446.813703 92.578 26.0190
1457.297912 92.648 26.1138
1467.858093 92.717 26.2091
1478.494798 92.786 26.3041
1489.208581 92.853 26.3980
1500.000000 92.919 26.4903
1510.869618 92.981 26.5807
1521.818002 93.040 26.6686
1532.845723 93.095 26.7533
1543.953355 93.146 26.8342
1555.141477 93.194 26.9112
1566.410674 93.238 26.9839
1577.761531 93.281 27.0525
1589.194642 93.322 27.1175
1600.710601 93.363 27.1792
1612.310010 93.402 27.2379
1623.993473 93.441 27.2940
1635.761599 93.480 27.3478
1647.615002 93.519 27.3998
1659.554299 93.557 27.4508
1671.580114 93.596 27.5013
1683.693072 93.634 27.5520
1695.893807 93.672 27.6039
1708.182952 93.709 27.6585
1720.561150 93.745 27.7183
1733.029045 93.781 27.7862
1745.587288 93.815 27.8661
1758.236533 93.849 27.9618
1770.977440 93.884 28.0764
1783.810673 93.922 28.2114
1796.736900 93.964 28.3654
1809.756796 94.011 28.5331
1822.871040 94.066 28.7044
1836.080315 94.130 28.8644
1849.385310 94.202 28.9942
1862.786718 94.284 29.0737
1876.285239 94.372 29.0848
1889.881575 94.465 29.0153
1903.576436 94.560 28.8609
1917.370535 94.655 28.6258
1931.264593 94.747 28.3216
1945.259332 94.834 27.9647
1959.355483 94.915 27.5744
1973.553781 94.989 27.1706
1987.854965 95.056 26.7721
2002.259781 95.116 26.3951
2016.768981 95.172 26.0520
2031.383320 95.224 25.7515
2046.103561 95.274 25.4980
2060.930471 95.325 25.2916
2075.864823 95.377 25.1280
2090.907395 95.432 24.9986
2106.058972 95.493 24.8916
2121.320344 95.559 24.7920
2136.692305 95.632 24.6831
2152.175658 95.709 24.5475
2167.771210 95.792 24.3689
2183.479774 95.876 24.1338
2199.302169 95.962 23.8327
2215.239219 96.045 23.4615
2231.291755 96.124 23.0220
2247.460615 96.197 22.5220
2263.746641 96.261 21.9742
2280.150683 96.315 21.3950
2296.673595 96.359 20.8025
2313.316238 96.393 20.2150
2330.079481 96.419 19.6501
2346.964198 96.437 19.1227
2363.971268 96.450 18.6449
2381.101578 96.459 18.2244
2398.356022 96.469 17.8644
2415.735498 96.481 17.5629
2433.240913 96.498 17.3116
2450.873180 96.523 17.0959
2468.633217 96.558 16.8951
2486.521951 96.601 16.6846
2504.540314 96.654 16.4385
2522.689246 96.714 16.1339
2540.969692 96.778 15.7541
2559.382606 96.842 15.2912
2577.928947 96.904 14.7462
2596.609683 96.960 14.1278
2615.425787 97.009 13.4499
2634.378241 97.048 12.7291
2653.468031 97.078 11.9824
2672.696154 97.099 11.2257
2692.063613 97.112 10.4731
2711.571415 97.117 9.7353
2731.220579 97.115 9.0200
2751.012130 97.108 8.3315
2770.947098 97.097 7.6717
2791.026522 97.083 7.0412
2811.251451 97.067 6.4397
2831.622938 97.049 5.8662
2852.142045 97.029 5.3193
2872.809842 97.009 4.7972
2893.627406 96.989 4.2983
2914.595823 96.969 3.8210
2935.716186 96.948 3.3636
2956.989596 96.929 2.9242
2978.417161 96.911 2.5007
3000.000000 96.894 2.0908
3021.739237 96.878 1.6919
3043.636005 96.864 1.3008
3065.691446 96.853 0.9142
3087.906710 96.842 0.5291
3110.282955 96.833 0.1434
3132.821347 96.825 -0.2444
3155.523062 96.818 -0.6347
3178.389283 96.811 -1.0277
3201.421202 96.804 -1.4229
3224.620020 96.797 -1.8193
3247.986946 96.790 -2.2156
3271.523198 96.783 -2.6096
3295.230004 96.776 -2.9999
3319.108599 96.769 -3.3853
3343.160228 96.764 -3.7655
3367.386145 96.759 -4.1407
3391.787613 96.757 -4.5121
3416.365904 96.758 -4.8824
3441.122300 96.761 -5.2551
3466.058091 96.767 -5.6339
3491.174576 96.775 -6.0220
3516.473066 96.785 -6.4218
3541.954880 96.796 -6.8348
3567.621345 96.808 -7.2609
3593.473800 96.820 -7.6987
3619.513592 96.833 -8.1457
3645.742080 96.845 -8.5992
3672.160630 96.858 -9.0581
3698.770620 96.872 -9.5234
3725.573436 96.887 -9.9982
3752.570477 96.903 -10.4875
3779.763150 96.921 -10.9966
3807.152872 96.938 -11.5306
3834.741071 96.955 -12.0941
3862.529185 96.971 -12.6897
3890.518664 96.984 -13.3179
3918.710966 96.994 -13.9775
3947.107561 97.002 -14.6662
3975.709929 97.006 -15.3818
4004.519563 97.007 -16.1221
4033.537962 97.005 -16.8856
4062.766641 97.000 -17.6714
4092.207123 96.991 -18.4798
4121.860942 96.979 -19.3114
4151.729646 96.963 -20.1661
4181.814790 96.943 -21.0435
4212.117944 96.918 -21.9427
4242.640687 96.887 -22.8629
4273.384610 96.850 -23.8036
4304.351317 96.807 -24.7637
4335.542421 96.756 -25.7414
4366.959549 96.697 -26.7342
4398.604338 96.629 -27.7387
4430.478438 96.552 -28.7502
4462.583511 96.465 -29.7632
4494.921231 96.368 -30.7705
4527.493283 96.261 -31.7642
4560.301365 96.143 -32.7357
4593.347189 96.015 -33.6762
4626.632476 95.878 -34.5771
4660.158962 95.730 -35.4306
4693.928395 95.574 -36.2300
4727.942535 95.410 -36.9701
4762.203156 95.239 -37.6475
4796.712043 95.063 -38.2596
4831.470996 94.881 -38.8049
4866.481826 94.695 -39.2825
4901.746360 94.506 -39.6924
4937.266434 94.313 -40.0350
4973.043902 94.118 -40.3111
5009.080628 93.921 -40.5210
5045.378492 93.722 -40.6647
5081.939384 93.522 -40.7420
5118.765212 93.320 -40.7524
5155.857894 93.117 -40.6950
5193.219366 92.914 -40.5689
5230.851574 92.711 -40.3734
5268.756481 92.508 -40.1086
5306.936062 92.306 -39.7752
5345.392309 92.105 -39.3743
5384.127225 91.906 -38.9078
5423.142830 91.709 -38.3778
5462.441159 91.515 -37.7866
5502.024259 91.322 -37.1371
5541.894195 91.133 -36.4319
5582.053045 90.946 -35.6740
5622.502902 90.763 -34.8654
5663.245876 90.584 -34.0078
5704.284090 90.409 -33.1026
5745.619684 90.239 -32.1512
5787.254813 90.072 -31.1544
5829.191647 89.910 -30.1124
5871.432373 89.753 -29.0251
5913.979192 89.600 -27.8917
5956.834323 89.451 -26.7116
6000.000000 89.308 -25.4841
6043.478473 89.170 -24.2086
6087.272010 89.037 -22.8840
6131.382892 88.910 -21.5091
6175.813420 88.788 -20.0818
6220.565910 88.674 -18.5999
6265.642695 88.566 -17.0614
6311.046124 88.466 -15.4647
6356.778566 88.374 -13.8085
6402.842404 88.291 -12.0923
6449.240040 88.219 -10.3162
6495.973891 88.158 -8.4813
6543.046396 88.111 -6.5899
6590.460007 88.077 -4.6455
6638.217197 88.060 -2.6533
6686.320456 88.060 -0.6201
6734.772290 88.078 1.4462
6783.575226 88.116 3.5364
6832.731809 88.174 5.6400
6882.244600 88.252 7.7454
6932.116181 88.352 9.8402
6982.349153 88.473 11.9097
7032.946133 88.617 13.9369
7083.909760 88.786 15.9019
7135.242690 88.980 17.7819
7186.947600 89.201 19.5509
7239.027185 89.449 21.1790
7291.484160 89.723 22.6319
7344.321260 90.021 23.8712
7397.541239 90.342 24.8551
7451.146872 90.680 25.5401
7505.140954 91.030 25.8832
7559.526299 91.385 25.8456
7614.305743 91.734 25.3966
7669.482141 92.066 24.5186
7725.058371 92.368 23.2108
7781.037328 92.628 21.4940
7837.421932 92.831 19.4125
7894.215122 92.966 17.0352
7951.419859 93.023 14.4536
8009.039125 92.996 11.7764
8067.075924 92.882 9.1218
8125.533282 92.683 6.6090
8184.414245 92.403 4.3496
8243.721885 92.052 2.4395
8303.459292 91.642 0.9536
8363.629581 91.184 -0.0569
8424.235888 90.692 -0.5645
8485.281374 90.180 -0.5637
8546.769221 89.659 -0.0673
8608.702634 89.142 0.8981
8671.084842 88.636 2.2957
8733.919097 88.150 4.0829
8797.208675 87.689 6.2144
8860.956876 87.257 8.6448
8925.167022 86.857 11.3298
8989.842461 86.490 14.2280
9054.986566 86.155 17.3021
9120.602731 85.854 20.5197
9186.694378 85.584 23.8543
9253.264952 85.345 27.2845
9320.317925 85.134 30.7944
9387.856790 84.951 34.3736
9455.885071 84.794 38.0174
9524.406312 84.663 41.7266
9593.424086 84.557 45.5066
9662.941992 84.479 49.3657
9732.963653 84.430 53.3103
9803.492719 84.414 57.3404
9874.532869 84.435 61.4430
9946.087805 84.495 65.5883
10018.161257 84.599 69.7296
10090.756983 84.745 73.8106
10163.878768 84.933 77.7747
10237.530423 85.160 81.5737
10311.715789 85.421 85.1700
10386.438732 85.712 88.5329
10461.703149 86.031 91.6311
10537.512962 86.373 94.4259
10613.872125 86.733 96.8689
10690.784618 87.104 98.9036
10768.254450 87.474 100.4745
10846.285661 87.829 101.5391
10924.882318 88.149 102.0834
11004.048518 88.416 102.1355
11083.788390 88.608 101.7758
11164.106090 88.710 101.1390
11245.005805 88.711 100.4044
11326.491752 88.611 99.7743
11408.568180 88.417 99.4403
11491.239368 88.148 99.5491
11574.509626 87.826 100.1769
11658.383294 87.474 101.3245
11742.864745 87.108 102.9348
11827.958384 86.739 104.9243
11913.668646 86.371 107.2158
12000.000000 86.003 109.7602
12086.956947 85.631 112.5418
12174.544019 85.254 115.5705
12262.765784 84.872 118.8698
12351.626840 84.486 122.4645
12441.131819 84.100 126.3716
12531.285389 83.719 130.5962
12622.092249 83.349 135.1302
12713.557132 82.993 139.9563
12805.684808 82.656 145.0508
12898.480079 82.340 150.3875
12991.947783 82.047 155.9394
13086.092792 81.779 161.6799
13180.920015 81.536 167.5848
13276.434395 81.318 173.6338
13372.640911 81.125 179.8109
13469.544580 80.957 -173.8953
13567.150452 80.813 -167.4929
13665.463617 80.693 -160.9876
13764.489200 80.598 -154.3837
13864.232362 80.529 -147.6840
13964.698305 80.487 -140.8914
14065.892266 80.476 -134.0095
14167.819519 80.499 -127.0442
14270.485380 80.561 -120.0067
14373.895200 80.666 -112.9176
14478.054370 80.818 -105.8102
14582.968320 81.024 -98.7346
14688.642520 81.287 -91.7617
14795.082478 81.612 -84.9885
14902.293745 81.999 -78.5400
15010.281908 82.446 -72.5674
15119.052599 82.944 -67.2370
15228.611486 83.477 -62.7106
15338.964283 84.022 -59.1217
15450.116741 84.549 -56.5520
15562.074656 85.022 -55.0123
15674.843864 85.404 -54.4298
15788.430244 85.657 -54.6445
15902.839718 85.753 -55.4140
16018.078250 85.673 -56.4336
16134.151848 85.411 -57.3686
16251.066563 84.975 -57.8967
16368.828491 84.384 -57.7440
16487.443769 83.665 -56.7093
16606.918584 82.849 -54.6725
16727.259161 81.966 -51.5952
16848.471777 81.045 -47.5146
16970.562748 80.107 -42.5326
17093.538442 79.172 -36.7976
17217.405268 78.251 -30.4796
17342.169684 77.347 -23.7424
17467.838194 76.458 -16.7207
17594.417350 75.579 -9.5048
17721.913751 74.697 -2.1360
17850.334044 73.803 5.3896
17979.684923 72.885 13.1112
18109.973131 71.936 21.0898
18241.205462 70.948 29.3986
18373.388756 69.919 38.1139
18506.529905 68.847 47.3092
18640.635849 67.732 57.0500
18775.713581 66.574 67.3905
18911.770141 65.374 78.3754
19048.812624 64.133 90.0495
19186.848172 62.855 102.4679
19325.883983 61.546 115.6929
19465.927305 60.225 129.7323
19606.985439 58.930 144.3458
19749.065738 57.745 158.6304
19892.175609 56.801 170.6025
20036.322514 56.266 177.5743
