* Measurement data measured by REW V5.31
* Source: EXCL: Microphone (USB Sound Device        ), MICROPHONE (Master Volume), L, volume: 0.390
* Format: 256k Log Swept Sine, 1 sweep at -4.0 dBFS with no timing reference
* Dated: Aug 13, 2024 12:06:21 AM
* REW Settings:
*  C-weighting compensation: Off
*  Target level: 75.0 dB
* Note: SIVGA QUE R
* Measurement: R SIVGA QUE
* Smoothing: 1/12 octave
* Frequency Step: 96 ppo
* Start Frequency: 0.36621094 Hz
*
* Freq(Hz) SPL(dB) Phase(degrees)
0.366211 81.098 169.0357
0.368865 81.094 169.0211
0.371538 81.089 168.9993
0.374230 81.082 168.9720
0.376942 81.074 168.9406
0.379673 81.066 168.9063
0.382424 81.057 168.8696
0.385196 81.048 168.8312
0.387987 81.039 168.7911
0.390798 81.030 168.7495
0.393630 81.020 168.7066
0.396483 81.011 168.6623
0.399356 81.001 168.6166
0.402250 80.992 168.5696
0.405165 80.982 168.5211
0.408101 80.972 168.4713
0.411058 80.963 168.4201
0.414037 80.953 168.3675
0.417037 80.943 168.3134
0.420059 80.933 168.2579
0.423103 80.923 168.2010
0.426169 80.912 168.1426
0.429257 80.902 168.0827
0.432368 80.892 168.0214
0.435501 80.882 167.9585
0.438656 80.871 167.8941
0.441835 80.861 167.8282
0.445037 80.850 167.7607
0.448262 80.839 167.6917
0.451510 80.828 167.6212
0.454782 80.818 167.5490
0.458077 80.807 167.4753
0.461397 80.796 167.4000
0.464740 80.785 167.3230
0.468108 80.773 167.2445
0.471500 80.762 167.1643
0.474917 80.751 167.0825
0.478358 80.740 166.9991
0.481825 80.728 166.9140
0.485316 80.716 166.8272
0.488833 80.705 166.7388
0.492375 80.693 166.6487
0.495943 80.681 166.5569
0.499537 80.669 166.4634
0.503157 80.657 166.3682
0.506803 80.645 166.2713
0.510475 80.633 166.1727
0.514175 80.621 166.0724
0.517900 80.609 165.9704
0.521653 80.596 165.8667
0.525434 80.584 165.7612
0.529241 80.571 165.6541
0.533076 80.558 165.5452
0.536939 80.545 165.4346
0.540830 80.533 165.3222
0.544749 80.520 165.2082
0.548696 80.506 165.0924
0.552673 80.493 164.9749
0.556677 80.480 164.8557
0.560711 80.467 164.7348
0.564774 80.453 164.6122
0.568867 80.440 164.4879
0.572989 80.426 164.3619
0.577141 80.412 164.2342
0.581324 80.398 164.1049
0.585536 80.384 163.9739
0.589779 80.370 163.8413
0.594053 80.356 163.7071
0.598358 80.342 163.5713
0.602694 80.328 163.4339
0.607061 80.313 163.2949
0.611460 80.299 163.1543
0.615891 80.284 163.0123
0.620354 80.269 162.8687
0.624849 80.254 162.7237
0.629377 80.239 162.5772
0.633938 80.224 162.4294
0.638532 80.209 162.2801
0.643159 80.194 162.1295
0.647819 80.178 161.9776
0.652514 80.163 161.8244
0.657242 80.147 161.6700
0.662005 80.131 161.5144
0.666802 80.115 161.3576
0.671634 80.099 161.1998
0.676501 80.083 161.0409
0.681403 80.067 160.8811
0.686341 80.050 160.7203
0.691314 80.034 160.5586
0.696324 80.017 160.3961
0.701370 80.000 160.2328
0.706452 79.983 160.0688
0.711571 79.966 159.9040
0.716728 79.947 159.7383
0.721921 79.928 159.5716
0.727153 79.908 159.4036
0.732422 79.887 159.2338
0.737729 79.864 159.0619
0.743075 79.839 158.8871
0.748460 79.813 158.7090
0.753883 79.786 158.5273
0.759346 79.758 158.3417
0.764849 79.730 158.1520
0.770391 79.701 157.9581
0.775974 79.671 157.7599
0.781597 79.642 157.5574
0.787261 79.612 157.3506
0.792966 79.581 157.1393
0.798712 79.550 156.9235
0.804500 79.519 156.7033
0.810329 79.487 156.4785
0.816201 79.455 156.2493
0.822116 79.422 156.0154
0.828073 79.389 155.7770
0.834074 79.355 155.5340
0.840118 79.321 155.2864
0.846206 79.286 155.0341
0.852338 79.251 154.7772
0.858514 79.215 154.5157
0.864735 79.178 154.2495
0.871001 79.140 153.9786
0.877313 79.102 153.7030
0.883670 79.063 153.4229
0.890074 79.024 153.1380
0.896524 78.983 152.8486
0.903020 78.942 152.5545
0.909564 78.900 152.2558
0.916155 78.857 151.9525
0.922794 78.813 151.6447
0.929481 78.768 151.3323
0.936216 78.722 151.0155
0.943000 78.675 150.6943
0.949834 78.626 150.3688
0.956717 78.577 150.0389
0.963649 78.527 149.7048
0.970632 78.475 149.3665
0.977666 78.422 149.0242
0.984750 78.368 148.6779
0.991886 78.313 148.3277
0.999074 78.256 147.9738
1.006314 78.197 147.6163
1.013606 78.137 147.2552
1.020951 78.076 146.8908
1.028349 78.013 146.5231
1.035801 77.948 146.1524
1.043307 77.882 145.7789
1.050867 77.814 145.4025
1.058482 77.743 145.0236
1.066152 77.671 144.6422
1.073878 77.597 144.2581
1.081660 77.521 143.8714
1.089498 77.443 143.4815
1.097393 77.362 143.0879
1.105345 77.278 142.6895
1.113355 77.192 142.2854
1.121423 77.102 141.8745
1.129549 77.010 141.4559
1.137734 76.915 141.0289
1.145979 76.816 140.5930
1.154283 76.715 140.1475
1.162647 76.611 139.6920
1.171072 76.503 139.2260
1.179558 76.393 138.7490
1.188106 76.280 138.2607
1.196715 76.165 137.7604
1.205387 76.047 137.2476
1.214122 75.926 136.7219
1.222920 75.803 136.1826
1.231782 75.678 135.6293
1.240708 75.550 135.0612
1.249699 75.421 134.4776
1.258754 75.289 133.8780
1.267876 75.156 133.2616
1.277063 75.021 132.6275
1.286318 74.884 131.9751
1.295639 74.746 131.3035
1.305027 74.607 130.6118
1.314484 74.467 129.8989
1.324009 74.326 129.1641
1.333604 74.184 128.4061
1.343268 74.042 127.6239
1.353002 73.900 126.8164
1.362806 73.757 125.9822
1.372681 73.615 125.1202
1.382628 73.473 124.2290
1.392647 73.331 123.3070
1.402739 73.190 122.3526
1.412904 73.050 121.3642
1.423142 72.911 120.3396
1.433455 72.773 119.2765
1.443843 72.635 118.1719
1.454305 72.497 117.0222
1.464844 72.359 115.8228
1.475459 72.218 114.5681
1.486150 72.075 113.2521
1.496920 71.927 111.8683
1.507767 71.775 110.4103
1.518693 71.618 108.8716
1.529698 71.457 107.2458
1.540783 71.292 105.5262
1.551948 71.123 103.7060
1.563194 70.952 101.7784
1.574521 70.778 99.7364
1.585931 70.604 97.5731
1.597423 70.428 95.2817
1.608999 70.253 92.8561
1.620658 70.080 90.2906
1.632402 69.909 87.5809
1.644232 69.741 84.7240
1.656146 69.578 81.7192
1.668147 69.421 78.5681
1.680235 69.270 75.2754
1.692411 69.128 71.8493
1.704675 68.996 68.3016
1.717028 68.874 64.6480
1.729470 68.765 60.9078
1.742003 68.670 57.1033
1.754626 68.590 53.2588
1.767341 68.528 49.4000
1.780147 68.485 45.5519
1.793047 68.463 41.7378
1.806040 68.464 37.9783
1.819128 68.489 34.2896
1.832310 68.540 30.6844
1.845587 68.618 27.1716
1.858961 68.724 23.7587
1.872432 68.858 20.4524
1.886001 69.019 17.2587
1.899667 69.207 14.1832
1.913433 69.418 11.2298
1.927299 69.652 8.4012
1.941265 69.908 5.6982
1.955332 70.181 3.1203
1.969501 70.472 0.6654
1.983773 70.777 -1.6695
1.998148 71.093 -3.8884
2.012627 71.420 -5.9960
2.027212 71.753 -7.9971
2.041902 72.091 -9.8971
2.056698 72.431 -11.7013
2.071602 72.770 -13.4151
2.086614 73.106 -15.0440
2.101734 73.436 -16.5931
2.116964 73.757 -18.0679
2.132304 74.069 -19.4737
2.147756 74.367 -20.8161
2.163320 74.652 -22.1008
2.178996 74.924 -23.3344
2.194786 75.182 -24.5234
2.210690 75.428 -25.6747
2.226710 75.665 -26.7944
2.242845 75.894 -27.8869
2.259098 76.116 -28.9555
2.275468 76.333 -30.0018
2.291957 76.544 -31.0266
2.308566 76.751 -32.0301
2.325295 76.954 -33.0124
2.342145 77.153 -33.9729
2.359117 77.348 -34.9114
2.376212 77.539 -35.8275
2.393431 77.727 -36.7207
2.410775 77.911 -37.5906
2.428244 78.092 -38.4370
2.445840 78.269 -39.2594
2.463564 78.444 -40.0579
2.481416 78.615 -40.8325
2.499397 78.784 -41.5837
2.517509 78.950 -42.3124
2.535752 79.112 -43.0204
2.554127 79.271 -43.7101
2.572635 79.427 -44.3847
2.591277 79.578 -45.0475
2.610055 79.725 -45.7014
2.628968 79.867 -46.3481
2.648019 80.005 -46.9885
2.667208 80.137 -47.6226
2.686535 80.266 -48.2498
2.706003 80.390 -48.8693
2.725612 80.511 -49.4799
2.745363 80.628 -50.0803
2.765257 80.742 -50.6691
2.785295 80.852 -51.2451
2.805478 80.961 -51.8068
2.825808 81.067 -52.3530
2.846285 81.171 -52.8827
2.866910 81.273 -53.3950
2.887685 81.374 -53.8898
2.908611 81.473 -54.3676
2.929688 81.570 -54.8296
2.950917 81.665 -55.2776
2.972301 81.757 -55.7136
2.993839 81.847 -56.1391
3.015534 81.933 -56.5551
3.037386 82.017 -56.9619
3.059396 82.097 -57.3593
3.081565 82.175 -57.7467
3.103896 82.251 -58.1235
3.126388 82.325 -58.4885
3.149043 82.397 -58.8408
3.171862 82.468 -59.1791
3.194847 82.538 -59.5024
3.217998 82.607 -59.8095
3.241317 82.676 -60.0996
3.264805 82.744 -60.3718
3.288463 82.812 -60.6258
3.312293 82.879 -60.8619
3.336295 82.945 -61.0805
3.360471 83.010 -61.2824
3.384822 83.074 -61.4685
3.409350 83.136 -61.6397
3.434056 83.198 -61.7968
3.458940 83.259 -61.9408
3.484005 83.319 -62.0723
3.509252 83.380 -62.1922
3.534681 83.440 -62.3011
3.560295 83.501 -62.3994
3.586094 83.564 -62.4875
3.612081 83.627 -62.5654
3.638255 83.691 -62.6327
3.664620 83.757 -62.6890
3.691175 83.824 -62.7335
3.717923 83.892 -62.7661
3.744864 83.961 -62.7869
3.772001 84.032 -62.7970
3.799335 84.103 -62.7979
3.826866 84.175 -62.7916
3.854597 84.248 -62.7801
3.882529 84.322 -62.7657
3.910664 84.398 -62.7505
3.939002 84.475 -62.7362
3.967546 84.554 -62.7244
3.996296 84.634 -62.7157
4.025255 84.716 -62.7101
4.054423 84.800 -62.7072
4.083804 84.886 -62.7062
4.113396 84.973 -62.7071
4.143204 85.062 -62.7104
4.173227 85.153 -62.7171
4.203468 85.245 -62.7288
4.233928 85.337 -62.7475
4.264609 85.431 -62.7749
4.295512 85.525 -62.8129
4.326639 85.619 -62.8631
4.357992 85.714 -62.9264
4.389572 85.809 -63.0033
4.421380 85.905 -63.0938
4.453419 86.000 -63.1974
4.485691 86.097 -63.3133
4.518196 86.193 -63.4410
4.550936 86.289 -63.5801
4.583914 86.385 -63.7305
4.617131 86.481 -63.8918
4.650589 86.576 -64.0644
4.684289 86.669 -64.2482
4.718233 86.762 -64.4435
4.752424 86.853 -64.6507
4.786862 86.943 -64.8700
4.821549 87.032 -65.1012
4.856488 87.119 -65.3437
4.891680 87.205 -65.5966
4.927127 87.289 -65.8586
4.962831 87.372 -66.1280
4.998794 87.453 -66.4034
5.035017 87.532 -66.6835
5.071503 87.610 -66.9674
5.108253 87.686 -67.2547
5.145270 87.759 -67.5454
5.182555 87.831 -67.8396
5.220110 87.901 -68.1373
5.257937 87.968 -68.4378
5.296038 88.034 -68.7400
5.334415 88.099 -69.0423
5.373071 88.162 -69.3431
5.412006 88.223 -69.6410
5.451224 88.283 -69.9347
5.490725 88.342 -70.2236
5.530514 88.399 -70.5076
5.570590 88.455 -70.7868
5.610957 88.510 -71.0613
5.651616 88.564 -71.3310
5.692570 88.617 -71.5957
5.733821 88.669 -71.8548
5.775370 88.721 -72.1079
5.817221 88.773 -72.3543
5.859375 88.825 -72.5938
5.901834 88.878 -72.8261
5.944602 88.930 -73.0516
5.987679 88.982 -73.2710
6.031068 89.035 -73.4851
6.074771 89.089 -73.6952
6.118792 89.143 -73.9020
6.163131 89.198 -74.1066
6.207792 89.254 -74.3094
6.252776 89.312 -74.5108
6.298086 89.370 -74.7112
6.343725 89.430 -74.9112
6.389694 89.491 -75.1119
6.435996 89.553 -75.3147
6.482634 89.616 -75.5211
6.529610 89.680 -75.7325
6.576926 89.745 -75.9499
6.624585 89.811 -76.1739
6.672590 89.879 -76.4048
6.720942 89.947 -76.6428
6.769645 90.016 -76.8883
6.818700 90.085 -77.1419
6.868111 90.155 -77.4041
6.917881 90.224 -77.6755
6.968010 90.294 -77.9565
7.018504 90.364 -78.2470
7.069362 90.434 -78.5467
7.120590 90.504 -78.8551
7.172189 90.573 -79.1714
7.224161 90.641 -79.4949
7.276511 90.709 -79.8248
7.329239 90.777 -80.1608
7.382350 90.843 -80.5025
7.435845 90.909 -80.8491
7.489729 90.973 -81.1997
7.544002 91.037 -81.5532
7.598669 91.100 -81.9082
7.653732 91.163 -82.2636
7.709194 91.224 -82.6186
7.765058 91.285 -82.9727
7.821327 91.345 -83.3253
7.878004 91.404 -83.6759
7.935091 91.463 -84.0237
7.992592 91.522 -84.3680
8.050510 91.581 -84.7082
8.108847 91.639 -85.0440
8.167607 91.698 -85.3753
8.226793 91.757 -85.7025
8.286408 91.816 -86.0257
8.346454 91.876 -86.3452
8.406936 91.936 -86.6614
8.467856 91.997 -86.9744
8.529218 92.059 -87.2849
8.591024 92.122 -87.5932
8.653278 92.185 -87.9004
8.715983 92.249 -88.2072
8.779143 92.314 -88.5144
8.842760 92.380 -88.8225
8.906839 92.446 -89.1320
8.971381 92.514 -89.4433
9.036392 92.581 -89.7570
9.101873 92.649 -90.0733
9.167829 92.718 -90.3928
9.234263 92.786 -90.7155
9.301178 92.855 -91.0413
9.368578 92.923 -91.3699
9.436467 92.991 -91.7011
9.504847 93.059 -92.0343
9.573723 93.127 -92.3694
9.643099 93.193 -92.7058
9.712976 93.258 -93.0428
9.783361 93.320 -93.3797
9.854255 93.381 -93.7158
9.925663 93.438 -94.0504
9.997588 93.493 -94.3831
10.070035 93.545 -94.7133
10.143007 93.595 -95.0406
10.216507 93.643 -95.3645
10.290540 93.689 -95.6847
10.365109 93.734 -96.0011
10.440219 93.778 -96.3137
10.515873 93.821 -96.6228
10.592076 93.863 -96.9284
10.668830 93.906 -97.2308
10.746141 93.948 -97.5305
10.824012 93.990 -97.8278
10.902447 94.033 -98.1233
10.981451 94.075 -98.4174
11.061027 94.118 -98.7108
11.141180 94.160 -99.0036
11.221913 94.202 -99.2964
11.303232 94.244 -99.5895
11.385140 94.286 -99.8829
11.467641 94.327 -100.1770
11.550741 94.368 -100.4717
11.634442 94.409 -100.7669
11.718750 94.450 -101.0623
11.803669 94.490 -101.3580
11.889203 94.531 -101.6535
11.975357 94.571 -101.9487
12.062136 94.610 -102.2432
12.149543 94.650 -102.5367
12.237583 94.689 -102.8291
12.326262 94.728 -103.1203
12.415583 94.766 -103.4103
12.505552 94.804 -103.6989
12.596172 94.841 -103.9864
12.687449 94.878 -104.2731
12.779387 94.915 -104.5591
12.871992 94.951 -104.8450
12.965268 94.987 -105.1310
13.059220 95.023 -105.4175
13.153852 95.059 -105.7051
13.249170 95.095 -105.9940
13.345179 95.131 -106.2847
13.441884 95.167 -106.5772
13.539289 95.202 -106.8718
13.637401 95.238 -107.1686
13.736223 95.273 -107.4675
13.835761 95.308 -107.7686
13.936021 95.342 -108.0716
14.037007 95.376 -108.3765
14.138725 95.409 -108.6830
14.241180 95.442 -108.9911
14.344377 95.474 -109.3005
14.448323 95.506 -109.6113
14.553021 95.537 -109.9233
14.658478 95.568 -110.2367
14.764700 95.599 -110.5517
14.871691 95.630 -110.8682
14.979457 95.661 -111.1866
15.088005 95.691 -111.5070
15.197339 95.722 -111.8297
15.307465 95.753 -112.1547
15.418389 95.783 -112.4822
15.530117 95.814 -112.8123
15.642655 95.844 -113.1448
15.756008 95.874 -113.4796
15.870182 95.903 -113.8164
15.985184 95.933 -114.1552
16.101019 95.962 -114.4954
16.217694 95.991 -114.8368
16.335214 96.019 -115.1791
16.453586 96.048 -115.5220
16.572815 96.077 -115.8654
16.692909 96.106 -116.2091
16.813872 96.135 -116.5530
16.935713 96.164 -116.8972
17.058436 96.194 -117.2416
17.182048 96.224 -117.5863
17.306556 96.255 -117.9314
17.431967 96.285 -118.2769
17.558286 96.316 -118.6227
17.685521 96.346 -118.9688
17.813677 96.377 -119.3150
17.942762 96.407 -119.6610
18.072783 96.437 -120.0067
18.203746 96.467 -120.3517
18.335658 96.496 -120.6958
18.468526 96.526 -121.0387
18.602356 96.555 -121.3802
18.737156 96.585 -121.7203
18.872934 96.614 -122.0587
19.009695 96.644 -122.3957
19.147447 96.674 -122.7312
19.286197 96.703 -123.0654
19.425953 96.733 -123.3982
19.566721 96.762 -123.7300
19.708510 96.791 -124.0606
19.851326 96.819 -124.3901
19.995177 96.847 -124.7185
20.140070 96.875 -125.0457
20.286013 96.902 -125.3716
20.433014 96.929 -125.6962
20.581080 96.955 -126.0194
20.730219 96.981 -126.3413
20.880439 97.006 -126.6621
21.031747 97.031 -126.9819
21.184152 97.056 -127.3009
21.337661 97.080 -127.6196
21.492282 97.105 -127.9381
21.648024 97.129 -128.2567
21.804895 97.152 -128.5759
21.962902 97.176 -128.8956
22.122054 97.198 -129.2162
22.282360 97.221 -129.5376
22.443827 97.242 -129.8600
22.606464 97.263 -130.1833
22.770280 97.284 -130.5076
22.935283 97.304 -130.8328
23.101481 97.323 -131.1589
23.268884 97.342 -131.4860
23.437500 97.360 -131.8140
23.607338 97.378 -132.1429
23.778406 97.395 -132.4729
23.950714 97.412 -132.8038
24.124271 97.428 -133.1357
24.299086 97.444 -133.4686
24.475167 97.459 -133.8025
24.652524 97.475 -134.1375
24.831166 97.490 -134.4734
25.011103 97.504 -134.8104
25.192344 97.519 -135.1482
25.374898 97.533 -135.4868
25.558775 97.547 -135.8258
25.743984 97.561 -136.1650
25.930536 97.575 -136.5041
26.118439 97.588 -136.8426
26.307704 97.602 -137.1801
26.498341 97.615 -137.5165
26.690359 97.628 -137.8515
26.883768 97.641 -138.1850
27.078579 97.654 -138.5172
27.274801 97.666 -138.8480
27.472446 97.679 -139.1776
27.671522 97.691 -139.5063
27.872042 97.704 -139.8339
28.074014 97.716 -140.1606
28.277450 97.727 -140.4861
28.482360 97.738 -140.8102
28.688755 97.749 -141.1328
28.896645 97.759 -141.4535
29.106042 97.769 -141.7723
29.316957 97.779 -142.0892
29.529400 97.788 -142.4044
29.743382 97.798 -142.7182
29.958915 97.807 -143.0309
30.176009 97.816 -143.3430
30.394677 97.825 -143.6552
30.614929 97.833 -143.9678
30.836778 97.842 -144.2813
31.060234 97.850 -144.5960
31.285309 97.858 -144.9120
31.512015 97.866 -145.2294
31.740364 97.873 -145.5480
31.970368 97.879 -145.8678
32.202039 97.886 -146.1884
32.435388 97.892 -146.5097
32.670428 97.897 -146.8318
32.907171 97.902 -147.1548
33.145630 97.908 -147.4787
33.385817 97.913 -147.8038
33.627745 97.917 -148.1299
33.871425 97.922 -148.4571
34.116871 97.926 -148.7849
34.364096 97.930 -149.1130
34.613113 97.934 -149.4408
34.863934 97.937 -149.7679
35.116572 97.940 -150.0940
35.371041 97.943 -150.4188
35.627354 97.945 -150.7424
35.885525 97.948 -151.0647
36.145566 97.950 -151.3856
36.407492 97.951 -151.7048
36.671316 97.953 -152.0219
36.937051 97.954 -152.3367
37.204712 97.955 -152.6487
37.474313 97.955 -152.9581
37.745867 97.956 -153.2652
38.019389 97.956 -153.5706
38.294893 97.957 -153.8751
38.572394 97.957 -154.1794
38.851905 97.957 -154.4839
39.133442 97.957 -154.7888
39.417019 97.956 -155.0938
39.702651 97.955 -155.3986
39.990353 97.954 -155.7025
40.280140 97.952 -156.0053
40.572026 97.950 -156.3070
40.866028 97.948 -156.6079
41.162160 97.945 -156.9084
41.460438 97.943 -157.2093
41.760877 97.940 -157.5110
42.063494 97.938 -157.8135
42.368303 97.935 -158.1165
42.675322 97.931 -158.4195
42.984565 97.927 -158.7217
43.296048 97.923 -159.0224
43.609789 97.918 -159.3212
43.925804 97.914 -159.6180
44.244108 97.909 -159.9131
44.564719 97.905 -160.2070
44.887654 97.900 -160.5002
45.212928 97.895 -160.7932
45.540560 97.891 -161.0865
45.870565 97.886 -161.3800
46.202962 97.881 -161.6737
46.537768 97.875 -161.9671
46.875000 97.870 -162.2599
47.214676 97.864 -162.5515
47.556813 97.857 -162.8414
47.901429 97.850 -163.1291
48.248542 97.844 -163.4143
48.598171 97.837 -163.6970
48.950334 97.830 -163.9774
49.305048 97.823 -164.2561
49.662333 97.816 -164.5335
50.022206 97.809 -164.8104
50.384688 97.802 -165.0872
50.749796 97.795 -165.3641
51.117550 97.788 -165.6413
51.487969 97.781 -165.9183
51.861072 97.773 -166.1946
52.236879 97.765 -166.4697
52.615409 97.757 -166.7430
52.996681 97.748 -167.0141
53.380717 97.740 -167.2831
53.767536 97.732 -167.5503
54.157158 97.724 -167.8162
54.549603 97.716 -168.0813
54.944892 97.708 -168.3459
55.343045 97.701 -168.6106
55.744084 97.693 -168.8758
56.148028 97.686 -169.1422
56.554900 97.679 -169.4108
56.964720 97.673 -169.6822
57.377510 97.665 -169.9570
57.793291 97.658 -170.2351
58.212085 97.650 -170.5157
58.633914 97.641 -170.7979
59.058799 97.632 -171.0806
59.486764 97.622 -171.3630
59.917829 97.611 -171.6446
60.352019 97.600 -171.9247
60.789354 97.588 -172.2029
61.229859 97.575 -172.4787
61.673556 97.561 -172.7518
62.120468 97.547 -173.0220
62.570618 97.533 -173.2897
63.024031 97.519 -173.5551
63.480729 97.504 -173.8186
63.940736 97.488 -174.0802
64.404077 97.473 -174.3396
64.870776 97.457 -174.5969
65.340856 97.441 -174.8521
65.814343 97.424 -175.1056
66.291261 97.408 -175.3578
66.771635 97.391 -175.6091
67.255489 97.374 -175.8595
67.742850 97.357 -176.1084
68.233743 97.339 -176.3549
68.728193 97.321 -176.5981
69.226226 97.302 -176.8372
69.727867 97.283 -177.0720
70.233144 97.264 -177.3023
70.742083 97.244 -177.5276
71.254709 97.224 -177.7470
71.771050 97.204 -177.9592
72.291132 97.184 -178.1633
72.814984 97.164 -178.3595
73.342631 97.144 -178.5495
73.874102 97.126 -178.7363
74.409424 97.108 -178.9240
74.948626 97.090 -179.1151
75.491734 97.072 -179.3102
76.038779 97.054 -179.5082
76.589787 97.034 -179.7068
77.144788 97.014 -179.9031
77.703811 96.993 179.9068
78.266885 96.973 179.7255
78.834039 96.953 179.5517
79.405303 96.936 179.3794
79.980706 96.919 179.2021
80.560280 96.904 179.0181
81.144053 96.888 178.8302
81.732056 96.871 178.6432
82.324320 96.855 178.4606
82.920876 96.838 178.2844
83.521755 96.820 178.1166
84.126988 96.804 177.9585
84.736607 96.787 177.8093
85.350643 96.772 177.6666
85.969129 96.758 177.5291
86.592097 96.744 177.3963
87.219579 96.733 177.2668
87.851608 96.723 177.1373
88.488217 96.715 177.0038
89.129439 96.709 176.8643
89.775308 96.705 176.7180
90.425856 96.703 176.5623
91.081119 96.702 176.3914
91.741131 96.703 176.2002
92.405925 96.703 175.9883
93.075536 96.701 175.7603
93.750000 96.697 175.5225
94.429351 96.690 175.2800
95.113625 96.681 175.0355
95.802858 96.671 174.7891
96.497085 96.658 174.5399
97.196342 96.643 174.2875
97.900667 96.626 174.0340
98.610096 96.606 173.7830
99.324665 96.585 173.5381
100.044413 96.562 173.3013
100.769376 96.539 173.0726
101.499592 96.516 172.8503
102.235100 96.493 172.6323
102.975938 96.470 172.4164
103.722144 96.447 172.2025
104.473757 96.423 171.9926
105.230817 96.400 171.7897
105.993363 96.379 171.5941
106.761435 96.358 171.4012
107.535072 96.340 171.2046
108.314315 96.321 171.0001
109.099206 96.303 170.7885
109.889783 96.283 170.5745
110.686090 96.260 170.3647
111.488167 96.236 170.1631
112.296056 96.211 169.9685
113.109800 96.184 169.7750
113.929440 96.156 169.5765
114.755020 96.125 169.3711
115.586582 96.090 169.1622
116.424170 96.052 168.9590
117.267827 96.011 168.7747
118.117598 95.969 168.6221
118.973527 95.930 168.5082
119.835658 95.896 168.4285
120.704037 95.869 168.3651
121.578708 95.849 168.2939
122.459718 95.834 168.1992
123.347111 95.820 168.0795
124.240935 95.805 167.9424
125.141236 95.787 167.7986
126.048061 95.767 167.6569
126.961458 95.745 167.5223
127.881473 95.722 167.3967
128.808154 95.698 167.2791
129.741551 95.674 167.1670
130.681712 95.650 167.0565
131.628686 95.625 166.9438
132.582521 95.601 166.8270
133.543269 95.575 166.7075
134.510979 95.549 166.5876
135.485701 95.522 166.4695
136.467486 95.495 166.3535
137.456386 95.468 166.2393
138.452451 95.441 166.1263
139.455735 95.415 166.0146
140.466288 95.388 165.9039
141.484165 95.362 165.7938
142.509418 95.335 165.6837
143.542100 95.308 165.5734
144.582265 95.281 165.4628
145.629968 95.254 165.3517
146.685262 95.226 165.2401
147.748204 95.198 165.1277
148.818849 95.169 165.0145
149.897251 95.140 164.9021
150.983469 95.110 164.7933
152.077557 95.078 164.6925
153.179574 95.046 164.6035
154.289576 95.012 164.5285
155.407622 94.980 164.4664
156.533770 94.948 164.4128
157.668078 94.917 164.3610
158.810606 94.887 164.3040
159.961413 94.858 164.2374
161.120559 94.829 164.1597
162.288105 94.800 164.0724
163.464112 94.770 163.9789
164.648640 94.738 163.8831
165.841752 94.706 163.7896
167.043510 94.672 163.7028
168.253976 94.638 163.6264
169.473213 94.603 163.5620
170.701286 94.568 163.5092
171.938258 94.534 163.4656
173.184194 94.500 163.4283
174.439158 94.468 163.3940
175.703216 94.436 163.3602
176.976434 94.404 163.3251
178.258878 94.373 163.2879
179.550615 94.342 163.2488
180.851713 94.311 163.2082
182.162239 94.280 163.1665
183.482262 94.249 163.1242
184.811850 94.218 163.0815
186.151073 94.187 163.0388
187.500000 94.155 162.9966
188.858702 94.123 162.9560
190.227250 94.091 162.9182
191.605715 94.059 162.8836
192.994169 94.027 162.8524
194.392685 93.994 162.8249
195.801334 93.961 162.8021
197.220191 93.928 162.7852
198.649330 93.895 162.7757
200.088825 93.862 162.7741
201.538751 93.830 162.7798
202.999184 93.799 162.7907
204.470200 93.769 162.8030
205.951875 93.740 162.8127
207.444287 93.711 162.8172
208.947514 93.682 162.8159
210.461634 93.652 162.8107
211.986726 93.620 162.8050
213.522869 93.586 162.8035
215.070144 93.550 162.8115
216.628631 93.514 162.8334
218.198411 93.477 162.8707
219.779567 93.440 162.9208
221.372180 93.405 162.9783
222.976334 93.371 163.0372
224.592112 93.339 163.0929
226.219600 93.307 163.1439
227.858880 93.275 163.1910
229.510039 93.243 163.2358
231.173164 93.212 163.2802
232.848340 93.179 163.3251
234.535655 93.147 163.3705
236.235197 93.115 163.4159
237.947054 93.083 163.4606
239.671317 93.050 163.5051
241.408074 93.017 163.5505
243.157416 92.983 163.5993
244.919435 92.948 163.6543
246.694223 92.912 163.7183
248.481871 92.875 163.7941
250.282473 92.839 163.8842
252.096123 92.803 163.9897
253.922915 92.769 164.1087
255.762945 92.737 164.2350
257.616309 92.709 164.3589
259.483103 92.682 164.4703
261.363424 92.657 164.5646
263.257372 92.631 164.6436
265.165043 92.604 164.7142
267.086538 92.575 164.7846
269.021957 92.544 164.8620
270.971401 92.513 164.9507
272.934972 92.482 165.0517
274.912771 92.452 165.1637
276.904902 92.423 165.2841
278.911469 92.395 165.4109
280.932577 92.369 165.5416
282.968330 92.345 165.6726
285.018835 92.322 165.7981
287.084199 92.301 165.9109
289.164530 92.281 166.0050
291.259935 92.260 166.0790
293.370525 92.236 166.1382
295.496408 92.210 166.1929
297.637697 92.181 166.2528
299.794503 92.150 166.3243
301.966937 92.118 166.4092
304.155114 92.085 166.5062
306.359147 92.052 166.6118
308.579152 92.020 166.7224
310.815244 91.987 166.8347
313.067539 91.954 166.9480
315.336156 91.921 167.0636
317.621211 91.887 167.1854
319.922826 91.853 167.3182
322.241118 91.818 167.4645
324.576210 91.784 167.6233
326.928223 91.751 167.7911
329.297280 91.719 167.9637
331.683504 91.688 168.1378
334.087019 91.658 168.3106
336.507952 91.629 168.4801
338.946427 91.600 168.6459
341.402572 91.570 168.8094
343.876516 91.539 168.9733
346.368387 91.508 169.1402
348.878315 91.477 169.3121
351.406431 91.445 169.4894
353.952867 91.414 169.6718
356.517756 91.382 169.8585
359.101230 91.351 170.0486
361.703426 91.320 170.2417
364.324478 91.289 170.4375
366.964523 91.259 170.6361
369.623699 91.228 170.8381
372.302145 91.198 171.0442
375.000000 91.168 171.2545
377.717405 91.138 171.4689
380.454501 91.109 171.6869
383.211431 91.080 171.9081
385.988339 91.051 172.1320
388.785369 91.022 172.3586
391.602668 90.994 172.5881
394.440383 90.966 172.8209
397.298660 90.939 173.0567
400.177650 90.912 173.2952
403.077502 90.886 173.5350
405.998368 90.860 173.7745
408.940400 90.833 174.0128
411.903750 90.806 174.2513
414.888575 90.779 174.4933
417.895028 90.751 174.7427
420.923268 90.724 175.0023
423.973452 90.697 175.2730
427.045738 90.671 175.5538
430.140287 90.648 175.8409
433.257261 90.625 176.1295
436.396822 90.605 176.4162
439.559133 90.585 176.7001
442.744360 90.567 176.9811
445.952668 90.550 177.2571
449.184225 90.534 177.5237
452.439199 90.519 177.7752
455.717760 90.503 178.0088
459.020079 90.485 178.2279
462.346327 90.463 178.4428
465.696680 90.439 178.6650
469.071310 90.413 178.9016
472.470394 90.387 179.1539
475.894109 90.360 179.4197
479.342634 90.335 179.6941
482.816148 90.310 179.9718
486.314833 90.284 -179.7489
489.838871 90.258 -179.4638
493.388445 90.231 -179.1654
496.963741 90.205 -178.8501
500.564945 90.180 -178.5215
504.192245 90.157 -178.1874
507.845830 90.136 -177.8550
511.525890 90.115 -177.5273
515.232618 90.094 -177.2029
518.966206 90.073 -176.8777
522.726849 90.051 -176.5470
526.514743 90.029 -176.2065
530.330086 90.007 -175.8548
534.173076 89.986 -175.4940
538.043915 89.966 -175.1288
541.942803 89.948 -174.7613
545.869944 89.931 -174.3906
549.825542 89.914 -174.0162
553.809805 89.899 -173.6400
557.822939 89.885 -173.2655
561.865154 89.871 -172.8950
565.936660 89.857 -172.5277
570.037671 89.843 -172.1606
574.168399 89.828 -171.7894
578.329060 89.813 -171.4117
582.519870 89.798 -171.0282
586.741049 89.783 -170.6398
590.992817 89.768 -170.2447
595.275394 89.754 -169.8404
599.589005 89.741 -169.4271
603.933874 89.730 -169.0086
608.310228 89.719 -168.5884
612.718295 89.709 -168.1679
617.158304 89.699 -167.7449
621.630488 89.688 -167.3141
626.135079 89.678 -166.8693
630.672311 89.669 -166.4084
635.242423 89.662 -165.9355
639.845651 89.657 -165.4572
644.482237 89.655 -164.9760
649.152421 89.655 -164.4913
653.856447 89.657 -164.0045
658.594560 89.663 -163.5220
663.367008 89.671 -163.0538
668.174039 89.680 -162.6075
673.015903 89.690 -162.1830
677.892854 89.697 -161.7728
682.805145 89.702 -161.3682
687.753032 89.705 -160.9620
692.736774 89.707 -160.5486
697.756631 89.708 -160.1233
702.812863 89.709 -159.6845
707.905735 89.710 -159.2348
713.035511 89.713 -158.7786
718.202461 89.716 -158.3189
723.406852 89.720 -157.8565
728.648956 89.725 -157.3898
733.929047 89.730 -156.9173
739.247399 89.735 -156.4380
744.604290 89.741 -155.9513
750.000000 89.747 -155.4565
755.434809 89.754 -154.9529
760.909001 89.762 -154.4399
766.422861 89.770 -153.9167
771.976677 89.780 -153.3829
777.570739 89.791 -152.8379
783.205337 89.804 -152.2807
788.880766 89.819 -151.7092
794.597321 89.836 -151.1204
800.355301 89.857 -150.5128
806.155005 89.883 -149.8895
811.996736 89.916 -149.2591
817.880799 89.956 -148.6343
823.807501 90.002 -148.0299
829.777150 90.056 -147.4611
835.790057 90.113 -146.9385
841.846536 90.173 -146.4651
847.946903 90.233 -146.0400
854.091476 90.293 -145.6637
860.280575 90.352 -145.3385
866.514523 90.407 -145.0644
872.793644 90.458 -144.8370
879.118267 90.501 -144.6500
885.488720 90.537 -144.4949
891.905336 90.562 -144.3571
898.368450 90.575 -144.2135
904.878398 90.578 -144.0356
911.435520 90.573 -143.7967
918.040157 90.562 -143.4781
924.692655 90.550 -143.0719
931.393359 90.542 -142.5821
938.142619 90.540 -142.0234
944.940787 90.546 -141.4160
951.788218 90.561 -140.7797
958.685268 90.585 -140.1312
965.632296 90.617 -139.4841
972.629666 90.656 -138.8473
979.677741 90.700 -138.2274
986.776890 90.748 -137.6284
993.927482 90.800 -137.0502
1001.129891 90.854 -136.4879
1008.384491 90.910 -135.9356
1015.691660 90.969 -135.3915
1023.051781 91.032 -134.8579
1030.465236 91.099 -134.3403
1037.932411 91.170 -133.8480
1045.453698 91.244 -133.3909
1053.029486 91.318 -132.9727
1060.660172 91.392 -132.5887
1068.346153 91.463 -132.2298
1076.087829 91.532 -131.8865
1083.885605 91.600 -131.5524
1091.739887 91.667 -131.2252
1099.651084 91.733 -130.9045
1107.619609 91.798 -130.5896
1115.645878 91.863 -130.2789
1123.730308 91.927 -129.9709
1131.873321 91.991 -129.6638
1140.075341 92.055 -129.3566
1148.336797 92.119 -129.0486
1156.658119 92.183 -128.7392
1165.039741 92.248 -128.4277
1173.482099 92.313 -128.1124
1181.985634 92.381 -127.7941
1190.550789 92.452 -127.4783
1199.178011 92.527 -127.1760
1207.867749 92.603 -126.8990
1216.620457 92.681 -126.6531
1225.436590 92.757 -126.4350
1234.316609 92.832 -126.2364
1243.260976 92.903 -126.0486
1252.270157 92.972 -125.8639
1261.344623 93.040 -125.6782
1270.484846 93.106 -125.4901
1279.691303 93.171 -125.2981
1288.964474 93.235 -125.1007
1298.304842 93.300 -124.8982
1307.712894 93.366 -124.6931
1317.189120 93.432 -124.4889
1326.734016 93.499 -124.2878
1336.348077 93.566 -124.0893
1346.031806 93.635 -123.8906
1355.785708 93.704 -123.6884
1365.610290 93.774 -123.4793
1375.506065 93.847 -123.2591
1385.473549 93.921 -123.0229
1395.513261 93.999 -122.7695
1405.625726 94.081 -122.5041
1415.811469 94.168 -122.2385
1426.071023 94.260 -121.9873
1436.404921 94.353 -121.7599
1446.813703 94.447 -121.5574
1457.297912 94.541 -121.3748
1467.858093 94.633 -121.2066
1478.494798 94.724 -121.0486
1489.208581 94.812 -120.8979
1500.000000 94.898 -120.7512
1510.869618 94.981 -120.6055
1521.818002 95.060 -120.4576
1532.845723 95.135 -120.3052
1543.953355 95.208 -120.1464
1555.141477 95.280 -119.9810
1566.410674 95.353 -119.8132
1577.761531 95.428 -119.6540
1589.194642 95.505 -119.5176
1600.710601 95.584 -119.4138
1612.310010 95.663 -119.3440
1623.993473 95.740 -119.3036
1635.761599 95.816 -119.2858
1647.615002 95.890 -119.2849
1659.554299 95.963 -119.2966
1671.580114 96.035 -119.3181
1683.693072 96.108 -119.3485
1695.893807 96.179 -119.3900
1708.182952 96.251 -119.4450
1720.561150 96.321 -119.5134
1733.029045 96.389 -119.5925
1745.587288 96.454 -119.6777
1758.236533 96.518 -119.7631
1770.977440 96.580 -119.8438
1783.810673 96.644 -119.9208
1796.736900 96.711 -120.0029
1809.756796 96.780 -120.1041
1822.871040 96.851 -120.2355
1836.080315 96.922 -120.4015
1849.385310 96.992 -120.6017
1862.786718 97.061 -120.8331
1876.285239 97.128 -121.0917
1889.881575 97.195 -121.3723
1903.576436 97.261 -121.6686
1917.370535 97.328 -121.9751
1931.264593 97.397 -122.2875
1945.259332 97.470 -122.6062
1959.355483 97.546 -122.9380
1973.553781 97.624 -123.2945
1987.854965 97.702 -123.6849
2002.259781 97.779 -124.1117
2016.768981 97.852 -124.5720
2031.383320 97.919 -125.0601
2046.103561 97.981 -125.5688
2060.930471 98.038 -126.0914
2075.864823 98.088 -126.6228
2090.907395 98.133 -127.1589
2106.058972 98.171 -127.6937
2121.320344 98.201 -128.2178
2136.692305 98.224 -128.7180
2152.175658 98.241 -129.1801
2167.771210 98.253 -129.5939
2183.479774 98.263 -129.9571
2199.302169 98.273 -130.2726
2215.239219 98.283 -130.5427
2231.291755 98.294 -130.7680
2247.460615 98.309 -130.9487
2263.746641 98.329 -131.0870
2280.150683 98.356 -131.1887
2296.673595 98.391 -131.2641
2313.316238 98.438 -131.3300
2330.079481 98.498 -131.4110
2346.964198 98.570 -131.5401
2363.971268 98.652 -131.7513
2381.101578 98.741 -132.0707
2398.356022 98.832 -132.5120
2415.735498 98.920 -133.0768
2433.240913 99.002 -133.7577
2450.873180 99.076 -134.5426
2468.633217 99.139 -135.4177
2486.521951 99.190 -136.3676
2504.540314 99.227 -137.3737
2522.689246 99.250 -138.4141
2540.969692 99.258 -139.4664
2559.382606 99.255 -140.5137
2577.928947 99.240 -141.5462
2596.609683 99.216 -142.5580
2615.425787 99.181 -143.5431
2634.378241 99.137 -144.4936
2653.468031 99.083 -145.3995
2672.696154 99.021 -146.2489
2692.063613 98.952 -147.0296
2711.571415 98.878 -147.7338
2731.220579 98.802 -148.3625
2751.012130 98.727 -148.9247
2770.947098 98.652 -149.4315
2791.026522 98.579 -149.8920
2811.251451 98.506 -150.3123
2831.622938 98.434 -150.6958
2852.142045 98.363 -151.0452
2872.809842 98.291 -151.3612
2893.627406 98.220 -151.6411
2914.595823 98.150 -151.8786
2935.716186 98.081 -152.0691
2956.989596 98.017 -152.2162
2978.417161 97.957 -152.3319
3000.000000 97.904 -152.4319
3021.739237 97.855 -152.5313
3043.636005 97.809 -152.6399
3065.691446 97.765 -152.7598
3087.906710 97.720 -152.8866
3110.282955 97.675 -153.0145
3132.821347 97.629 -153.1394
3155.523062 97.580 -153.2566
3178.389283 97.529 -153.3576
3201.421202 97.475 -153.4294
3224.620020 97.417 -153.4566
3247.986946 97.358 -153.4251
3271.523198 97.299 -153.3229
3295.230004 97.244 -153.1408
3319.108599 97.195 -152.8764
3343.160228 97.156 -152.5400
3367.386145 97.132 -152.1546
3391.787613 97.122 -151.7497
3416.365904 97.126 -151.3523
3441.122300 97.144 -150.9809
3466.058091 97.172 -150.6429
3491.174576 97.210 -150.3403
3516.473066 97.257 -150.0773
3541.954880 97.314 -149.8615
3567.621345 97.378 -149.7025
3593.473800 97.448 -149.6091
3619.513592 97.524 -149.5883
3645.742080 97.602 -149.6443
3672.160630 97.681 -149.7746
3698.770620 97.759 -149.9711
3725.573436 97.836 -150.2253
3752.570477 97.912 -150.5338
3779.763150 97.986 -150.8981
3807.152872 98.057 -151.3200
3834.741071 98.124 -151.7969
3862.529185 98.187 -152.3208
3890.518664 98.245 -152.8840
3918.710966 98.299 -153.4838
3947.107561 98.351 -154.1228
3975.709929 98.400 -154.8063
4004.519563 98.448 -155.5411
4033.537962 98.491 -156.3320
4062.766641 98.531 -157.1792
4092.207123 98.565 -158.0783
4121.860942 98.595 -159.0262
4151.729646 98.619 -160.0253
4181.814790 98.638 -161.0829
4212.117944 98.650 -162.2048
4242.640687 98.652 -163.3900
4273.384610 98.643 -164.6308
4304.351317 98.621 -165.9186
4335.542421 98.586 -167.2464
4366.959549 98.537 -168.6082
4398.604338 98.473 -169.9991
4430.478438 98.392 -171.4120
4462.583511 98.293 -172.8332
4494.921231 98.175 -174.2430
4527.493283 98.038 -175.6214
4560.301365 97.882 -176.9523
4593.347189 97.709 -178.2210
4626.632476 97.517 -179.4104
4660.158962 97.308 179.4995
4693.928395 97.085 178.5266
4727.942535 96.850 177.6823
4762.203156 96.607 176.9692
4796.712043 96.359 176.3814
4831.470996 96.107 175.9095
4866.481826 95.853 175.5464
4901.746360 95.598 175.2879
4937.266434 95.342 175.1286
4973.043902 95.086 175.0623
5009.080628 94.831 175.0860
5045.378492 94.574 175.2037
5081.939384 94.318 175.4229
5118.765212 94.064 175.7492
5155.857894 93.813 176.1813
5193.219366 93.569 176.7101
5230.851574 93.331 177.3229
5268.756481 93.101 178.0091
5306.936062 92.879 178.7601
5345.392309 92.664 179.5665
5384.127225 92.456 -179.5799
5423.142830 92.252 -178.6807
5462.441159 92.053 -177.7301
5502.024259 91.858 -176.7190
5541.894195 91.668 -175.6408
5582.053045 91.485 -174.4964
5622.502902 91.311 -173.2924
5663.245876 91.147 -172.0366
5704.284090 90.993 -170.7373
5745.619684 90.850 -169.4046
5787.254813 90.718 -168.0473
5829.191647 90.595 -166.6675
5871.432373 90.481 -165.2601
5913.979192 90.376 -163.8168
5956.834323 90.280 -162.3318
6000.000000 90.195 -160.8059
6043.478473 90.123 -159.2439
6087.272010 90.065 -157.6531
6131.382892 90.020 -156.0433
6175.813420 89.990 -154.4259
6220.565910 89.974 -152.8078
6265.642695 89.970 -151.1888
6311.046124 89.979 -149.5644
6356.778566 90.001 -147.9312
6402.842404 90.038 -146.2899
6449.240040 90.090 -144.6447
6495.973891 90.159 -143.0033
6543.046396 90.246 -141.3765
6590.460007 90.350 -139.7749
6638.217197 90.472 -138.2046
6686.320456 90.611 -136.6671
6734.772290 90.768 -135.1634
6783.575226 90.945 -133.6990
6832.731809 91.142 -132.2841
6882.244600 91.360 -130.9330
6932.116181 91.599 -129.6639
6982.349153 91.859 -128.4950
7032.946133 92.139 -127.4414
7083.909760 92.441 -126.5154
7135.242690 92.766 -125.7308
7186.947600 93.115 -125.1076
7239.027185 93.489 -124.6735
7291.484160 93.889 -124.4659
7344.321260 94.314 -124.5314
7397.541239 94.760 -124.9209
7451.146872 95.224 -125.6842
7505.140954 95.698 -126.8678
7559.526299 96.174 -128.5164
7614.305743 96.644 -130.6705
7669.482141 97.094 -133.3630
7725.058371 97.511 -136.6150
7781.037328 97.877 -140.4264
7837.421932 98.177 -144.7651
7894.215122 98.392 -149.5594
7951.419859 98.510 -154.6991
8009.039125 98.521 -160.0405
8067.075924 98.423 -165.4192
8125.533282 98.216 -170.6673
8184.414245 97.909 -175.6312
8243.721885 97.510 179.8179
8303.459292 97.034 175.7781
8363.629581 96.496 172.3143
8424.235888 95.912 169.4595
8485.281374 95.299 167.2168
8546.769221 94.673 165.5611
8608.702634 94.048 164.4454
8671.084842 93.436 163.8124
8733.919097 92.846 163.6033
8797.208675 92.284 163.7656
8860.956876 91.753 164.2531
8925.167022 91.258 165.0222
8989.842461 90.802 166.0266
9054.986566 90.387 167.2207
9120.602731 90.012 168.5638
9186.694378 89.679 170.0241
9253.264952 89.385 171.5794
9320.317925 89.133 173.2109
9387.856790 88.921 174.8954
9455.885071 88.753 176.6055
9524.406312 88.626 178.3126
9593.424086 88.542 179.9921
9662.941992 88.501 -178.3743
9732.963653 88.503 -176.8052
9803.492719 88.549 -175.3275
9874.532869 88.641 -173.9770
9946.087805 88.776 -172.7951
10018.161257 88.955 -171.8228
10090.756983 89.175 -171.1012
10163.878768 89.434 -170.6775
10237.530423 89.728 -170.6087
10311.715789 90.050 -170.9577
10386.438732 90.391 -171.7834
10461.703149 90.738 -173.1305
10537.512962 91.076 -175.0258
10613.872125 91.389 -177.4785
10690.784618 91.659 179.5250
10768.254450 91.866 176.0276
10846.285661 91.995 172.1093
10924.882318 92.029 167.8860
11004.048518 91.960 163.4989
11083.788390 91.783 159.1014
11164.106090 91.502 154.8441
11245.005805 91.123 150.8668
11326.491752 90.657 147.2897
11408.568180 90.120 144.2040
11491.239368 89.529 141.6660
11574.509626 88.903 139.6956
11658.383294 88.260 138.2847
11742.864745 87.616 137.4058
11827.958384 86.985 137.0176
11913.668646 86.380 137.0656
12000.000000 85.809 137.4846
12086.956947 85.280 138.2086
12174.544019 84.798 139.1766
12262.765784 84.365 140.3323
12351.626840 83.985 141.6184
12441.131819 83.658 142.9771
12531.285389 83.384 144.3540
12622.092249 83.163 145.7001
12713.557132 82.995 146.9656
12805.684808 82.878 148.0956
12898.480079 82.808 149.0336
12991.947783 82.783 149.7267
13086.092792 82.796 150.1262
13180.920015 82.841 150.1852
13276.434395 82.908 149.8611
13372.640911 82.988 149.1234
13469.544580 83.066 147.9590
13567.150452 83.130 146.3720
13665.463617 83.168 144.3833
13764.489200 83.165 142.0352
13864.232362 83.111 139.3937
13964.698305 82.997 136.5418
14065.892266 82.820 133.5719
14167.819519 82.578 130.5804
14270.485380 82.276 127.6622
14373.895200 81.921 124.9011
14478.054370 81.525 122.3587
14582.968320 81.103 120.0693
14688.642520 80.674 118.0385
14795.082478 80.258 116.2355
14902.293745 79.877 114.5858
15010.281908 79.552 112.9689
15119.052599 79.303 111.2210
15228.611486 79.140 109.1424
15338.964283 79.060 106.5161
15450.116741 79.044 103.1392
15562.074656 79.053 98.8605
15674.843864 79.035 93.6159
15788.430244 78.928 87.4578
15902.839718 78.674 80.5719
16018.078250 78.224 73.2681
16134.151848 77.553 65.9353
16251.066563 76.653 58.9730
16368.828491 75.538 52.7326
16487.443769 74.234 47.4860
16606.918584 72.772 43.4208
16727.259161 71.187 40.6496
16848.471777 69.515 39.2229
16970.562748 67.789 39.1335
17093.538442 66.045 40.3194
17217.405268 64.316 42.6694
17342.169684 62.637 46.0286
17467.838194 61.041 50.2022
17594.417350 59.554 54.9709
17721.913751 58.196 60.1146
17850.334044 56.974 65.4393
17979.684923 55.884 70.7993
18109.973131 54.912 76.1076
18241.205462 54.043 81.3287
18373.388756 53.261 86.4517
18506.529905 52.554 91.4428
18640.635849 51.910 96.2090
18775.713581 51.314 100.6086
18911.770141 50.744 104.5202
19048.812624 50.170 107.9233
19186.848172 49.565 110.9295
19325.883983 48.915 113.7403
19465.927305 48.225 116.5553
19606.985439 47.525 119.4623
19749.065738 46.873 122.3297
19892.175609 46.352 124.7604
20036.322514 46.058 126.1956
