* Measurement data measured by REW V5.31.3
* Source: EXCL: Microphone (USB Sound Device        ), MICROPHONE (Master Volume), R, volume: 0.390
* Format: 256k Log Swept Sine, 1 sweep at -1.0 dBFS with no timing reference
* Dated: Jun 18, 2025 1:05:42 AM
* REW Settings:
*  C-weighting compensation: Off
*  Target level: 75.0 dB
* Note: L Soundpeats Air5 Pro
* Measurement: L Soundpeats Air5 Pro
* Smoothing: 1/12 octave
* Frequency Step: 96 ppo
* Start Frequency: 0.36621094 Hz
*
* Freq(Hz) SPL(dB) Phase(degrees)
0.366211 93.204 162.6003
0.368865 93.200 162.5824
0.371538 93.194 162.5556
0.374230 93.186 162.5220
0.376942 93.177 162.4833
0.379673 93.167 162.4408
0.382424 93.157 162.3953
0.385196 93.147 162.3474
0.387987 93.137 162.2973
0.390798 93.126 162.2453
0.393630 93.115 162.1914
0.396483 93.105 162.1356
0.399356 93.094 162.0779
0.402250 93.083 162.0184
0.405165 93.072 161.9569
0.408101 93.061 161.8936
0.411058 93.050 161.8284
0.414037 93.038 161.7613
0.417037 93.027 161.6922
0.420059 93.016 161.6212
0.423103 93.004 161.5482
0.426169 92.993 161.4733
0.429257 92.981 161.3963
0.432368 92.969 161.3173
0.435501 92.957 161.2363
0.438656 92.945 161.1533
0.441835 92.934 161.0681
0.445037 92.921 160.9810
0.448262 92.909 160.8917
0.451510 92.897 160.8004
0.454782 92.885 160.7069
0.458077 92.872 160.6113
0.461397 92.860 160.5136
0.464740 92.847 160.4138
0.468108 92.834 160.3118
0.471500 92.822 160.2077
0.474917 92.809 160.1014
0.478358 92.796 159.9930
0.481825 92.783 159.8824
0.485316 92.769 159.7696
0.488833 92.756 159.6546
0.492375 92.743 159.5374
0.495943 92.729 159.4181
0.499537 92.716 159.2966
0.503157 92.702 159.1729
0.506803 92.688 159.0470
0.510475 92.675 158.9189
0.514175 92.661 158.7887
0.517900 92.647 158.6562
0.521653 92.632 158.5217
0.525434 92.618 158.3850
0.529241 92.604 158.2461
0.533076 92.589 158.1051
0.536939 92.575 157.9621
0.540830 92.560 157.8169
0.544749 92.545 157.6696
0.548696 92.530 157.5203
0.552673 92.515 157.3690
0.556677 92.500 157.2156
0.560711 92.485 157.0603
0.564774 92.470 156.9030
0.568867 92.454 156.7439
0.572989 92.439 156.5828
0.577141 92.423 156.4199
0.581324 92.407 156.2552
0.585536 92.391 156.0887
0.589779 92.375 155.9205
0.594053 92.359 155.7507
0.598358 92.343 155.5793
0.602694 92.327 155.4063
0.607061 92.310 155.2318
0.611460 92.294 155.0560
0.615891 92.277 154.8788
0.620354 92.260 154.7003
0.624849 92.243 154.5206
0.629377 92.226 154.3398
0.633938 92.209 154.1580
0.638532 92.191 153.9753
0.643159 92.174 153.7917
0.647819 92.156 153.6074
0.652514 92.139 153.4225
0.657242 92.121 153.2371
0.662005 92.103 153.0513
0.666802 92.085 152.8653
0.671634 92.067 152.6791
0.676501 92.048 152.4930
0.681403 92.030 152.3071
0.686341 92.011 152.1214
0.691314 91.992 151.9362
0.696324 91.973 151.7517
0.701370 91.954 151.5679
0.706452 91.935 151.3850
0.711571 91.915 151.2031
0.716728 91.895 151.0221
0.721921 91.874 150.8419
0.727153 91.852 150.6622
0.732422 91.828 150.4825
0.737729 91.804 150.3022
0.743075 91.778 150.1205
0.748460 91.751 149.9370
0.753883 91.722 149.7510
0.759346 91.694 149.5624
0.764849 91.664 149.3710
0.770391 91.634 149.1765
0.775974 91.604 148.9790
0.781597 91.573 148.7784
0.787261 91.541 148.5747
0.792966 91.509 148.3679
0.798712 91.477 148.1579
0.804500 91.444 147.9449
0.810329 91.410 147.7287
0.816201 91.376 147.5095
0.822116 91.342 147.2872
0.828073 91.307 147.0619
0.834074 91.271 146.8336
0.840118 91.235 146.6023
0.846206 91.199 146.3681
0.852338 91.161 146.1310
0.858514 91.124 145.8911
0.864735 91.085 145.6485
0.871001 91.047 145.4031
0.877313 91.007 145.1552
0.883670 90.967 144.9047
0.890074 90.926 144.6518
0.896524 90.885 144.3965
0.903020 90.843 144.1391
0.909564 90.801 143.8795
0.916155 90.758 143.6180
0.922794 90.714 143.3547
0.929481 90.669 143.0898
0.936216 90.624 142.8233
0.943000 90.578 142.5556
0.949834 90.532 142.2867
0.956717 90.484 142.0171
0.963649 90.436 141.7467
0.970632 90.388 141.4760
0.977666 90.338 141.2052
0.984750 90.288 140.9345
0.991886 90.237 140.6644
0.999074 90.185 140.3951
1.006314 90.133 140.1269
1.013606 90.079 139.8603
1.020951 90.025 139.5957
1.028349 89.970 139.3334
1.035801 89.914 139.0741
1.043307 89.857 138.8180
1.050867 89.800 138.5658
1.058482 89.741 138.3179
1.066152 89.682 138.0749
1.073878 89.621 137.8373
1.081660 89.560 137.6055
1.089498 89.497 137.3799
1.097393 89.434 137.1608
1.105345 89.369 136.9482
1.113355 89.303 136.7422
1.121423 89.236 136.5427
1.129549 89.167 136.3497
1.137734 89.097 136.1631
1.145979 89.026 135.9830
1.154283 88.953 135.8092
1.162647 88.879 135.6419
1.171072 88.804 135.4810
1.179558 88.727 135.3266
1.188106 88.649 135.1786
1.196715 88.570 135.0372
1.205387 88.489 134.9023
1.214122 88.407 134.7740
1.222920 88.324 134.6523
1.231782 88.240 134.5372
1.240708 88.154 134.4288
1.249699 88.068 134.3270
1.258754 87.980 134.2318
1.267876 87.891 134.1434
1.277063 87.801 134.0616
1.286318 87.710 133.9864
1.295639 87.618 133.9179
1.305027 87.525 133.8560
1.314484 87.431 133.8007
1.324009 87.336 133.7520
1.333604 87.241 133.7096
1.343268 87.144 133.6737
1.353002 87.047 133.6440
1.362806 86.949 133.6204
1.372681 86.851 133.6028
1.382628 86.752 133.5910
1.392647 86.652 133.5849
1.402739 86.553 133.5844
1.412904 86.452 133.5892
1.423142 86.351 133.5994
1.433455 86.250 133.6153
1.443843 86.148 133.6373
1.454305 86.045 133.6665
1.464844 85.941 133.7043
1.475459 85.836 133.7528
1.486150 85.728 133.8141
1.496920 85.619 133.8902
1.507767 85.507 133.9827
1.518693 85.393 134.0927
1.529698 85.276 134.2213
1.540783 85.157 134.3691
1.551948 85.037 134.5367
1.563194 84.914 134.7246
1.574521 84.790 134.9333
1.585931 84.665 135.1631
1.597423 84.538 135.4143
1.608999 84.411 135.6872
1.620658 84.284 135.9821
1.632402 84.156 136.2990
1.644232 84.029 136.6382
1.656146 83.903 136.9995
1.668147 83.777 137.3831
1.680235 83.653 137.7886
1.692411 83.530 138.2159
1.704675 83.410 138.6646
1.717028 83.292 139.1341
1.729470 83.178 139.6238
1.742003 83.067 140.1331
1.754626 82.960 140.6610
1.767341 82.858 141.2069
1.780147 82.761 141.7701
1.793047 82.669 142.3502
1.806040 82.583 142.9476
1.819128 82.503 143.5635
1.832310 82.429 144.2002
1.845587 82.361 144.8604
1.858961 82.299 145.5468
1.872432 82.243 146.2614
1.886001 82.192 147.0046
1.899667 82.147 147.7757
1.913433 82.106 148.5731
1.927299 82.071 149.3944
1.941265 82.041 150.2364
1.955332 82.016 151.0957
1.969501 81.995 151.9685
1.983773 81.979 152.8507
1.998148 81.967 153.7381
2.012627 81.959 154.6263
2.027212 81.956 155.5107
2.041902 81.956 156.3870
2.056698 81.960 157.2505
2.071602 81.967 158.0969
2.086614 81.978 158.9218
2.101734 81.991 159.7211
2.116964 82.008 160.4908
2.132304 82.028 161.2274
2.147756 82.050 161.9281
2.163320 82.075 162.5903
2.178996 82.104 163.2128
2.194786 82.137 163.7951
2.210690 82.174 164.3377
2.226710 82.216 164.8415
2.242845 82.264 165.3075
2.259098 82.318 165.7366
2.275468 82.378 166.1292
2.291957 82.443 166.4856
2.308566 82.513 166.8062
2.325295 82.588 167.0912
2.342145 82.667 167.3412
2.359117 82.749 167.5564
2.376212 82.834 167.7376
2.393431 82.921 167.8853
2.410775 83.009 168.0001
2.428244 83.098 168.0827
2.445840 83.186 168.1338
2.463564 83.273 168.1537
2.481416 83.358 168.1430
2.499397 83.441 168.1015
2.517509 83.521 168.0291
2.535752 83.597 167.9248
2.554127 83.670 167.7871
2.572635 83.740 167.6142
2.591277 83.808 167.4042
2.610055 83.873 167.1562
2.628968 83.936 166.8701
2.648019 83.998 166.5471
2.667208 84.058 166.1889
2.686535 84.117 165.7979
2.706003 84.174 165.3771
2.725612 84.230 164.9292
2.745363 84.285 164.4575
2.765257 84.337 163.9648
2.785295 84.388 163.4543
2.805478 84.438 162.9287
2.825808 84.485 162.3906
2.846285 84.530 161.8422
2.866910 84.573 161.2849
2.887685 84.614 160.7192
2.908611 84.652 160.1442
2.929688 84.688 159.5578
2.950917 84.720 158.9568
2.972301 84.750 158.3379
2.993839 84.778 157.6989
3.015534 84.802 157.0388
3.037386 84.824 156.3579
3.059396 84.843 155.6575
3.081565 84.859 154.9396
3.103896 84.874 154.2065
3.126388 84.886 153.4612
3.149043 84.897 152.7065
3.171862 84.905 151.9453
3.194847 84.913 151.1804
3.217998 84.918 150.4141
3.241317 84.923 149.6482
3.264805 84.926 148.8832
3.288463 84.927 148.1183
3.312293 84.927 147.3514
3.336295 84.925 146.5798
3.360471 84.921 145.8012
3.384822 84.915 145.0144
3.409350 84.907 144.2192
3.434056 84.897 143.4167
3.458940 84.886 142.6086
3.484005 84.874 141.7974
3.509252 84.861 140.9861
3.534681 84.847 140.1781
3.560295 84.834 139.3766
3.586094 84.821 138.5853
3.612081 84.808 137.8069
3.638255 84.795 137.0439
3.664620 84.784 136.2971
3.691175 84.772 135.5668
3.717923 84.760 134.8521
3.744864 84.749 134.1516
3.772001 84.738 133.4642
3.799335 84.727 132.7890
3.826866 84.717 132.1250
3.854597 84.708 131.4720
3.882529 84.701 130.8298
3.910664 84.696 130.1988
3.939002 84.694 129.5795
3.967546 84.694 128.9731
3.996296 84.699 128.3809
4.025255 84.706 127.8048
4.054423 84.718 127.2465
4.083804 84.732 126.7069
4.113396 84.750 126.1863
4.143204 84.772 125.6837
4.173227 84.797 125.1974
4.203468 84.826 124.7250
4.233928 84.859 124.2640
4.264609 84.896 123.8117
4.295512 84.938 123.3660
4.326639 84.984 122.9252
4.357992 85.035 122.4890
4.389572 85.091 122.0576
4.421380 85.153 121.6324
4.453419 85.220 121.2147
4.485691 85.292 120.8046
4.518196 85.369 120.4014
4.550936 85.451 120.0028
4.583914 85.538 119.6057
4.617131 85.628 119.2069
4.650589 85.723 118.8029
4.684289 85.820 118.3909
4.718233 85.921 117.9686
4.752424 86.024 117.5353
4.786862 86.131 117.0912
4.821549 86.242 116.6375
4.856488 86.355 116.1753
4.891680 86.472 115.7054
4.927127 86.590 115.2281
4.962831 86.711 114.7433
4.998794 86.833 114.2504
5.035017 86.956 113.7487
5.071503 87.079 113.2372
5.108253 87.202 112.7153
5.145270 87.325 112.1828
5.182555 87.447 111.6398
5.220110 87.569 111.0876
5.257937 87.692 110.5280
5.296038 87.813 109.9631
5.334415 87.934 109.3951
5.373071 88.053 108.8260
5.412006 88.171 108.2574
5.451224 88.287 107.6900
5.490725 88.401 107.1242
5.530514 88.512 106.5596
5.570590 88.622 105.9964
5.610957 88.729 105.4355
5.651616 88.834 104.8788
5.692570 88.938 104.3286
5.733821 89.039 103.7876
5.775370 89.138 103.2582
5.817221 89.234 102.7421
5.859375 89.329 102.2402
5.901834 89.421 101.7526
5.944602 89.512 101.2791
5.987679 89.600 100.8201
6.031068 89.686 100.3763
6.074771 89.771 99.9491
6.118792 89.854 99.5399
6.163131 89.937 99.1503
6.207792 90.018 98.7813
6.252776 90.099 98.4333
6.298086 90.178 98.1061
6.343725 90.258 97.7989
6.389694 90.336 97.5110
6.435996 90.415 97.2413
6.482634 90.494 96.9890
6.529610 90.573 96.7536
6.576926 90.653 96.5345
6.624585 90.734 96.3314
6.672590 90.815 96.1435
6.720942 90.898 95.9694
6.769645 90.981 95.8073
6.818700 91.065 95.6551
6.868111 91.150 95.5103
6.917881 91.237 95.3713
6.968010 91.324 95.2366
7.018504 91.413 95.1053
7.069362 91.503 94.9764
7.120590 91.593 94.8486
7.172189 91.684 94.7204
7.224161 91.776 94.5898
7.276511 91.867 94.4553
7.329239 91.959 94.3157
7.382350 92.051 94.1705
7.435845 92.142 94.0194
7.489729 92.233 93.8625
7.544002 92.323 93.6998
7.598669 92.412 93.5312
7.653732 92.499 93.3567
7.709194 92.586 93.1763
7.765058 92.670 92.9904
7.821327 92.754 92.7995
7.878004 92.835 92.6046
7.935091 92.914 92.4068
7.992592 92.992 92.2073
8.050510 93.067 92.0068
8.108847 93.141 91.8060
8.167607 93.213 91.6056
8.226793 93.282 91.4062
8.286408 93.350 91.2086
8.346454 93.416 91.0139
8.406936 93.481 90.8225
8.467856 93.544 90.6350
8.529218 93.606 90.4514
8.591024 93.667 90.2715
8.653278 93.727 90.0951
8.715983 93.787 89.9216
8.779143 93.845 89.7508
8.842760 93.904 89.5820
8.906839 93.962 89.4146
8.971381 94.020 89.2474
9.036392 94.077 89.0790
9.101873 94.135 88.9082
9.167829 94.193 88.7336
9.234263 94.250 88.5542
9.301178 94.308 88.3689
9.368578 94.365 88.1768
9.436467 94.422 87.9764
9.504847 94.479 87.7669
9.573723 94.535 87.5475
9.643099 94.591 87.3178
9.712976 94.646 87.0777
9.783361 94.700 86.8273
9.854255 94.752 86.5666
9.925663 94.803 86.2960
9.997588 94.853 86.0160
10.070035 94.901 85.7277
10.143007 94.948 85.4321
10.216507 94.993 85.1307
10.290540 95.036 84.8246
10.365109 95.078 84.5150
10.440219 95.118 84.2032
10.515873 95.156 83.8908
10.592076 95.194 83.5792
10.668830 95.230 83.2694
10.746141 95.266 82.9625
10.824012 95.301 82.6590
10.902447 95.336 82.3594
10.981451 95.371 82.0641
11.061027 95.406 81.7731
11.141180 95.443 81.4859
11.221913 95.480 81.2018
11.303232 95.519 80.9197
11.385140 95.560 80.6385
11.467641 95.602 80.3568
11.550741 95.647 80.0729
11.634442 95.693 79.7850
11.718750 95.742 79.4912
11.803669 95.793 79.1899
11.889203 95.846 78.8795
11.975357 95.900 78.5584
12.062136 95.957 78.2253
12.149543 96.015 77.8792
12.237583 96.075 77.5195
12.326262 96.135 77.1458
12.415583 96.196 76.7581
12.505552 96.258 76.3569
12.596172 96.320 75.9427
12.687449 96.381 75.5167
12.779387 96.443 75.0803
12.871992 96.503 74.6350
12.965268 96.563 74.1827
13.059220 96.623 73.7251
13.153852 96.681 73.2644
13.249170 96.739 72.8026
13.345179 96.795 72.3416
13.441884 96.851 71.8832
13.539289 96.906 71.4292
13.637401 96.961 70.9810
13.736223 97.015 70.5397
13.835761 97.069 70.1063
13.936021 97.124 69.6813
14.037007 97.178 69.2648
14.138725 97.233 68.8567
14.241180 97.288 68.4564
14.344377 97.345 68.0631
14.448323 97.402 67.6758
14.553021 97.460 67.2929
14.658478 97.519 66.9131
14.764700 97.579 66.5347
14.871691 97.640 66.1562
14.979457 97.701 65.7759
15.088005 97.763 65.3924
15.197339 97.825 65.0045
15.307465 97.887 64.6112
15.418389 97.949 64.2119
15.530117 98.010 63.8062
15.642655 98.070 63.3940
15.756008 98.128 62.9756
15.870182 98.185 62.5514
15.985184 98.241 62.1222
16.101019 98.295 61.6886
16.217694 98.346 61.2515
16.335214 98.396 60.8117
16.453586 98.445 60.3696
16.572815 98.491 59.9257
16.692909 98.536 59.4800
16.813872 98.579 59.0321
16.935713 98.621 58.5814
17.058436 98.662 58.1268
17.182048 98.702 57.6670
17.306556 98.740 57.2004
17.431967 98.778 56.7252
17.558286 98.814 56.2398
17.685521 98.850 55.7422
17.813677 98.884 55.2312
17.942762 98.916 54.7053
18.072783 98.947 54.1638
18.203746 98.975 53.6061
18.335658 99.002 53.0321
18.468526 99.026 52.4423
18.602356 99.047 51.8372
18.737156 99.065 51.2180
18.872934 99.081 50.5855
19.009695 99.094 49.9413
19.147447 99.104 49.2866
19.286197 99.111 48.6226
19.425953 99.116 47.9507
19.566721 99.118 47.2720
19.708510 99.118 46.5877
19.851326 99.115 45.8987
19.995177 99.110 45.2063
20.140070 99.103 44.5114
20.286013 99.094 43.8154
20.433014 99.084 43.1194
20.581080 99.072 42.4248
20.730219 99.058 41.7328
20.880439 99.043 41.0449
21.031747 99.026 40.3623
21.184152 99.009 39.6862
21.337661 98.991 39.0175
21.492282 98.973 38.3571
21.648024 98.954 37.7057
21.804895 98.935 37.0639
21.962902 98.916 36.4323
22.122054 98.897 35.8116
22.282360 98.878 35.2021
22.443827 98.859 34.6045
22.606464 98.841 34.0188
22.770280 98.824 33.4451
22.935283 98.807 32.8827
23.101481 98.792 32.3303
23.268884 98.778 31.7857
23.437500 98.765 31.2458
23.607338 98.754 30.7072
23.778406 98.743 30.1659
23.950714 98.733 29.6185
24.124271 98.722 29.0623
24.299086 98.710 28.4963
24.475167 98.695 27.9218
24.652524 98.676 27.3422
24.831166 98.652 26.7636
25.011103 98.623 26.1942
25.192344 98.588 25.6433
25.374898 98.547 25.1207
25.558775 98.503 24.6350
25.743984 98.456 24.1929
25.930536 98.407 23.7974
26.118439 98.360 23.4473
26.307704 98.316 23.1375
26.498341 98.276 22.8589
26.690359 98.242 22.5999
26.883768 98.213 22.3481
27.078579 98.190 22.0919
27.274801 98.170 21.8223
27.472446 98.154 21.5336
27.671522 98.138 21.2239
27.872042 98.123 20.8948
28.074014 98.107 20.5502
28.277450 98.089 20.1955
28.482360 98.070 19.8360
28.688755 98.050 19.4764
28.896645 98.029 19.1200
29.106042 98.007 18.7688
29.316957 97.985 18.4241
29.529400 97.963 18.0867
29.743382 97.941 17.7578
29.958915 97.918 17.4389
30.176009 97.896 17.1320
30.394677 97.873 16.8392
30.614929 97.852 16.5619
30.836778 97.831 16.3004
31.060234 97.812 16.0534
31.285309 97.795 15.8182
31.512015 97.780 15.5907
31.740364 97.767 15.3665
31.970368 97.756 15.1417
32.202039 97.746 14.9131
32.435388 97.736 14.6794
32.670428 97.726 14.4408
32.907171 97.715 14.1989
33.145630 97.702 13.9563
33.385817 97.688 13.7160
33.627745 97.673 13.4807
33.871425 97.656 13.2525
34.116871 97.638 13.0327
34.364096 97.620 12.8211
34.613113 97.602 12.6170
34.863934 97.584 12.4183
35.116572 97.566 12.2227
35.371041 97.549 12.0277
35.627354 97.533 11.8311
35.885525 97.518 11.6312
36.145566 97.503 11.4271
36.407492 97.488 11.2185
36.671316 97.473 11.0059
36.937051 97.458 10.7901
37.204712 97.443 10.5722
37.474313 97.428 10.3537
37.745867 97.413 10.1363
38.019389 97.398 9.9219
38.294893 97.383 9.7124
38.572394 97.369 9.5092
38.851905 97.355 9.3128
39.133442 97.343 9.1226
39.417019 97.333 8.9362
39.702651 97.325 8.7505
39.990353 97.317 8.5619
40.280140 97.311 8.3675
40.572026 97.306 8.1659
40.866028 97.300 7.9579
41.162160 97.293 7.7462
41.460438 97.284 7.5351
41.760877 97.274 7.3293
42.063494 97.263 7.1331
42.368303 97.252 6.9491
42.675322 97.241 6.7781
42.984565 97.231 6.6185
43.296048 97.223 6.4667
43.609789 97.217 6.3179
43.925804 97.213 6.1667
44.244108 97.212 6.0081
44.564719 97.212 5.8383
44.887654 97.213 5.6552
45.212928 97.214 5.4588
45.540560 97.215 5.2507
45.870565 97.215 5.0343
46.202962 97.214 4.8139
46.537768 97.212 4.5941
46.875000 97.209 4.3789
47.214676 97.206 4.1715
47.556813 97.203 3.9728
47.901429 97.202 3.7818
48.248542 97.202 3.5957
48.598171 97.203 3.4099
48.950334 97.207 3.2196
49.305048 97.212 3.0204
49.662333 97.218 2.8096
50.022206 97.225 2.5859
50.384688 97.231 2.3502
50.749796 97.236 2.1046
51.117550 97.241 1.8526
51.487969 97.244 1.5974
51.861072 97.248 1.3420
52.236879 97.251 1.0877
52.615409 97.256 0.8338
52.996681 97.261 0.5779
53.380717 97.269 0.3163
53.767536 97.278 0.0450
54.157158 97.288 -0.2393
54.549603 97.299 -0.5391
54.944892 97.311 -0.8557
55.343045 97.323 -1.1900
55.744084 97.335 -1.5421
56.148028 97.346 -1.9113
56.554900 97.355 -2.2962
56.964720 97.363 -2.6947
57.377510 97.370 -3.1046
57.793291 97.375 -3.5248
58.212085 97.378 -3.9551
58.633914 97.381 -4.3963
59.058799 97.382 -4.8497
59.486764 97.382 -5.3165
59.917829 97.381 -5.7977
60.352019 97.379 -6.2939
60.789354 97.374 -6.8054
61.229859 97.368 -7.3318
61.673556 97.359 -7.8721
62.120468 97.347 -8.4243
62.570618 97.333 -8.9861
63.024031 97.317 -9.5556
63.480729 97.297 -10.1315
63.940736 97.275 -10.7134
64.404077 97.251 -11.3013
64.870776 97.223 -11.8949
65.340856 97.193 -12.4933
65.814343 97.158 -13.0946
66.291261 97.120 -13.6959
66.771635 97.078 -14.2938
67.255489 97.033 -14.8845
67.742850 96.984 -15.4652
68.233743 96.932 -16.0335
68.728193 96.877 -16.5883
69.226226 96.819 -17.1291
69.727867 96.759 -17.6559
70.233144 96.698 -18.1691
70.742083 96.635 -18.6694
71.254709 96.570 -19.1577
71.771050 96.503 -19.6351
72.291132 96.435 -20.1023
72.814984 96.366 -20.5588
73.342631 96.294 -21.0032
73.874102 96.221 -21.4333
74.409424 96.147 -21.8468
74.948626 96.072 -22.2425
75.491734 95.997 -22.6205
76.038779 95.923 -22.9822
76.589787 95.850 -23.3295
77.144788 95.777 -23.6649
77.703811 95.704 -23.9900
78.266885 95.632 -24.3055
78.834039 95.559 -24.6107
79.405303 95.485 -24.9035
79.980706 95.409 -25.1817
80.560280 95.333 -25.4433
81.144053 95.255 -25.6870
81.732056 95.176 -25.9132
82.324320 95.098 -26.1237
82.920876 95.020 -26.3222
83.521755 94.942 -26.5139
84.126988 94.866 -26.7049
84.736607 94.790 -26.9005
85.350643 94.715 -27.1038
85.969129 94.640 -27.3150
86.592097 94.564 -27.5312
87.219579 94.486 -27.7471
87.851608 94.407 -27.9559
88.488217 94.327 -28.1513
89.129439 94.245 -28.3288
89.775308 94.164 -28.4875
90.425856 94.083 -28.6295
91.081119 94.004 -28.7599
91.741131 93.924 -28.8854
92.405925 93.846 -29.0125
93.075536 93.767 -29.1463
93.750000 93.687 -29.2894
94.429351 93.605 -29.4414
95.113625 93.521 -29.5997
95.802858 93.434 -29.7593
96.497085 93.345 -29.9135
97.196342 93.253 -30.0555
97.900667 93.161 -30.1802
98.610096 93.068 -30.2858
99.324665 92.977 -30.3744
100.044413 92.886 -30.4508
100.769376 92.797 -30.5212
101.499592 92.709 -30.5917
102.235100 92.620 -30.6671
102.975938 92.530 -30.7503
103.722144 92.438 -30.8417
104.473757 92.343 -30.9392
105.230817 92.244 -31.0381
105.993363 92.141 -31.1328
106.761435 92.035 -31.2169
107.535072 91.926 -31.2849
108.314315 91.815 -31.3330
109.099206 91.704 -31.3599
109.889783 91.591 -31.3670
110.686090 91.479 -31.3578
111.488167 91.367 -31.3373
112.296056 91.255 -31.3109
113.109800 91.142 -31.2828
113.929440 91.029 -31.2544
114.755020 90.913 -31.2238
115.586582 90.794 -31.1857
116.424170 90.671 -31.1329
117.267827 90.544 -31.0579
118.117598 90.413 -30.9554
118.973527 90.278 -30.8230
119.835658 90.140 -30.6621
120.704037 89.999 -30.4767
121.578708 89.856 -30.2716
122.459718 89.711 -30.0516
123.347111 89.566 -29.8195
124.240935 89.420 -29.5750
125.141236 89.274 -29.3139
126.048061 89.126 -29.0298
126.961458 88.977 -28.7161
127.881473 88.825 -28.3683
128.808154 88.669 -27.9844
129.741551 88.509 -27.5651
130.681712 88.346 -27.1118
131.628686 88.180 -26.6258
132.582521 88.012 -26.1063
133.543269 87.844 -25.5478
134.510979 87.677 -24.9393
135.485701 87.511 -24.2649
136.467486 87.345 -23.5068
137.456386 87.179 -22.6501
138.452451 87.010 -21.6873
139.455735 86.840 -20.6202
140.466288 86.666 -19.4580
141.484165 86.492 -18.2121
142.509418 86.321 -16.8893
143.542100 86.156 -15.4883
144.582265 86.005 -14.0005
145.629968 85.874 -12.4154
146.685262 85.767 -10.7288
147.748204 85.689 -8.9499
148.818849 85.640 -7.1067
149.897251 85.619 -5.2448
150.983469 85.622 -3.4209
152.077557 85.645 -1.6926
153.179574 85.682 -0.1069
154.289576 85.728 1.3106
155.407622 85.780 2.5592
156.533770 85.833 3.6616
157.668078 85.886 4.6551
158.810606 85.936 5.5803
159.961413 85.982 6.4720
161.120559 86.023 7.3547
162.288105 86.058 8.2406
163.464112 86.088 9.1308
164.648640 86.114 10.0195
165.841752 86.137 10.9002
167.043510 86.160 11.7702
168.253976 86.184 12.6325
169.473213 86.210 13.4938
170.701286 86.240 14.3620
171.938258 86.275 15.2432
173.184194 86.314 16.1391
174.439158 86.358 17.0459
175.703216 86.407 17.9549
176.976434 86.461 18.8553
178.258878 86.519 19.7373
179.550615 86.580 20.5939
180.851713 86.644 21.4215
182.162239 86.710 22.2190
183.482262 86.776 22.9868
184.811850 86.841 23.7251
186.151073 86.906 24.4337
187.500000 86.970 25.1117
188.858702 87.035 25.7576
190.227250 87.101 26.3708
191.605715 87.170 26.9520
192.994169 87.241 27.5034
194.392685 87.315 28.0283
195.801334 87.390 28.5297
197.220191 87.466 29.0091
198.649330 87.540 29.4668
200.088825 87.612 29.9030
201.538751 87.683 30.3193
202.999184 87.750 30.7197
204.470200 87.816 31.1096
205.951875 87.880 31.4936
207.444287 87.942 31.8734
208.947514 88.002 32.2469
210.461634 88.060 32.6094
211.986726 88.118 32.9545
213.522869 88.174 33.2769
215.070144 88.229 33.5739
216.628631 88.284 33.8466
218.198411 88.338 34.0995
219.779567 88.390 34.3396
221.372180 88.440 34.5743
222.976334 88.487 34.8095
224.592112 88.530 35.0482
226.219600 88.570 35.2908
227.858880 88.607 35.5349
229.510039 88.643 35.7772
231.173164 88.679 36.0144
232.848340 88.716 36.2448
234.535655 88.753 36.4682
236.235197 88.791 36.6866
237.947054 88.829 36.9025
239.671317 88.865 37.1191
241.408074 88.898 37.3386
243.157416 88.929 37.5623
244.919435 88.957 37.7899
246.694223 88.982 38.0201
248.481871 89.006 38.2512
250.282473 89.030 38.4815
252.096123 89.055 38.7097
253.922915 89.082 38.9360
255.762945 89.110 39.1611
257.616309 89.140 39.3863
259.483103 89.171 39.6125
261.363424 89.201 39.8396
263.257372 89.230 40.0662
265.165043 89.257 40.2888
267.086538 89.281 40.5032
269.021957 89.304 40.7053
270.971401 89.323 40.8920
272.934972 89.341 41.0627
274.912771 89.356 41.2196
276.904902 89.370 41.3678
278.911469 89.382 41.5145
280.932577 89.394 41.6668
282.968330 89.403 41.8309
285.018835 89.412 42.0104
287.084199 89.419 42.2063
289.164530 89.424 42.4171
291.259935 89.429 42.6396
293.370525 89.434 42.8697
295.496408 89.438 43.1040
297.637697 89.444 43.3392
299.794503 89.449 43.5729
301.966937 89.455 43.8041
304.155114 89.461 44.0326
306.359147 89.464 44.2593
308.579152 89.466 44.4853
310.815244 89.466 44.7127
313.067539 89.463 44.9444
315.336156 89.460 45.1847
317.621211 89.456 45.4387
319.922826 89.453 45.7106
322.241118 89.451 46.0022
324.576210 89.450 46.3114
326.928223 89.449 46.6321
329.297280 89.449 46.9558
331.683504 89.448 47.2737
334.087019 89.446 47.5798
336.507952 89.442 47.8726
338.946427 89.436 48.1550
341.402572 89.429 48.4336
343.876516 89.421 48.7167
346.368387 89.413 49.0122
348.878315 89.406 49.3258
351.406431 89.401 49.6598
353.952867 89.398 50.0135
356.517756 89.395 50.3831
359.101230 89.394 50.7629
361.703426 89.392 51.1457
364.324478 89.389 51.5244
366.964523 89.384 51.8935
369.623699 89.377 52.2508
372.302145 89.370 52.5980
375.000000 89.362 52.9400
377.717405 89.354 53.2842
380.454501 89.348 53.6386
383.211431 89.343 54.0104
385.988339 89.338 54.4041
388.785369 89.334 54.8211
391.602668 89.330 55.2589
394.440383 89.324 55.7121
397.298660 89.318 56.1734
400.177650 89.310 56.6352
403.077502 89.303 57.0914
405.998368 89.297 57.5386
408.940400 89.292 57.9762
411.903750 89.290 58.4053
414.888575 89.289 58.8286
417.895028 89.290 59.2498
420.923268 89.291 59.6733
423.973452 89.291 60.1039
427.045738 89.290 60.5455
430.140287 89.288 61.0000
433.257261 89.286 61.4670
436.396822 89.283 61.9438
439.559133 89.281 62.4263
442.744360 89.279 62.9100
445.952668 89.277 63.3909
449.184225 89.275 63.8673
452.439199 89.273 64.3394
455.717760 89.271 64.8101
459.020079 89.269 65.2829
462.346327 89.266 65.7619
465.696680 89.265 66.2506
469.071310 89.265 66.7513
472.470394 89.266 67.2649
475.894109 89.268 67.7903
479.342634 89.271 68.3244
482.816148 89.275 68.8628
486.314833 89.277 69.4006
489.838871 89.278 69.9345
493.388445 89.279 70.4640
496.963741 89.279 70.9923
500.564945 89.280 71.5254
504.192245 89.281 72.0696
507.845830 89.284 72.6297
511.525890 89.287 73.2065
515.232618 89.291 73.7967
518.966206 89.296 74.3940
522.726849 89.301 74.9910
526.514743 89.307 75.5816
530.330086 89.314 76.1628
534.173076 89.321 76.7352
538.043915 89.329 77.3027
541.942803 89.338 77.8713
545.869944 89.348 78.4475
549.825542 89.360 79.0358
553.809805 89.372 79.6378
557.822939 89.385 80.2511
561.865154 89.399 80.8701
565.936660 89.412 81.4883
570.037671 89.426 82.1001
574.168399 89.440 82.7032
578.329060 89.454 83.2988
582.519870 89.468 83.8915
586.741049 89.482 84.4877
590.992817 89.496 85.0932
595.275394 89.511 85.7119
599.589005 89.527 86.3439
603.933874 89.544 86.9856
608.310228 89.562 87.6304
612.718295 89.581 88.2707
617.158304 89.601 88.8996
621.630488 89.622 89.5138
626.135079 89.645 90.1140
630.672311 89.668 90.7050
635.242423 89.693 91.2936
639.845651 89.718 91.8868
644.482237 89.744 92.4889
649.152421 89.770 93.1005
653.856447 89.797 93.7185
658.594560 89.823 94.3375
663.367008 89.848 94.9516
668.174039 89.873 95.5561
673.015903 89.896 96.1495
677.892854 89.919 96.7337
682.805145 89.941 97.3143
687.753032 89.962 97.8994
692.736774 89.981 98.4969
697.756631 90.000 99.1137
702.812863 90.017 99.7534
707.905735 90.035 100.4168
713.035511 90.053 101.1023
718.202461 90.073 101.8055
723.406852 90.096 102.5192
728.648956 90.125 103.2340
733.929047 90.158 103.9407
739.247399 90.196 104.6327
744.604290 90.237 105.3087
750.000000 90.279 105.9720
755.434809 90.321 106.6288
760.909001 90.362 107.2846
766.422861 90.401 107.9420
771.976677 90.439 108.5986
777.570739 90.477 109.2485
783.205337 90.514 109.8837
788.880766 90.552 110.4975
794.597321 90.592 111.0870
800.355301 90.632 111.6554
806.155005 90.672 112.2119
811.996736 90.713 112.7694
817.880799 90.752 113.3413
823.807501 90.789 113.9372
829.777150 90.824 114.5607
835.790057 90.858 115.2082
841.846536 90.890 115.8705
847.946903 90.923 116.5357
854.091476 90.956 117.1924
860.280575 90.990 117.8334
866.514523 91.026 118.4573
872.793644 91.063 119.0697
879.118267 91.100 119.6817
885.488720 91.138 120.3059
891.905336 91.175 120.9530
898.368450 91.211 121.6283
904.878398 91.246 122.3297
911.435520 91.282 123.0490
918.040157 91.319 123.7738
924.692655 91.359 124.4919
931.393359 91.403 125.1941
938.142619 91.451 125.8775
944.940787 91.502 126.5451
951.788218 91.556 127.2047
958.685268 91.612 127.8658
965.632296 91.667 128.5367
972.629666 91.721 129.2230
979.677741 91.772 129.9268
986.776890 91.821 130.6466
993.927482 91.869 131.3784
1001.129891 91.917 132.1162
1008.384491 91.967 132.8523
1015.691660 92.021 133.5787
1023.051781 92.079 134.2885
1030.465236 92.141 134.9775
1037.932411 92.209 135.6451
1045.453698 92.280 136.2949
1053.029486 92.354 136.9338
1060.660172 92.428 137.5702
1068.346153 92.502 138.2116
1076.087829 92.574 138.8627
1083.885605 92.645 139.5236
1091.739887 92.714 140.1900
1099.651084 92.782 140.8546
1107.619609 92.851 141.5093
1115.645878 92.921 142.1480
1123.730308 92.993 142.7678
1131.873321 93.067 143.3704
1140.075341 93.143 143.9604
1148.336797 93.220 144.5439
1156.658119 93.298 145.1258
1165.039741 93.377 145.7076
1173.482099 93.456 146.2871
1181.985634 93.536 146.8596
1190.550789 93.616 147.4203
1199.178011 93.698 147.9659
1207.867749 93.781 148.4966
1216.620457 93.864 149.0146
1225.436590 93.948 149.5239
1234.316609 94.033 150.0276
1243.260976 94.117 150.5273
1252.270157 94.202 151.0220
1261.344623 94.286 151.5092
1270.484846 94.371 151.9853
1279.691303 94.457 152.4472
1288.964474 94.544 152.8933
1298.304842 94.631 153.3238
1307.712894 94.719 153.7403
1317.189120 94.807 154.1446
1326.734016 94.895 154.5385
1336.348077 94.982 154.9222
1346.031806 95.069 155.2947
1355.785708 95.155 155.6534
1365.610290 95.241 155.9949
1375.506065 95.325 156.3162
1385.473549 95.408 156.6158
1395.513261 95.488 156.8940
1405.625726 95.565 157.1529
1415.811469 95.638 157.3952
1426.071023 95.705 157.6228
1436.404921 95.767 157.8364
1446.813703 95.823 158.0354
1457.297912 95.872 158.2179
1467.858093 95.915 158.3820
1478.494798 95.952 158.5255
1489.208581 95.985 158.6466
1500.000000 96.013 158.7434
1510.869618 96.038 158.8142
1521.818002 96.059 158.8582
1532.845723 96.077 158.8752
1543.953355 96.092 158.8662
1555.141477 96.103 158.8327
1566.410674 96.112 158.7761
1577.761531 96.117 158.6972
1589.194642 96.119 158.5958
1600.710601 96.119 158.4708
1612.310010 96.116 158.3212
1623.993473 96.111 158.1468
1635.761599 96.103 157.9485
1647.615002 96.092 157.7288
1659.554299 96.078 157.4908
1671.580114 96.060 157.2374
1683.693072 96.038 156.9706
1695.893807 96.014 156.6907
1708.182952 95.987 156.3964
1720.561150 95.959 156.0854
1733.029045 95.930 155.7560
1745.587288 95.902 155.4077
1758.236533 95.873 155.0428
1770.977440 95.844 154.6661
1783.810673 95.814 154.2838
1796.736900 95.782 153.9032
1809.756796 95.747 153.5299
1822.871040 95.709 153.1676
1836.080315 95.668 152.8171
1849.385310 95.625 152.4774
1862.786718 95.581 152.1471
1876.285239 95.537 151.8257
1889.881575 95.492 151.5146
1903.576436 95.447 151.2170
1917.370535 95.401 150.9375
1931.264593 95.354 150.6808
1945.259332 95.304 150.4509
1959.355483 95.251 150.2506
1973.553781 95.194 150.0815
1987.854965 95.134 149.9443
2002.259781 95.071 149.8385
2016.768981 95.007 149.7635
2031.383320 94.942 149.7179
2046.103561 94.876 149.7005
2060.930471 94.812 149.7105
2075.864823 94.749 149.7477
2090.907395 94.687 149.8129
2106.058972 94.625 149.9079
2121.320344 94.565 150.0345
2136.692305 94.503 150.1948
2152.175658 94.442 150.3902
2167.771210 94.380 150.6212
2183.479774 94.317 150.8872
2199.302169 94.256 151.1855
2215.239219 94.197 151.5123
2231.291755 94.141 151.8634
2247.460615 94.089 152.2356
2263.746641 94.040 152.6280
2280.150683 93.995 153.0415
2296.673595 93.952 153.4788
2313.316238 93.909 153.9432
2330.079481 93.866 154.4368
2346.964198 93.823 154.9600
2363.971268 93.779 155.5110
2381.101578 93.736 156.0859
2398.356022 93.694 156.6802
2415.735498 93.654 157.2904
2433.240913 93.616 157.9149
2450.873180 93.581 158.5538
2468.633217 93.548 159.2083
2486.521951 93.516 159.8793
2504.540314 93.485 160.5678
2522.689246 93.454 161.2740
2540.969692 93.423 161.9978
2559.382606 93.392 162.7388
2577.928947 93.362 163.4954
2596.609683 93.334 164.2656
2615.425787 93.308 165.0473
2634.378241 93.284 165.8388
2653.468031 93.265 166.6389
2672.696154 93.248 167.4471
2692.063613 93.235 168.2639
2711.571415 93.224 169.0899
2731.220579 93.215 169.9254
2751.012130 93.208 170.7706
2770.947098 93.202 171.6257
2791.026522 93.197 172.4911
2811.251451 93.193 173.3683
2831.622938 93.191 174.2584
2852.142045 93.191 175.1611
2872.809842 93.194 176.0735
2893.627406 93.201 176.9896
2914.595823 93.213 177.9014
2935.716186 93.230 178.8012
2956.989596 93.252 179.6840
2978.417161 93.278 -179.4521
3000.000000 93.308 -178.6054
3021.739237 93.339 -177.7724
3043.636005 93.371 -176.9489
3065.691446 93.404 -176.1315
3087.906710 93.439 -175.3176
3110.282955 93.474 -174.5065
3132.821347 93.512 -173.6990
3155.523062 93.552 -172.8972
3178.389283 93.597 -172.1035
3201.421202 93.646 -171.3196
3224.620020 93.699 -170.5467
3247.986946 93.756 -169.7850
3271.523198 93.817 -169.0354
3295.230004 93.881 -168.2994
3319.108599 93.950 -167.5806
3343.160228 94.023 -166.8843
3367.386145 94.103 -166.2181
3391.787613 94.189 -165.5912
3416.365904 94.283 -165.0137
3441.122300 94.385 -164.4961
3466.058091 94.493 -164.0487
3491.174576 94.608 -163.6817
3516.473066 94.727 -163.4047
3541.954880 94.848 -163.2275
3567.621345 94.968 -163.1597
3593.473800 95.087 -163.2097
3619.513592 95.201 -163.3835
3645.742080 95.307 -163.6828
3672.160630 95.402 -164.1040
3698.770620 95.484 -164.6378
3725.573436 95.550 -165.2691
3752.570477 95.597 -165.9769
3779.763150 95.624 -166.7351
3807.152872 95.629 -167.5145
3834.741071 95.613 -168.2842
3862.529185 95.576 -169.0158
3890.518664 95.520 -169.6855
3918.710966 95.449 -170.2760
3947.107561 95.363 -170.7770
3975.709929 95.268 -171.1840
4004.519563 95.166 -171.4972
4033.537962 95.060 -171.7211
4062.766641 94.952 -171.8636
4092.207123 94.846 -171.9341
4121.860942 94.742 -171.9427
4151.729646 94.640 -171.8980
4181.814790 94.540 -171.8072
4212.117944 94.441 -171.6758
4242.640687 94.342 -171.5082
4273.384610 94.242 -171.3082
4304.351317 94.142 -171.0793
4335.542421 94.041 -170.8249
4366.959549 93.941 -170.5479
4398.604338 93.841 -170.2503
4430.478438 93.743 -169.9335
4462.583511 93.646 -169.5982
4494.921231 93.552 -169.2443
4527.493283 93.458 -168.8712
4560.301365 93.366 -168.4781
4593.347189 93.274 -168.0634
4626.632476 93.181 -167.6253
4660.158962 93.088 -167.1615
4693.928395 92.995 -166.6700
4727.942535 92.902 -166.1496
4762.203156 92.809 -165.5994
4796.712043 92.718 -165.0191
4831.470996 92.629 -164.4089
4866.481826 92.544 -163.7691
4901.746360 92.462 -163.1010
4937.266434 92.382 -162.4063
4973.043902 92.306 -161.6876
5009.080628 92.233 -160.9468
5045.378492 92.162 -160.1855
5081.939384 92.093 -159.4042
5118.765212 92.027 -158.6023
5155.857894 91.963 -157.7792
5193.219366 91.903 -156.9351
5230.851574 91.847 -156.0709
5268.756481 91.796 -155.1895
5306.936062 91.753 -154.2949
5345.392309 91.717 -153.3922
5384.127225 91.689 -152.4873
5423.142830 91.670 -151.5868
5462.441159 91.660 -150.6977
5502.024259 91.659 -149.8270
5541.894195 91.666 -148.9810
5582.053045 91.680 -148.1648
5622.502902 91.701 -147.3820
5663.245876 91.726 -146.6348
5704.284090 91.756 -145.9238
5745.619684 91.788 -145.2493
5787.254813 91.822 -144.6107
5829.191647 91.857 -144.0071
5871.432373 91.894 -143.4371
5913.979192 91.933 -142.8987
5956.834323 91.973 -142.3898
6000.000000 92.014 -141.9073
6043.478473 92.056 -141.4475
6087.272010 92.099 -141.0060
6131.382892 92.142 -140.5783
6175.813420 92.185 -140.1599
6220.565910 92.229 -139.7470
6265.642695 92.274 -139.3365
6311.046124 92.321 -138.9271
6356.778566 92.371 -138.5188
6402.842404 92.426 -138.1127
6449.240040 92.487 -137.7108
6495.973891 92.554 -137.3148
6543.046396 92.629 -136.9261
6590.460007 92.711 -136.5457
6638.217197 92.801 -136.1749
6686.320456 92.900 -135.8155
6734.772290 93.008 -135.4702
6783.575226 93.126 -135.1426
6832.731809 93.256 -134.8380
6882.244600 93.398 -134.5629
6932.116181 93.556 -134.3265
6982.349153 93.732 -134.1414
7032.946133 93.928 -134.0236
7083.909760 94.146 -133.9938
7135.242690 94.387 -134.0774
7186.947600 94.653 -134.3044
7239.027185 94.944 -134.7102
7291.484160 95.259 -135.3354
7344.321260 95.594 -136.2256
7397.541239 95.948 -137.4316
7451.146872 96.314 -139.0064
7505.140954 96.688 -141.0034
7559.526299 97.058 -143.4710
7614.305743 97.415 -146.4486
7669.482141 97.745 -149.9601
7725.058371 98.031 -154.0080
7781.037328 98.259 -158.5670
7837.421932 98.412 -163.5783
7894.215122 98.475 -168.9466
7951.419859 98.438 -174.5399
8009.039125 98.292 179.8031
8067.075924 98.037 174.2588
8125.533282 97.678 168.9993
8184.414245 97.224 164.1709
8243.721885 96.690 159.8793
8303.459292 96.090 156.1826
8363.629581 95.443 153.0929
8424.235888 94.764 150.5846
8485.281374 94.066 148.6045
8546.769221 93.360 147.0828
8608.702634 92.653 145.9438
8671.084842 91.951 145.1136
8733.919097 91.256 144.5254
8797.208675 90.569 144.1219
8860.956876 89.889 143.8565
8925.167022 89.218 143.6939
8989.842461 88.557 143.6080
9054.986566 87.906 143.5804
9120.602731 87.266 143.5985
9186.694378 86.641 143.6544
9253.264952 86.031 143.7413
9320.317925 85.440 143.8522
9387.856790 84.869 143.9790
9455.885071 84.319 144.1123
9524.406312 83.789 144.2430
9593.424086 83.280 144.3632
9662.941992 82.790 144.4695
9732.963653 82.317 144.5643
9803.492719 81.861 144.6538
9874.532869 81.421 144.7433
9946.087805 81.000 144.8339
10018.161257 80.596 144.9210
10090.756983 80.213 144.9931
10163.878768 79.847 145.0345
10237.530423 79.498 145.0338
10311.715789 79.161 144.9935
10386.438732 78.832 144.9301
10461.703149 78.511 144.8660
10537.512962 78.198 144.8226
10613.872125 77.894 144.8167
10690.784618 77.602 144.8579
10768.254450 77.323 144.9503
10846.285661 77.060 145.0926
10924.882318 76.813 145.2811
11004.048518 76.585 145.5114
11083.788390 76.376 145.7809
11164.106090 76.188 146.0892
11245.005805 76.022 146.4365
11326.491752 75.878 146.8223
11408.568180 75.761 147.2429
11491.239368 75.670 147.6876
11574.509626 75.610 148.1359
11658.383294 75.580 148.5572
11742.864745 75.581 148.9130
11827.958384 75.606 149.1646
11913.668646 75.645 149.2852
12000.000000 75.689 149.2729
12086.956947 75.727 149.1489
12174.544019 75.758 148.9443
12262.765784 75.786 148.6992
12351.626840 75.817 148.4542
12441.131819 75.857 148.2387
12531.285389 75.911 148.0654
12622.092249 75.985 147.9322
12713.557132 76.081 147.8274
12805.684808 76.202 147.7349
12898.480079 76.350 147.6395
12991.947783 76.527 147.5289
13086.092792 76.736 147.3947
13180.920015 76.979 147.2290
13276.434395 77.262 147.0201
13372.640911 77.591 146.7468
13469.544580 77.976 146.3764
13567.150452 78.424 145.8661
13665.463617 78.945 145.1638
13764.489200 79.549 144.2073
13864.232362 80.247 142.9192
13964.698305 81.044 141.2022
14065.892266 81.939 138.9368
14167.819519 82.924 135.9851
14270.485380 83.978 132.1969
14373.895200 85.070 127.4196
14478.054370 86.159 121.5140
14582.968320 87.196 114.3733
14688.642520 88.125 105.9480
14795.082478 88.892 96.2735
14902.293745 89.441 85.5022
15010.281908 89.727 73.9291
15119.052599 89.723 61.9858
15228.611486 89.427 50.1746
15338.964283 88.864 38.9586
15450.116741 88.077 28.6761
15562.074656 87.121 19.5148
15674.843864 86.052 11.5303
15788.430244 84.924 4.6786
15902.839718 83.790 -1.1515
16018.078250 82.692 -6.1112
16134.151848 81.668 -10.3688
16251.066563 80.742 -14.0912
16368.828491 79.930 -17.4316
16487.443769 79.238 -20.5244
16606.918584 78.663 -23.4861
16727.259161 78.199 -26.4202
16848.471777 77.838 -29.4257
16970.562748 77.571 -32.6041
17093.538442 77.387 -36.0631
17217.405268 77.273 -39.9114
17342.169684 77.215 -44.2487
17467.838194 77.191 -49.1546
17594.417350 77.178 -54.6783
17721.913751 77.148 -60.8306
17850.334044 77.073 -67.5761
17979.684923 76.921 -74.8282
18109.973131 76.666 -82.4480
18241.205462 76.286 -90.2533
18373.388756 75.769 -98.0352
18506.529905 75.112 -105.5803
18640.635849 74.322 -112.6928
18775.713581 73.414 -119.2118
18911.770141 72.409 -125.0221
19048.812624 71.334 -130.0584
19186.848172 70.222 -134.3019
19325.883983 69.110 -137.7744
19465.927305 68.039 -140.5293
19606.985439 67.060 -142.6401
19749.065738 66.234 -144.1823
19892.175609 65.628 -145.2082
20036.322514 65.306 -145.7289
