* Measurement data measured by REW V5.31.3
* Source: EXCL: Microphone (USB Sound Device        ), MICROPHONE (Master Volume), R, volume: 0.390
* Format: 256k Log Swept Sine, 1 sweep at -15.0 dBFS with no timing reference
* Dated: Jul 5, 2025 1:03:02 AM
* REW Settings:
*  C-weighting compensation: Off
*  Target level: 75.0 dB
* Note: Symphonium Giant 10ohm L
* Measurement: L Symphonium Giant 10oh
* Smoothing: 1/12 octave
* Frequency Step: 96 ppo
* Start Frequency: 0.36621094 Hz
*
* Freq(Hz) SPL(dB) Phase(degrees)
0.366211 94.084 157.3416
0.368865 94.078 157.3180
0.371538 94.069 157.2827
0.374230 94.058 157.2383
0.376942 94.046 157.1872
0.379673 94.033 157.1309
0.382424 94.019 157.0707
0.385196 94.005 157.0072
0.387987 93.990 156.9408
0.390798 93.975 156.8716
0.393630 93.961 156.7998
0.396483 93.946 156.7254
0.399356 93.931 156.6485
0.402250 93.916 156.5690
0.405165 93.900 156.4869
0.408101 93.885 156.4022
0.411058 93.869 156.3148
0.414037 93.854 156.2247
0.417037 93.838 156.1320
0.420059 93.822 156.0365
0.423103 93.806 155.9383
0.426169 93.790 155.8373
0.429257 93.774 155.7335
0.432368 93.758 155.6269
0.435501 93.741 155.5175
0.438656 93.725 155.4052
0.441835 93.708 155.2899
0.445037 93.691 155.1718
0.448262 93.675 155.0507
0.451510 93.658 154.9267
0.454782 93.640 154.7997
0.458077 93.623 154.6697
0.461397 93.606 154.5366
0.464740 93.588 154.4006
0.468108 93.571 154.2614
0.471500 93.553 154.1192
0.474917 93.535 153.9739
0.478358 93.517 153.8255
0.481825 93.499 153.6740
0.485316 93.481 153.5193
0.488833 93.462 153.3615
0.492375 93.444 153.2005
0.495943 93.425 153.0364
0.499537 93.406 152.8691
0.503157 93.387 152.6986
0.506803 93.368 152.5249
0.510475 93.349 152.3480
0.514175 93.329 152.1680
0.517900 93.310 151.9847
0.521653 93.290 151.7983
0.525434 93.271 151.6087
0.529241 93.251 151.4159
0.533076 93.230 151.2200
0.536939 93.210 151.0209
0.540830 93.190 150.8186
0.544749 93.169 150.6133
0.548696 93.149 150.4048
0.552673 93.128 150.1933
0.556677 93.107 149.9787
0.560711 93.086 149.7611
0.564774 93.064 149.5405
0.568867 93.043 149.3170
0.572989 93.021 149.0905
0.577141 93.000 148.8612
0.581324 92.978 148.6291
0.585536 92.956 148.3942
0.589779 92.934 148.1566
0.594053 92.911 147.9164
0.598358 92.889 147.6736
0.602694 92.866 147.4283
0.607061 92.843 147.1805
0.611460 92.820 146.9305
0.615891 92.797 146.6781
0.620354 92.773 146.4236
0.624849 92.750 146.1671
0.629377 92.726 145.9086
0.633938 92.702 145.6483
0.638532 92.678 145.3863
0.643159 92.654 145.1227
0.647819 92.630 144.8576
0.652514 92.605 144.5913
0.657242 92.580 144.3238
0.662005 92.555 144.0553
0.666802 92.530 143.7861
0.671634 92.505 143.5162
0.676501 92.479 143.2458
0.681403 92.454 142.9753
0.686341 92.428 142.7046
0.691314 92.402 142.4342
0.696324 92.375 142.1641
0.701370 92.349 141.8947
0.706452 92.322 141.6259
0.711571 92.294 141.3579
0.716728 92.266 141.0907
0.721921 92.236 140.8240
0.727153 92.205 140.5573
0.732422 92.172 140.2900
0.737729 92.137 140.0208
0.743075 92.100 139.7488
0.748460 92.061 139.4731
0.753883 92.020 139.1928
0.759346 91.979 138.9074
0.764849 91.937 138.6167
0.770391 91.894 138.3203
0.775974 91.851 138.0181
0.781597 91.807 137.7100
0.787261 91.762 137.3958
0.792966 91.717 137.0756
0.798712 91.672 136.7491
0.804500 91.626 136.4165
0.810329 91.579 136.0775
0.816201 91.531 135.7322
0.822116 91.483 135.3804
0.828073 91.434 135.0223
0.834074 91.385 134.6577
0.840118 91.335 134.2866
0.846206 91.283 133.9089
0.852338 91.231 133.5248
0.858514 91.179 133.1341
0.864735 91.125 132.7368
0.871001 91.070 132.3330
0.877313 91.015 131.9228
0.883670 90.958 131.5060
0.890074 90.900 131.0829
0.896524 90.841 130.6533
0.903020 90.781 130.2175
0.909564 90.720 129.7755
0.916155 90.658 129.3275
0.922794 90.594 128.8734
0.929481 90.529 128.4136
0.936216 90.462 127.9482
0.943000 90.395 127.4773
0.949834 90.325 127.0012
0.956717 90.254 126.5201
0.963649 90.182 126.0343
0.970632 90.107 125.5442
0.977666 90.032 125.0500
0.984750 89.954 124.5521
0.991886 89.874 124.0509
0.999074 89.793 123.5469
1.006314 89.709 123.0406
1.013606 89.624 122.5325
1.020951 89.536 122.0232
1.028349 89.446 121.5133
1.035801 89.354 121.0034
1.043307 89.259 120.4944
1.050867 89.162 119.9869
1.058482 89.062 119.4818
1.066152 88.960 118.9797
1.073878 88.856 118.4814
1.081660 88.748 117.9874
1.089498 88.639 117.4979
1.097393 88.527 117.0130
1.105345 88.413 116.5321
1.113355 88.297 116.0547
1.121423 88.179 115.5798
1.129549 88.060 115.1069
1.137734 87.939 114.6352
1.145979 87.817 114.1641
1.154283 87.693 113.6932
1.162647 87.567 113.2219
1.171072 87.440 112.7499
1.179558 87.310 112.2766
1.188106 87.178 111.8016
1.196715 87.044 111.3243
1.205387 86.908 110.8444
1.214122 86.769 110.3612
1.222920 86.627 109.8742
1.231782 86.482 109.3828
1.240708 86.334 108.8865
1.249699 86.183 108.3845
1.258754 86.028 107.8761
1.267876 85.869 107.3607
1.277063 85.707 106.8375
1.286318 85.540 106.3057
1.295639 85.369 105.7645
1.305027 85.193 105.2130
1.314484 85.012 104.6502
1.324009 84.826 104.0751
1.333604 84.635 103.4869
1.343268 84.438 102.8843
1.353002 84.235 102.2664
1.362806 84.025 101.6319
1.372681 83.810 100.9798
1.382628 83.587 100.3089
1.392647 83.357 99.6179
1.402739 83.119 98.9060
1.412904 82.874 98.1719
1.423142 82.619 97.4150
1.433455 82.355 96.6345
1.443843 82.080 95.8302
1.454305 81.793 95.0020
1.464844 81.490 94.1501
1.475459 81.170 93.2748
1.486150 80.830 92.3758
1.496920 80.468 91.4518
1.507767 80.082 90.5008
1.518693 79.673 89.5195
1.529698 79.241 88.5039
1.540783 78.787 87.4488
1.551948 78.312 86.3478
1.563194 77.818 85.1936
1.574521 77.308 83.9771
1.585931 76.782 82.6875
1.597423 76.244 81.3118
1.608999 75.695 79.8340
1.620658 75.140 78.2347
1.632402 74.579 76.4899
1.644232 74.017 74.5695
1.656146 73.456 72.4360
1.668147 72.900 70.0416
1.680235 72.353 67.3258
1.692411 71.818 64.2111
1.704675 71.299 60.5990
1.717028 70.801 56.3648
1.729470 70.329 51.3559
1.742003 69.888 45.3954
1.754626 69.483 38.3034
1.767341 69.120 29.9495
1.780147 68.805 20.3455
1.793047 68.544 9.7522
1.806040 68.344 -1.2917
1.819128 68.210 -12.1089
1.832310 68.147 -22.1286
1.845587 68.157 -31.0467
1.858961 68.242 -38.8112
1.872432 68.400 -45.5182
1.886001 68.628 -51.3176
1.899667 68.922 -56.3609
1.913433 69.277 -60.7809
1.927299 69.687 -64.6864
1.941265 70.146 -68.1648
1.955332 70.647 -71.2850
1.969501 71.183 -74.1021
1.983773 71.749 -76.6596
1.998148 72.337 -78.9922
2.012627 72.941 -81.1278
2.027212 73.553 -83.0892
2.041902 74.169 -84.8946
2.056698 74.780 -86.5590
2.071602 75.380 -88.0951
2.086614 75.964 -89.5130
2.101734 76.524 -90.8220
2.116964 77.056 -92.0300
2.132304 77.554 -93.1448
2.147756 78.014 -94.1747
2.163320 78.433 -95.1295
2.178996 78.812 -96.0209
2.194786 79.149 -96.8629
2.210690 79.450 -97.6711
2.226710 79.718 -98.4603
2.242845 79.956 -99.2417
2.259098 80.168 -100.0226
2.275468 80.357 -100.8063
2.291957 80.525 -101.5933
2.308566 80.673 -102.3824
2.325295 80.803 -103.1709
2.342145 80.916 -103.9554
2.359117 81.014 -104.7322
2.376212 81.097 -105.4968
2.393431 81.168 -106.2447
2.410775 81.229 -106.9712
2.428244 81.280 -107.6713
2.445840 81.323 -108.3399
2.463564 81.360 -108.9720
2.481416 81.392 -109.5629
2.499397 81.421 -110.1085
2.517509 81.447 -110.6062
2.535752 81.471 -111.0550
2.554127 81.493 -111.4567
2.572635 81.509 -111.8155
2.591277 81.520 -112.1373
2.610055 81.523 -112.4279
2.628968 81.517 -112.6915
2.648019 81.502 -112.9304
2.667208 81.477 -113.1454
2.686535 81.443 -113.3355
2.706003 81.402 -113.4990
2.725612 81.353 -113.6331
2.745363 81.299 -113.7344
2.765257 81.240 -113.7990
2.785295 81.178 -113.8225
2.805478 81.114 -113.8000
2.825808 81.049 -113.7262
2.846285 80.985 -113.5957
2.866910 80.923 -113.4028
2.887685 80.863 -113.1417
2.908611 80.805 -112.8071
2.929688 80.749 -112.3938
2.950917 80.693 -111.8975
2.972301 80.637 -111.3152
2.993839 80.579 -110.6451
3.015534 80.520 -109.8870
3.037386 80.460 -109.0423
3.059396 80.400 -108.1138
3.081565 80.341 -107.1056
3.103896 80.286 -106.0234
3.126388 80.236 -104.8743
3.149043 80.192 -103.6668
3.171862 80.158 -102.4106
3.194847 80.136 -101.1162
3.217998 80.127 -99.7939
3.241317 80.134 -98.4532
3.264805 80.159 -97.1013
3.288463 80.202 -95.7424
3.312293 80.266 -94.3779
3.336295 80.350 -93.0086
3.360471 80.453 -91.6377
3.384822 80.574 -90.2721
3.409350 80.711 -88.9223
3.434056 80.863 -87.6010
3.458940 81.027 -86.3220
3.484005 81.201 -85.0988
3.509252 81.382 -83.9442
3.534681 81.569 -82.8693
3.560295 81.758 -81.8834
3.586094 81.949 -80.9933
3.612081 82.140 -80.2031
3.638255 82.331 -79.5137
3.664620 82.522 -78.9229
3.691175 82.714 -78.4257
3.717923 82.907 -78.0156
3.744864 83.103 -77.6859
3.772001 83.300 -77.4299
3.799335 83.498 -77.2417
3.826866 83.697 -77.1160
3.854597 83.894 -77.0480
3.882529 84.088 -77.0333
3.910664 84.278 -77.0686
3.939002 84.462 -77.1511
3.967546 84.639 -77.2794
3.996296 84.808 -77.4529
4.025255 84.969 -77.6719
4.054423 85.121 -77.9373
4.083804 85.265 -78.2488
4.113396 85.401 -78.6043
4.143204 85.530 -78.9999
4.173227 85.651 -79.4299
4.203468 85.766 -79.8880
4.233928 85.873 -80.3675
4.264609 85.973 -80.8622
4.295512 86.066 -81.3667
4.326639 86.152 -81.8773
4.357992 86.231 -82.3926
4.389572 86.302 -82.9131
4.421380 86.366 -83.4414
4.453419 86.421 -83.9802
4.485691 86.469 -84.5306
4.518196 86.509 -85.0910
4.550936 86.541 -85.6581
4.583914 86.566 -86.2263
4.617131 86.585 -86.7893
4.650589 86.598 -87.3406
4.684289 86.605 -87.8742
4.718233 86.606 -88.3855
4.752424 86.601 -88.8722
4.786862 86.591 -89.3340
4.821549 86.575 -89.7722
4.856488 86.553 -90.1880
4.891680 86.525 -90.5822
4.927127 86.493 -90.9538
4.962831 86.456 -91.3013
4.998794 86.417 -91.6216
5.035017 86.376 -91.9115
5.071503 86.334 -92.1673
5.108253 86.291 -92.3856
5.145270 86.248 -92.5638
5.182555 86.204 -92.7006
5.220110 86.160 -92.7967
5.257937 86.116 -92.8545
5.296038 86.074 -92.8780
5.334415 86.033 -92.8716
5.373071 85.995 -92.8403
5.412006 85.962 -92.7881
5.451224 85.934 -92.7182
5.490725 85.912 -92.6320
5.530514 85.896 -92.5303
5.570590 85.887 -92.4142
5.610957 85.885 -92.2871
5.651616 85.888 -92.1550
5.692570 85.898 -92.0260
5.733821 85.913 -91.9091
5.775370 85.935 -91.8132
5.817221 85.962 -91.7455
5.859375 85.995 -91.7107
5.901834 86.033 -91.7113
5.944602 86.078 -91.7482
5.987679 86.127 -91.8226
6.031068 86.181 -91.9362
6.074771 86.238 -92.0919
6.118792 86.296 -92.2929
6.163131 86.356 -92.5425
6.207792 86.416 -92.8433
6.252776 86.475 -93.1965
6.298086 86.533 -93.6018
6.343725 86.591 -94.0568
6.389694 86.648 -94.5576
6.435996 86.702 -95.1000
6.482634 86.753 -95.6798
6.529610 86.801 -96.2940
6.576926 86.845 -96.9405
6.624585 86.885 -97.6184
6.672590 86.920 -98.3265
6.720942 86.951 -99.0619
6.769645 86.977 -99.8198
6.818700 86.999 -100.5941
6.868111 87.017 -101.3784
6.917881 87.030 -102.1674
6.968010 87.039 -102.9576
7.018504 87.044 -103.7471
7.069362 87.044 -104.5345
7.120590 87.042 -105.3169
7.172189 87.036 -106.0907
7.224161 87.029 -106.8511
7.276511 87.019 -107.5934
7.329239 87.009 -108.3141
7.382350 86.998 -109.0110
7.435845 86.988 -109.6837
7.489729 86.977 -110.3324
7.544002 86.968 -110.9573
7.598669 86.962 -111.5588
7.653732 86.958 -112.1367
7.709194 86.958 -112.6908
7.765058 86.963 -113.2217
7.821327 86.972 -113.7315
7.878004 86.986 -114.2235
7.935091 87.006 -114.7023
7.992592 87.031 -115.1722
8.050510 87.062 -115.6367
8.108847 87.099 -116.0985
8.167607 87.142 -116.5600
8.226793 87.190 -117.0240
8.286408 87.244 -117.4941
8.346454 87.302 -117.9740
8.406936 87.364 -118.4669
8.467856 87.430 -118.9745
8.529218 87.499 -119.4976
8.591024 87.570 -120.0357
8.653278 87.643 -120.5884
8.715983 87.716 -121.1550
8.779143 87.791 -121.7349
8.842760 87.864 -122.3269
8.906839 87.937 -122.9290
8.971381 88.009 -123.5385
9.036392 88.079 -124.1516
9.101873 88.148 -124.7648
9.167829 88.214 -125.3752
9.234263 88.278 -125.9800
9.301178 88.340 -126.5767
9.368578 88.399 -127.1620
9.436467 88.457 -127.7328
9.504847 88.512 -128.2860
9.573723 88.565 -128.8195
9.643099 88.618 -129.3320
9.712976 88.668 -129.8226
9.783361 88.718 -130.2906
9.854255 88.768 -130.7355
9.925663 88.817 -131.1574
9.997588 88.866 -131.5568
10.070035 88.916 -131.9351
10.143007 88.966 -132.2940
10.216507 89.017 -132.6356
10.290540 89.068 -132.9618
10.365109 89.120 -133.2745
10.440219 89.172 -133.5757
10.515873 89.225 -133.8677
10.592076 89.279 -134.1528
10.668830 89.332 -134.4326
10.746141 89.385 -134.7085
10.824012 89.437 -134.9814
10.902447 89.488 -135.2523
10.981451 89.539 -135.5215
11.061027 89.588 -135.7894
11.141180 89.635 -136.0559
11.221913 89.680 -136.3206
11.303232 89.724 -136.5831
11.385140 89.765 -136.8426
11.467641 89.805 -137.0990
11.550741 89.842 -137.3518
11.634442 89.877 -137.6007
11.718750 89.910 -137.8456
11.803669 89.942 -138.0865
11.889203 89.971 -138.3240
11.975357 89.999 -138.5585
12.062136 90.026 -138.7910
12.149543 90.051 -139.0225
12.237583 90.074 -139.2539
12.326262 90.096 -139.4864
12.415583 90.116 -139.7211
12.505552 90.135 -139.9592
12.596172 90.152 -140.2013
12.687449 90.168 -140.4482
12.779387 90.181 -140.7003
12.871992 90.193 -140.9578
12.965268 90.203 -141.2207
13.059220 90.211 -141.4888
13.153852 90.217 -141.7616
13.249170 90.221 -142.0388
13.345179 90.223 -142.3199
13.441884 90.224 -142.6048
13.539289 90.223 -142.8932
13.637401 90.222 -143.1852
13.736223 90.219 -143.4814
13.835761 90.216 -143.7823
13.936021 90.213 -144.0892
14.037007 90.210 -144.4031
14.138725 90.208 -144.7255
14.241180 90.205 -145.0579
14.344377 90.203 -145.4019
14.448323 90.201 -145.7587
14.553021 90.200 -146.1293
14.658478 90.199 -146.5143
14.764700 90.198 -146.9138
14.871691 90.198 -147.3276
14.979457 90.197 -147.7546
15.088005 90.196 -148.1937
15.197339 90.194 -148.6432
15.307465 90.193 -149.1011
15.418389 90.191 -149.5653
15.530117 90.190 -150.0339
15.642655 90.189 -150.5050
15.756008 90.189 -150.9771
15.870182 90.190 -151.4489
15.985184 90.193 -151.9196
16.101019 90.197 -152.3890
16.217694 90.202 -152.8569
16.335214 90.210 -153.3237
16.453586 90.220 -153.7897
16.572815 90.232 -154.2553
16.692909 90.246 -154.7206
16.813872 90.261 -155.1856
16.935713 90.278 -155.6498
17.058436 90.296 -156.1123
17.182048 90.315 -156.5718
17.306556 90.335 -157.0268
17.431967 90.355 -157.4757
17.558286 90.376 -157.9164
17.685521 90.396 -158.3475
17.813677 90.417 -158.7674
17.942762 90.439 -159.1752
18.072783 90.460 -159.5701
18.203746 90.482 -159.9520
18.335658 90.504 -160.3213
18.468526 90.527 -160.6784
18.602356 90.549 -161.0241
18.737156 90.571 -161.3594
18.872934 90.593 -161.6851
19.009695 90.614 -162.0017
19.147447 90.635 -162.3098
19.286197 90.654 -162.6096
19.425953 90.672 -162.9012
19.566721 90.688 -163.1848
19.708510 90.703 -163.4603
19.851326 90.716 -163.7281
19.995177 90.728 -163.9886
20.140070 90.738 -164.2427
20.286013 90.746 -164.4915
20.433014 90.753 -164.7363
20.581080 90.758 -164.9785
20.730219 90.762 -165.2196
20.880439 90.764 -165.4609
21.031747 90.764 -165.7038
21.184152 90.763 -165.9492
21.337661 90.759 -166.1979
21.492282 90.754 -166.4506
21.648024 90.748 -166.7078
21.804895 90.740 -166.9704
21.962902 90.731 -167.2389
22.122054 90.721 -167.5142
22.282360 90.710 -167.7974
22.443827 90.698 -168.0894
22.606464 90.685 -168.3911
22.770280 90.672 -168.7030
22.935283 90.659 -169.0255
23.101481 90.645 -169.3583
23.268884 90.631 -169.7008
23.437500 90.617 -170.0520
23.607338 90.603 -170.4108
23.778406 90.589 -170.7760
23.950714 90.576 -171.1465
24.124271 90.564 -171.5212
24.299086 90.553 -171.8997
24.475167 90.543 -172.2815
24.652524 90.535 -172.6662
24.831166 90.528 -173.0534
25.011103 90.523 -173.4426
25.192344 90.519 -173.8326
25.374898 90.516 -174.2224
25.558775 90.515 -174.6102
25.743984 90.514 -174.9945
25.930536 90.514 -175.3734
26.118439 90.515 -175.7456
26.307704 90.516 -176.1098
26.498341 90.519 -176.4652
26.690359 90.521 -176.8113
26.883768 90.524 -177.1479
27.078579 90.527 -177.4749
27.274801 90.530 -177.7924
27.472446 90.532 -178.1002
27.671522 90.534 -178.3985
27.872042 90.535 -178.6875
28.074014 90.535 -178.9676
28.277450 90.534 -179.2394
28.482360 90.532 -179.5039
28.688755 90.529 -179.7621
28.896645 90.525 179.9846
29.106042 90.519 179.7350
29.316957 90.512 179.4877
29.529400 90.503 179.2415
29.743382 90.493 178.9951
29.958915 90.482 178.7471
30.176009 90.469 178.4962
30.394677 90.455 178.2411
30.614929 90.441 177.9806
30.836778 90.425 177.7136
31.060234 90.409 177.4395
31.285309 90.391 177.1581
31.512015 90.374 176.8694
31.740364 90.355 176.5740
31.970368 90.337 176.2722
32.202039 90.318 175.9646
32.435388 90.300 175.6516
32.670428 90.283 175.3335
32.907171 90.266 175.0108
33.145630 90.249 174.6841
33.385817 90.234 174.3543
33.627745 90.219 174.0229
33.871425 90.205 173.6913
34.116871 90.191 173.3611
34.364096 90.178 173.0338
34.613113 90.165 172.7106
34.863934 90.153 172.3923
35.116572 90.141 172.0796
35.371041 90.130 171.7728
35.627354 90.118 171.4724
35.885525 90.107 171.1785
36.145566 90.095 170.8913
36.407492 90.083 170.6107
36.671316 90.070 170.3364
36.937051 90.056 170.0681
37.204712 90.042 169.8049
37.474313 90.026 169.5461
37.745867 90.010 169.2908
38.019389 89.993 169.0380
38.294893 89.974 168.7868
38.572394 89.955 168.5362
38.851905 89.936 168.2854
39.133442 89.915 168.0336
39.417019 89.894 167.7801
39.702651 89.872 167.5242
39.990353 89.851 167.2652
40.280140 89.829 167.0024
40.572026 89.807 166.7355
40.866028 89.785 166.4642
41.162160 89.763 166.1892
41.460438 89.741 165.9113
41.760877 89.718 165.6319
42.063494 89.696 165.3525
42.368303 89.674 165.0743
42.675322 89.652 164.7985
42.984565 89.630 164.5256
43.296048 89.608 164.2562
43.609789 89.586 163.9906
43.925804 89.564 163.7291
44.244108 89.542 163.4717
44.564719 89.521 163.2186
44.887654 89.499 162.9694
45.212928 89.477 162.7236
45.540560 89.454 162.4806
45.870565 89.432 162.2396
46.202962 89.409 161.9996
46.537768 89.387 161.7597
46.875000 89.363 161.5187
47.214676 89.340 161.2762
47.556813 89.316 161.0319
47.901429 89.291 160.7866
48.248542 89.266 160.5411
48.598171 89.240 160.2965
48.950334 89.214 160.0536
49.305048 89.187 159.8130
49.662333 89.161 159.5746
50.022206 89.134 159.3387
50.384688 89.107 159.1052
50.749796 89.080 158.8746
51.117550 89.053 158.6472
51.487969 89.026 158.4233
51.861072 88.999 158.2030
52.236879 88.971 157.9856
52.615409 88.944 157.7703
52.996681 88.917 157.5557
53.380717 88.890 157.3407
53.767536 88.863 157.1248
54.157158 88.836 156.9076
54.549603 88.809 156.6893
54.944892 88.782 156.4698
55.343045 88.755 156.2493
55.744084 88.729 156.0273
56.148028 88.702 155.8038
56.554900 88.677 155.5784
56.964720 88.651 155.3514
57.377510 88.626 155.1231
57.793291 88.601 154.8940
58.212085 88.575 154.6649
58.633914 88.549 154.4363
59.058799 88.522 154.2087
59.486764 88.495 153.9825
59.917829 88.467 153.7579
60.352019 88.437 153.5354
60.789354 88.407 153.3155
61.229859 88.375 153.0987
61.673556 88.342 152.8853
62.120468 88.309 152.6749
62.570618 88.275 152.4667
63.024031 88.241 152.2598
63.480729 88.207 152.0533
63.940736 88.173 151.8471
64.404077 88.140 151.6413
64.870776 88.106 151.4364
65.340856 88.073 151.2331
65.814343 88.040 151.0321
66.291261 88.008 150.8339
66.771635 87.976 150.6385
67.255489 87.945 150.4456
67.742850 87.913 150.2545
68.233743 87.882 150.0645
68.728193 87.850 149.8758
69.226226 87.818 149.6888
69.727867 87.785 149.5044
70.233144 87.751 149.3227
70.742083 87.717 149.1431
71.254709 87.683 148.9648
71.771050 87.649 148.7870
72.291132 87.614 148.6093
72.814984 87.581 148.4312
73.342631 87.547 148.2529
73.874102 87.514 148.0743
74.409424 87.481 147.8957
74.948626 87.448 147.7169
75.491734 87.415 147.5380
76.038779 87.383 147.3587
76.589787 87.350 147.1788
77.144788 87.318 146.9982
77.703811 87.285 146.8169
78.266885 87.252 146.6346
78.834039 87.220 146.4508
79.405303 87.187 146.2645
79.980706 87.154 146.0747
80.560280 87.121 145.8801
81.144053 87.088 145.6791
81.732056 87.055 145.4712
82.324320 87.020 145.2571
82.920876 86.983 145.0402
83.521755 86.944 144.8248
84.126988 86.903 144.6148
84.736607 86.861 144.4129
85.350643 86.817 144.2201
85.969129 86.772 144.0361
86.592097 86.726 143.8600
87.219579 86.681 143.6906
87.851608 86.635 143.5270
88.488217 86.590 143.3690
89.129439 86.546 143.2156
89.775308 86.503 143.0664
90.425856 86.461 142.9203
91.081119 86.419 142.7762
91.741131 86.378 142.6331
92.405925 86.338 142.4915
93.075536 86.297 142.3527
93.750000 86.256 142.2181
94.429351 86.215 142.0886
95.113625 86.173 141.9645
95.802858 86.131 141.8453
96.497085 86.089 141.7293
97.196342 86.047 141.6141
97.900667 86.005 141.4987
98.610096 85.962 141.3829
99.324665 85.920 141.2668
100.044413 85.878 141.1508
100.769376 85.835 141.0361
101.499592 85.793 140.9240
102.235100 85.751 140.8151
102.975938 85.710 140.7089
103.722144 85.670 140.6042
104.473757 85.630 140.4994
105.230817 85.591 140.3931
105.993363 85.552 140.2842
106.761435 85.514 140.1721
107.535072 85.475 140.0568
108.314315 85.435 139.9384
109.099206 85.396 139.8162
109.889783 85.355 139.6894
110.686090 85.315 139.5577
111.488167 85.273 139.4211
112.296056 85.231 139.2807
113.109800 85.187 139.1385
113.929440 85.141 138.9982
114.755020 85.092 138.8649
115.586582 85.042 138.7438
116.424170 84.990 138.6399
117.267827 84.938 138.5549
118.117598 84.886 138.4874
118.973527 84.836 138.4326
119.835658 84.789 138.3841
120.704037 84.744 138.3360
121.578708 84.701 138.2841
122.459718 84.660 138.2269
123.347111 84.619 138.1651
124.240935 84.579 138.0998
125.141236 84.539 138.0320
126.048061 84.499 137.9618
126.961458 84.458 137.8894
127.881473 84.418 137.8149
128.808154 84.377 137.7387
129.741551 84.337 137.6608
130.681712 84.296 137.5813
131.628686 84.255 137.5007
132.582521 84.214 137.4195
133.543269 84.173 137.3382
134.510979 84.130 137.2569
135.485701 84.087 137.1759
136.467486 84.044 137.0951
137.456386 83.999 137.0146
138.452451 83.955 136.9348
139.455735 83.909 136.8568
140.466288 83.864 136.7819
141.484165 83.818 136.7113
142.509418 83.773 136.6449
143.542100 83.728 136.5810
144.582265 83.683 136.5174
145.629968 83.638 136.4526
146.685262 83.592 136.3865
147.748204 83.545 136.3207
148.818849 83.498 136.2574
149.897251 83.450 136.1989
150.983469 83.402 136.1477
152.077557 83.353 136.1059
153.179574 83.304 136.0743
154.289576 83.257 136.0526
155.407622 83.211 136.0384
156.533770 83.166 136.0273
157.668078 83.124 136.0135
158.810606 83.083 135.9913
159.961413 83.043 135.9575
161.120559 83.003 135.9122
162.288105 82.962 135.8581
163.464112 82.921 135.7996
164.648640 82.878 135.7408
165.841752 82.834 135.6852
167.043510 82.788 135.6353
168.253976 82.741 135.5939
169.473213 82.694 135.5635
170.701286 82.647 135.5443
171.938258 82.601 135.5340
173.184194 82.556 135.5276
174.439158 82.512 135.5205
175.703216 82.468 135.5093
176.976434 82.425 135.4931
178.258878 82.383 135.4723
179.550615 82.340 135.4476
180.851713 82.298 135.4196
182.162239 82.257 135.3885
183.482262 82.215 135.3552
184.811850 82.174 135.3212
186.151073 82.131 135.2886
187.500000 82.088 135.2583
188.858702 82.043 135.2307
190.227250 81.997 135.2059
191.605715 81.951 135.1839
192.994169 81.905 135.1645
194.392685 81.858 135.1478
195.801334 81.810 135.1348
197.220191 81.762 135.1267
198.649330 81.714 135.1248
200.088825 81.667 135.1300
201.538751 81.619 135.1422
202.999184 81.574 135.1589
204.470200 81.529 135.1754
205.951875 81.486 135.1861
207.444287 81.444 135.1875
208.947514 81.402 135.1791
210.461634 81.359 135.1637
211.986726 81.314 135.1461
213.522869 81.268 135.1324
215.070144 81.220 135.1282
216.628631 81.171 135.1379
218.198411 81.123 135.1621
219.779567 81.075 135.1976
221.372180 81.029 135.2379
222.976334 80.984 135.2766
224.592112 80.941 135.3100
226.219600 80.899 135.3372
227.858880 80.856 135.3594
229.510039 80.814 135.3781
231.173164 80.771 135.3946
232.848340 80.728 135.4091
234.535655 80.685 135.4211
236.235197 80.642 135.4298
237.947054 80.598 135.4354
239.671317 80.553 135.4391
241.408074 80.508 135.4430
243.157416 80.462 135.4496
244.919435 80.414 135.4611
246.694223 80.366 135.4799
248.481871 80.318 135.5093
250.282473 80.269 135.5526
252.096123 80.221 135.6111
253.922915 80.174 135.6829
255.762945 80.130 135.7607
257.616309 80.088 135.8353
259.483103 80.049 135.8985
261.363424 80.011 135.9465
263.257372 79.972 135.9811
265.165043 79.932 136.0068
267.086538 79.889 136.0302
269.021957 79.845 136.0573
270.971401 79.801 136.0934
272.934972 79.756 136.1406
274.912771 79.712 136.1980
276.904902 79.669 136.2633
278.911469 79.628 136.3336
280.932577 79.588 136.4056
282.968330 79.551 136.4762
285.018835 79.515 136.5407
287.084199 79.481 136.5925
289.164530 79.447 136.6251
291.259935 79.412 136.6359
293.370525 79.375 136.6285
295.496408 79.334 136.6126
297.637697 79.291 136.5990
299.794503 79.246 136.5953
301.966937 79.200 136.6038
304.155114 79.153 136.6230
306.359147 79.106 136.6502
308.579152 79.060 136.6830
310.815244 79.013 136.7200
313.067539 78.967 136.7600
315.336156 78.919 136.8036
317.621211 78.871 136.8530
319.922826 78.821 136.9117
322.241118 78.772 136.9813
324.576210 78.722 137.0610
326.928223 78.675 137.1483
329.297280 78.628 137.2406
331.683504 78.583 137.3357
334.087019 78.539 137.4321
336.507952 78.495 137.5285
338.946427 78.452 137.6235
341.402572 78.408 137.7170
343.876516 78.365 137.8107
346.368387 78.321 137.9066
348.878315 78.277 138.0060
351.406431 78.234 138.1089
353.952867 78.192 138.2136
356.517756 78.150 138.3175
359.101230 78.109 138.4176
361.703426 78.069 138.5112
364.324478 78.029 138.5970
366.964523 77.990 138.6766
369.623699 77.951 138.7538
372.302145 77.912 138.8319
375.000000 77.872 138.9122
377.717405 77.832 138.9944
380.454501 77.791 139.0778
383.211431 77.749 139.1621
385.988339 77.707 139.2473
388.785369 77.665 139.3328
391.602668 77.622 139.4181
394.440383 77.580 139.5028
397.298660 77.538 139.5872
400.177650 77.496 139.6717
403.077502 77.454 139.7565
405.998368 77.412 139.8416
408.940400 77.370 139.9267
411.903750 77.327 140.0131
414.888575 77.284 140.1031
417.895028 77.240 140.2004
420.923268 77.196 140.3081
423.973452 77.153 140.4284
427.045738 77.111 140.5621
430.140287 77.071 140.7086
433.257261 77.032 140.8654
436.396822 76.994 141.0275
439.559133 76.958 141.1887
442.744360 76.922 141.3434
445.952668 76.887 141.4854
449.184225 76.853 141.6067
452.439199 76.819 141.7004
455.717760 76.785 141.7657
459.020079 76.748 141.8109
462.346327 76.709 141.8495
465.696680 76.666 141.8945
469.071310 76.622 141.9535
472.470394 76.576 142.0285
475.894109 76.530 142.1175
479.342634 76.485 142.2156
482.816148 76.440 142.3171
486.314833 76.395 142.4195
489.838871 76.349 142.5275
493.388445 76.302 142.6499
496.963741 76.255 142.7915
500.564945 76.209 142.9482
504.192245 76.164 143.1113
507.845830 76.120 143.2733
511.525890 76.076 143.4312
515.232618 76.032 143.5860
518.966206 75.988 143.7411
522.726849 75.942 143.9000
526.514743 75.896 144.0661
530.330086 75.850 144.2416
534.173076 75.805 144.4250
538.043915 75.762 144.6119
541.942803 75.719 144.7996
545.869944 75.677 144.9882
549.825542 75.636 145.1786
553.809805 75.595 145.3701
557.822939 75.556 145.5597
561.865154 75.517 145.7453
565.936660 75.477 145.9274
570.037671 75.437 146.1088
574.168399 75.396 146.2930
578.329060 75.354 146.4815
582.519870 75.313 146.6743
586.741049 75.271 146.8716
590.992817 75.230 147.0769
595.275394 75.189 147.2946
599.589005 75.149 147.5254
603.933874 75.110 147.7653
608.310228 75.071 148.0092
612.718295 75.033 148.2537
617.158304 74.994 148.4997
621.630488 74.954 148.7520
626.135079 74.914 149.0167
630.672311 74.874 149.2963
635.242423 74.837 149.5873
639.845651 74.801 149.8832
644.482237 74.769 150.1812
649.152421 74.739 150.4812
653.856447 74.712 150.7817
658.594560 74.687 151.0767
663.367008 74.665 151.3566
668.174039 74.645 151.6136
673.015903 74.623 151.8484
677.892854 74.600 152.0691
682.805145 74.575 152.2846
687.753032 74.548 152.5012
692.736774 74.519 152.7240
697.756631 74.489 152.9576
702.812863 74.459 153.2046
707.905735 74.429 153.4644
713.035511 74.400 153.7350
718.202461 74.372 154.0144
723.406852 74.344 154.3016
728.648956 74.316 154.5958
733.929047 74.289 154.8958
739.247399 74.262 155.2007
744.604290 74.236 155.5100
750.000000 74.211 155.8243
755.434809 74.187 156.1443
760.909001 74.164 156.4694
766.422861 74.142 156.7987
771.976677 74.121 157.1325
777.570739 74.101 157.4716
783.205337 74.081 157.8166
788.880766 74.063 158.1688
794.597321 74.046 158.5309
800.355301 74.032 158.9047
806.155005 74.020 159.2883
811.996736 74.013 159.6754
817.880799 74.009 160.0565
823.807501 74.008 160.4211
829.777150 74.010 160.7603
835.790057 74.012 161.0719
841.846536 74.013 161.3638
847.946903 74.012 161.6479
854.091476 74.010 161.9335
860.280575 74.007 162.2253
866.514523 74.003 162.5273
872.793644 74.000 162.8427
879.118267 73.998 163.1709
885.488720 73.997 163.5076
891.905336 73.998 163.8482
898.368450 73.999 164.1914
904.878398 74.001 164.5397
911.435520 74.005 164.8952
918.040157 74.010 165.2563
924.692655 74.017 165.6193
931.393359 74.026 165.9789
938.142619 74.039 166.3294
944.940787 74.053 166.6686
951.788218 74.069 166.9978
958.685268 74.086 167.3205
965.632296 74.104 167.6409
972.629666 74.122 167.9645
979.677741 74.141 168.2945
986.776890 74.160 168.6298
993.927482 74.180 168.9674
1001.129891 74.201 169.3055
1008.384491 74.225 169.6447
1015.691660 74.253 169.9863
1023.051781 74.286 170.3290
1030.465236 74.323 170.6675
1037.932411 74.366 170.9915
1045.453698 74.413 171.2891
1053.029486 74.463 171.5551
1060.660172 74.513 171.7921
1068.346153 74.562 172.0063
1076.087829 74.610 172.2036
1083.885605 74.657 172.3872
1091.739887 74.704 172.5572
1099.651084 74.752 172.7133
1107.619609 74.800 172.8565
1115.645878 74.848 172.9892
1123.730308 74.897 173.1130
1131.873321 74.946 173.2288
1140.075341 74.996 173.3352
1148.336797 75.045 173.4297
1156.658119 75.096 173.5098
1165.039741 75.147 173.5758
1173.482099 75.198 173.6300
1181.985634 75.251 173.6735
1190.550789 75.306 173.7015
1199.178011 75.363 173.7037
1207.867749 75.420 173.6695
1216.620457 75.475 173.5950
1225.436590 75.526 173.4869
1234.316609 75.573 173.3562
1243.260976 75.614 173.2137
1252.270157 75.651 173.0682
1261.344623 75.683 172.9254
1270.484846 75.713 172.7883
1279.691303 75.740 172.6605
1288.964474 75.765 172.5453
1298.304842 75.789 172.4443
1307.712894 75.813 172.3563
1317.189120 75.837 172.2775
1326.734016 75.861 172.2045
1336.348077 75.883 172.1358
1346.031806 75.905 172.0721
1355.785708 75.925 172.0156
1365.610290 75.944 171.9689
1375.506065 75.962 171.9370
1385.473549 75.981 171.9258
1395.513261 76.003 171.9374
1405.625726 76.028 171.9669
1415.811469 76.059 172.0016
1426.071023 76.094 172.0249
1436.404921 76.131 172.0257
1446.813703 76.169 172.0025
1457.297912 76.207 171.9608
1467.858093 76.244 171.9078
1478.494798 76.280 171.8489
1489.208581 76.316 171.7879
1500.000000 76.351 171.7272
1510.869618 76.387 171.6686
1521.818002 76.422 171.6136
1532.845723 76.459 171.5638
1543.953355 76.496 171.5207
1555.141477 76.536 171.4850
1566.410674 76.579 171.4526
1577.761531 76.626 171.4127
1589.194642 76.677 171.3515
1600.710601 76.731 171.2598
1612.310010 76.785 171.1369
1623.993473 76.838 170.9880
1635.761599 76.889 170.8203
1647.615002 76.939 170.6402
1659.554299 76.988 170.4519
1671.580114 77.035 170.2578
1683.693072 77.083 170.0572
1695.893807 77.130 169.8475
1708.182952 77.177 169.6270
1720.561150 77.223 169.3969
1733.029045 77.268 169.1613
1745.587288 77.312 168.9257
1758.236533 77.355 168.6969
1770.977440 77.399 168.4807
1783.810673 77.445 168.2755
1796.736900 77.495 168.0710
1809.756796 77.550 167.8517
1822.871040 77.607 167.6056
1836.080315 77.666 167.3288
1849.385310 77.726 167.0228
1862.786718 77.785 166.6913
1876.285239 77.843 166.3393
1889.881575 77.899 165.9718
1903.576436 77.955 165.5938
1917.370535 78.010 165.2093
1931.264593 78.066 164.8204
1945.259332 78.124 164.4243
1959.355483 78.185 164.0111
1973.553781 78.250 163.5674
1987.854965 78.316 163.0845
2002.259781 78.382 162.5609
2016.768981 78.447 161.9987
2031.383320 78.509 161.4001
2046.103561 78.569 160.7675
2060.930471 78.626 160.1028
2075.864823 78.681 159.4056
2090.907395 78.732 158.6747
2106.058972 78.781 157.9106
2121.320344 78.825 157.1172
2136.692305 78.865 156.3015
2152.175658 78.900 155.4701
2167.771210 78.933 154.6243
2183.479774 78.965 153.7567
2199.302169 78.994 152.8551
2215.239219 79.020 151.9103
2231.291755 79.040 150.9190
2247.460615 79.053 149.8833
2263.746641 79.057 148.8099
2280.150683 79.052 147.7083
2296.673595 79.036 146.5905
2313.316238 79.010 145.4681
2330.079481 78.975 144.3482
2346.964198 78.932 143.2300
2363.971268 78.880 142.1078
2381.101578 78.819 140.9778
2398.356022 78.747 139.8419
2415.735498 78.663 138.7066
2433.240913 78.567 137.5822
2450.873180 78.457 136.4797
2468.633217 78.336 135.4094
2486.521951 78.201 134.3818
2504.540314 78.054 133.4091
2522.689246 77.895 132.5061
2540.969692 77.725 131.6867
2559.382606 77.546 130.9574
2577.928947 77.363 130.3156
2596.609683 77.175 129.7544
2615.425787 76.985 129.2682
2634.378241 76.792 128.8548
2653.468031 76.596 128.5156
2672.696154 76.397 128.2563
2692.063613 76.197 128.0843
2711.571415 75.997 128.0046
2731.220579 75.800 128.0146
2751.012130 75.607 128.1037
2770.947098 75.421 128.2593
2791.026522 75.240 128.4700
2811.251451 75.065 128.7270
2831.622938 74.894 129.0236
2852.142045 74.728 129.3547
2872.809842 74.564 129.7182
2893.627406 74.404 130.1184
2914.595823 74.246 130.5646
2935.716186 74.091 131.0658
2956.989596 73.940 131.6225
2978.417161 73.796 132.2274
3000.000000 73.659 132.8714
3021.739237 73.527 133.5478
3043.636005 73.401 134.2542
3065.691446 73.281 134.9941
3087.906710 73.167 135.7739
3110.282955 73.060 136.5953
3132.821347 72.962 137.4524
3155.523062 72.875 138.3347
3178.389283 72.797 139.2315
3201.421202 72.728 140.1338
3224.620020 72.668 141.0340
3247.986946 72.615 141.9266
3271.523198 72.567 142.8114
3295.230004 72.525 143.6961
3319.108599 72.488 144.5903
3343.160228 72.457 145.4977
3367.386145 72.433 146.4150
3391.787613 72.418 147.3369
3416.365904 72.409 148.2610
3441.122300 72.406 149.1897
3466.058091 72.409 150.1295
3491.174576 72.419 151.0861
3516.473066 72.438 152.0580
3541.954880 72.467 153.0352
3567.621345 72.508 154.0032
3593.473800 72.560 154.9469
3619.513592 72.623 155.8528
3645.742080 72.695 156.7117
3672.160630 72.776 157.5230
3698.770620 72.863 158.2925
3725.573436 72.958 159.0240
3752.570477 73.060 159.7144
3779.763150 73.170 160.3559
3807.152872 73.287 160.9406
3834.741071 73.410 161.4654
3862.529185 73.538 161.9330
3890.518664 73.672 162.3448
3918.710966 73.813 162.6945
3947.107561 73.960 162.9686
3975.709929 74.114 163.1505
4004.519563 74.272 163.2225
4033.537962 74.432 163.1688
4062.766641 74.590 162.9813
4092.207123 74.742 162.6610
4121.860942 74.885 162.2142
4151.729646 75.018 161.6481
4181.814790 75.136 160.9714
4212.117944 75.237 160.1975
4242.640687 75.318 159.3480
4273.384610 75.377 158.4488
4304.351317 75.414 157.5241
4335.542421 75.430 156.5945
4366.959549 75.426 155.6771
4398.604338 75.402 154.7856
4430.478438 75.358 153.9337
4462.583511 75.296 153.1399
4494.921231 75.215 152.4259
4527.493283 75.118 151.8114
4560.301365 75.006 151.3116
4593.347189 74.884 150.9387
4626.632476 74.752 150.7058
4660.158962 74.615 150.6262
4693.928395 74.479 150.7072
4727.942535 74.348 150.9449
4762.203156 74.227 151.3223
4796.712043 74.122 151.8099
4831.470996 74.032 152.3736
4866.481826 73.959 152.9847
4901.746360 73.902 153.6218
4937.266434 73.859 154.2672
4973.043902 73.828 154.9061
5009.080628 73.808 155.5288
5045.378492 73.798 156.1334
5081.939384 73.795 156.7209
5118.765212 73.801 157.2900
5155.857894 73.815 157.8333
5193.219366 73.839 158.3366
5230.851574 73.871 158.7845
5268.756481 73.910 159.1654
5306.936062 73.952 159.4713
5345.392309 73.995 159.6959
5384.127225 74.036 159.8364
5423.142830 74.071 159.8990
5462.441159 74.098 159.8986
5502.024259 74.115 159.8541
5541.894195 74.121 159.7831
5582.053045 74.117 159.6979
5622.502902 74.104 159.6068
5663.245876 74.081 159.5171
5704.284090 74.050 159.4363
5745.619684 74.011 159.3692
5787.254813 73.962 159.3205
5829.191647 73.905 159.2997
5871.432373 73.838 159.3215
5913.979192 73.763 159.4016
5956.834323 73.682 159.5503
6000.000000 73.596 159.7709
6043.478473 73.506 160.0631
6087.272010 73.415 160.4265
6131.382892 73.324 160.8597
6175.813420 73.231 161.3607
6220.565910 73.139 161.9309
6265.642695 73.047 162.5773
6311.046124 72.958 163.3094
6356.778566 72.872 164.1329
6402.842404 72.792 165.0475
6449.240040 72.721 166.0486
6495.973891 72.662 167.1281
6543.046396 72.616 168.2733
6590.460007 72.584 169.4715
6638.217197 72.566 170.7136
6686.320456 72.562 171.9949
6734.772290 72.574 173.3128
6783.575226 72.602 174.6625
6832.731809 72.648 176.0363
6882.244600 72.716 177.4222
6932.116181 72.805 178.8013
6982.349153 72.917 -179.8490
7032.946133 73.052 -178.5487
7083.909760 73.209 -177.3128
7135.242690 73.389 -176.1550
7186.947600 73.593 -175.0921
7239.027185 73.822 -174.1456
7291.484160 74.077 -173.3450
7344.321260 74.358 -172.7277
7397.541239 74.661 -172.3345
7451.146872 74.983 -172.2037
7505.140954 75.320 -172.3703
7559.526299 75.665 -172.8682
7614.305743 76.012 -173.7278
7669.482141 76.352 -174.9753
7725.058371 76.674 -176.6293
7781.037328 76.966 -178.6949
7837.421932 77.214 178.8456
7894.215122 77.404 176.0363
7951.419859 77.525 172.9455
8009.039125 77.567 169.6609
8067.075924 77.524 166.2831
8125.533282 77.396 162.9153
8184.414245 77.184 159.6574
8243.721885 76.894 156.6035
8303.459292 76.531 153.8385
8363.629581 76.105 151.4339
8424.235888 75.629 149.4452
8485.281374 75.114 147.9078
8546.769221 74.574 146.8331
8608.702634 74.023 146.2101
8671.084842 73.469 146.0139
8733.919097 72.923 146.2137
8797.208675 72.389 146.7791
8860.956876 71.873 147.6810
8925.167022 71.380 148.8874
8989.842461 70.916 150.3597
9054.986566 70.481 152.0581
9120.602731 70.077 153.9478
9186.694378 69.705 156.0025
9253.264952 69.363 158.2031
9320.317925 69.051 160.5322
9387.856790 68.772 162.9692
9455.885071 68.524 165.4915
9524.406312 68.309 168.0775
9593.424086 68.123 170.7128
9662.941992 67.968 173.3924
9732.963653 67.843 176.1133
9803.492719 67.749 178.8657
9874.532869 67.687 -178.3680
9946.087805 67.658 -175.6083
10018.161257 67.661 -172.8695
10090.756983 67.697 -170.1594
10163.878768 67.766 -167.4901
10237.530423 67.870 -164.8839
10311.715789 68.011 -162.3703
10386.438732 68.189 -159.9793
10461.703149 68.402 -157.7359
10537.512962 68.651 -155.6660
10613.872125 68.934 -153.8028
10690.784618 69.250 -152.1905
10768.254450 69.596 -150.8792
10846.285661 69.967 -149.9168
10924.882318 70.356 -149.3468
11004.048518 70.757 -149.2116
11083.788390 71.158 -149.5526
11164.106090 71.544 -150.4026
11245.005805 71.901 -151.7727
11326.491752 72.210 -153.6416
11408.568180 72.455 -155.9561
11491.239368 72.620 -158.6340
11574.509626 72.694 -161.5672
11658.383294 72.668 -164.6230
11742.864745 72.536 -167.6521
11827.958384 72.302 -170.5019
11913.668646 71.974 -173.0330
12000.000000 71.565 -175.1306
12086.956947 71.093 -176.7086
12174.544019 70.576 -177.7110
12262.765784 70.032 -178.1148
12351.626840 69.482 -177.9314
12441.131819 68.941 -177.1996
12531.285389 68.424 -175.9720
12622.092249 67.942 -174.3061
12713.557132 67.502 -172.2639
12805.684808 67.111 -169.9137
12898.480079 66.773 -167.3246
12991.947783 66.492 -164.5594
13086.092792 66.268 -161.6748
13180.920015 66.104 -158.7296
13276.434395 65.998 -155.7857
13372.640911 65.950 -152.9015
13469.544580 65.958 -150.1271
13567.150452 66.019 -147.5080
13665.463617 66.131 -145.0881
13764.489200 66.290 -142.9086
13864.232362 66.494 -141.0073
13964.698305 66.737 -139.4241
14065.892266 67.015 -138.2049
14167.819519 67.322 -137.3971
14270.485380 67.650 -137.0428
14373.895200 67.992 -137.1793
14478.054370 68.335 -137.8400
14582.968320 68.666 -139.0457
14688.642520 68.971 -140.7957
14795.082478 69.232 -143.0671
14902.293745 69.434 -145.8137
15010.281908 69.562 -148.9614
15119.052599 69.606 -152.4104
15228.611486 69.557 -156.0437
15338.964283 69.415 -159.7375
15450.116741 69.182 -163.3692
15562.074656 68.869 -166.8303
15674.843864 68.488 -170.0409
15788.430244 68.055 -172.9597
15902.839718 67.587 -175.5857
16018.078250 67.100 -177.9544
16134.151848 66.607 179.8679
16251.066563 66.119 177.7909
16368.828491 65.637 175.7125
16487.443769 65.160 173.5322
16606.918584 64.678 171.1616
16727.259161 64.179 168.5353
16848.471777 63.644 165.6233
16970.562748 63.053 162.4376
17093.538442 62.384 159.0336
17217.405268 61.618 155.5095
17342.169684 60.737 152.0035
17467.838194 59.727 148.6907
17594.417350 58.582 145.7888
17721.913751 57.295 143.5808
17850.334044 55.866 142.4653
17979.684923 54.308 143.0767
18109.973131 52.653 146.5436
18241.205462 50.981 154.8867
18373.388756 49.445 170.7144
18506.529905 48.271 -167.3173
18640.635849 47.643 -148.3316
18775.713581 47.541 -137.3829
18911.770141 47.752 -132.5803
19048.812624 48.044 -131.4275
19186.848172 48.259 -132.3895
19325.883983 48.317 -134.5544
19465.927305 48.197 -137.3119
19606.985439 47.919 -140.2006
19749.065738 47.547 -142.8360
19892.175609 47.188 -144.8690
20036.322514 46.965 -145.9861
