* Measurement data measured by REW V5.31.3
* Source: EXCL: Microphone (USB Sound Device        ), MICROPHONE (Master Volume), R, volume: 0.390
* Format: 256k Log Swept Sine, 1 sweep at -17.0 dBFS with no timing reference
* Dated: Jul 5, 2025 2:51:36 PM
* REW Settings:
*  C-weighting compensation: Off
*  Target level: 75.0 dB
* Note: SymphoneEars Hexad L
* Measurement: L SymphoneEars Hexad L
* Smoothing: 1/12 octave
* Frequency Step: 96 ppo
* Start Frequency: 0.36621094 Hz
*
* Freq(Hz) SPL(dB) Phase(degrees)
0.366211 92.211 169.7722
0.368865 92.210 169.7599
0.371538 92.208 169.7416
0.374230 92.206 169.7187
0.376942 92.203 169.6924
0.379673 92.200 169.6637
0.382424 92.198 169.6331
0.385196 92.195 169.6010
0.387987 92.191 169.5677
0.390798 92.188 169.5332
0.393630 92.185 169.4976
0.396483 92.182 169.4610
0.399356 92.179 169.4232
0.402250 92.176 169.3845
0.405165 92.173 169.3446
0.408101 92.169 169.3036
0.411058 92.166 169.2616
0.414037 92.163 169.2185
0.417037 92.159 169.1743
0.420059 92.156 169.1289
0.423103 92.153 169.0824
0.426169 92.149 169.0348
0.429257 92.146 168.9861
0.432368 92.142 168.9362
0.435501 92.139 168.8851
0.438656 92.135 168.8329
0.441835 92.132 168.7795
0.445037 92.128 168.7250
0.448262 92.125 168.6692
0.451510 92.121 168.6123
0.454782 92.118 168.5541
0.458077 92.114 168.4947
0.461397 92.110 168.4342
0.464740 92.107 168.3724
0.468108 92.103 168.3093
0.471500 92.099 168.2451
0.474917 92.095 168.1796
0.478358 92.092 168.1128
0.481825 92.088 168.0448
0.485316 92.084 167.9756
0.488833 92.080 167.9051
0.492375 92.076 167.8334
0.495943 92.072 167.7604
0.499537 92.068 167.6861
0.503157 92.064 167.6106
0.506803 92.060 167.5338
0.510475 92.056 167.4557
0.514175 92.052 167.3764
0.517900 92.048 167.2959
0.521653 92.044 167.2140
0.525434 92.039 167.1309
0.529241 92.035 167.0466
0.533076 92.031 166.9610
0.536939 92.027 166.8741
0.540830 92.022 166.7861
0.544749 92.018 166.6967
0.548696 92.014 166.6062
0.552673 92.009 166.5144
0.556677 92.005 166.4214
0.560711 92.000 166.3272
0.564774 91.996 166.2318
0.568867 91.991 166.1353
0.572989 91.987 166.0375
0.577141 91.982 165.9386
0.581324 91.978 165.8386
0.585536 91.973 165.7374
0.589779 91.968 165.6351
0.594053 91.964 165.5318
0.598358 91.959 165.4273
0.602694 91.954 165.3218
0.607061 91.949 165.2153
0.611460 91.944 165.1078
0.615891 91.939 164.9993
0.620354 91.935 164.8898
0.624849 91.930 164.7794
0.629377 91.925 164.6681
0.633938 91.920 164.5560
0.638532 91.914 164.4430
0.643159 91.909 164.3292
0.647819 91.904 164.2147
0.652514 91.899 164.0994
0.657242 91.894 163.9834
0.662005 91.888 163.8669
0.666802 91.883 163.7497
0.671634 91.878 163.6320
0.676501 91.872 163.5137
0.681403 91.867 163.3951
0.686341 91.862 163.2760
0.691314 91.856 163.1566
0.696324 91.850 163.0369
0.701370 91.845 162.9169
0.706452 91.839 162.7967
0.711571 91.833 162.6763
0.716728 91.828 162.5558
0.721921 91.822 162.4349
0.727153 91.815 162.3136
0.732422 91.809 162.1917
0.737729 91.802 162.0688
0.743075 91.795 161.9447
0.748460 91.788 161.8192
0.753883 91.780 161.6921
0.759346 91.773 161.5631
0.764849 91.765 161.4324
0.770391 91.757 161.2998
0.775974 91.749 161.1652
0.781597 91.741 161.0288
0.787261 91.733 160.8904
0.792966 91.724 160.7501
0.798712 91.716 160.6078
0.804500 91.707 160.4637
0.810329 91.698 160.3177
0.816201 91.689 160.1697
0.822116 91.680 160.0199
0.828073 91.671 159.8682
0.834074 91.662 159.7147
0.840118 91.653 159.5593
0.846206 91.643 159.4021
0.852338 91.633 159.2431
0.858514 91.624 159.0824
0.864735 91.614 158.9199
0.871001 91.604 158.7556
0.877313 91.594 158.5897
0.883670 91.583 158.4221
0.890074 91.573 158.2529
0.896524 91.563 158.0821
0.903020 91.552 157.9098
0.909564 91.541 157.7360
0.916155 91.530 157.5607
0.922794 91.519 157.3840
0.929481 91.508 157.2059
0.936216 91.497 157.0265
0.943000 91.486 156.8459
0.949834 91.474 156.6640
0.956717 91.463 156.4811
0.963649 91.451 156.2971
0.970632 91.440 156.1122
0.977666 91.428 155.9263
0.984750 91.416 155.7396
0.991886 91.404 155.5521
0.999074 91.391 155.3640
1.006314 91.379 155.1754
1.013606 91.367 154.9863
1.020951 91.354 154.7968
1.028349 91.342 154.6072
1.035801 91.329 154.4173
1.043307 91.316 154.2275
1.050867 91.304 154.0377
1.058482 91.291 153.8482
1.066152 91.278 153.6590
1.073878 91.265 153.4702
1.081660 91.251 153.2820
1.089498 91.238 153.0942
1.097393 91.225 152.9071
1.105345 91.211 152.7204
1.113355 91.198 152.5341
1.121423 91.184 152.3481
1.129549 91.170 152.1623
1.137734 91.156 151.9767
1.145979 91.141 151.7911
1.154283 91.127 151.6055
1.162647 91.112 151.4199
1.171072 91.097 151.2342
1.179558 91.082 151.0483
1.188106 91.067 150.8622
1.196715 91.052 150.6758
1.205387 91.036 150.4891
1.214122 91.021 150.3019
1.222920 91.005 150.1143
1.231782 90.989 149.9261
1.240708 90.973 149.7373
1.249699 90.957 149.5477
1.258754 90.940 149.3574
1.267876 90.924 149.1663
1.277063 90.907 148.9742
1.286318 90.891 148.7810
1.295639 90.874 148.5867
1.305027 90.857 148.3912
1.314484 90.840 148.1944
1.324009 90.823 147.9961
1.333604 90.806 147.7963
1.343268 90.788 147.5948
1.353002 90.771 147.3916
1.362806 90.754 147.1865
1.372681 90.737 146.9794
1.382628 90.719 146.7702
1.392647 90.702 146.5588
1.402739 90.684 146.3450
1.412904 90.667 146.1288
1.423142 90.650 145.9100
1.433455 90.632 145.6886
1.443843 90.615 145.4645
1.454305 90.598 145.2379
1.464844 90.580 145.0087
1.475459 90.563 144.7773
1.486150 90.545 144.5438
1.496920 90.528 144.3084
1.507767 90.510 144.0711
1.518693 90.492 143.8320
1.529698 90.475 143.5912
1.540783 90.457 143.3486
1.551948 90.439 143.1042
1.563194 90.420 142.8580
1.574521 90.402 142.6099
1.585931 90.384 142.3598
1.597423 90.366 142.1078
1.608999 90.348 141.8536
1.620658 90.329 141.5974
1.632402 90.311 141.3389
1.644232 90.293 141.0782
1.656146 90.275 140.8152
1.668147 90.257 140.5498
1.680235 90.238 140.2819
1.692411 90.221 140.0115
1.704675 90.203 139.7384
1.717028 90.185 139.4627
1.729470 90.167 139.1842
1.742003 90.150 138.9028
1.754626 90.132 138.6185
1.767341 90.115 138.3313
1.780147 90.098 138.0409
1.793047 90.082 137.7476
1.806040 90.065 137.4512
1.819128 90.049 137.1519
1.832310 90.033 136.8497
1.845587 90.018 136.5449
1.858961 90.002 136.2377
1.872432 89.987 135.9281
1.886001 89.971 135.6161
1.899667 89.956 135.3018
1.913433 89.942 134.9851
1.927299 89.927 134.6658
1.941265 89.912 134.3439
1.955332 89.898 134.0192
1.969501 89.884 133.6914
1.983773 89.870 133.3606
1.998148 89.857 133.0264
2.012627 89.844 132.6886
2.027212 89.831 132.3472
2.041902 89.818 132.0018
2.056698 89.806 131.6523
2.071602 89.794 131.2985
2.086614 89.783 130.9401
2.101734 89.772 130.5769
2.116964 89.761 130.2088
2.132304 89.751 129.8354
2.147756 89.742 129.4568
2.163320 89.732 129.0728
2.178996 89.724 128.6833
2.194786 89.716 128.2886
2.210690 89.708 127.8886
2.226710 89.701 127.4838
2.242845 89.695 127.0743
2.259098 89.689 126.6601
2.275468 89.683 126.2413
2.291957 89.678 125.8180
2.308566 89.674 125.3900
2.325295 89.670 124.9573
2.342145 89.667 124.5198
2.359117 89.664 124.0773
2.376212 89.662 123.6296
2.393431 89.661 123.1767
2.410775 89.660 122.7184
2.428244 89.660 122.2545
2.445840 89.660 121.7848
2.463564 89.662 121.3092
2.481416 89.663 120.8275
2.499397 89.666 120.3395
2.517509 89.669 119.8450
2.535752 89.673 119.3440
2.554127 89.677 118.8364
2.572635 89.682 118.3222
2.591277 89.688 117.8014
2.610055 89.695 117.2741
2.628968 89.703 116.7406
2.648019 89.711 116.2010
2.667208 89.721 115.6554
2.686535 89.731 115.1040
2.706003 89.742 114.5470
2.725612 89.754 113.9845
2.745363 89.766 113.4166
2.765257 89.780 112.8435
2.785295 89.794 112.2653
2.805478 89.809 111.6821
2.825808 89.825 111.0940
2.846285 89.841 110.5010
2.866910 89.858 109.9033
2.887685 89.876 109.3006
2.908611 89.895 108.6931
2.929688 89.914 108.0806
2.950917 89.935 107.4629
2.972301 89.956 106.8400
2.993839 89.978 106.2120
3.015534 90.001 105.5789
3.037386 90.025 104.9409
3.059396 90.050 104.2985
3.081565 90.075 103.6518
3.103896 90.102 103.0013
3.126388 90.129 102.3473
3.149043 90.157 101.6901
3.171862 90.186 101.0301
3.194847 90.216 100.3675
3.217998 90.246 99.7027
3.241317 90.277 99.0357
3.264805 90.308 98.3665
3.288463 90.340 97.6950
3.312293 90.373 97.0211
3.336295 90.407 96.3445
3.360471 90.441 95.6653
3.384822 90.476 94.9835
3.409350 90.512 94.2995
3.434056 90.549 93.6138
3.458940 90.586 92.9271
3.484005 90.624 92.2400
3.509252 90.663 91.5532
3.534681 90.702 90.8673
3.560295 90.742 90.1829
3.586094 90.782 89.5005
3.612081 90.823 88.8205
3.638255 90.864 88.1429
3.664620 90.906 87.4677
3.691175 90.948 86.7947
3.717923 90.990 86.1235
3.744864 91.033 85.4542
3.772001 91.077 84.7867
3.799335 91.121 84.1215
3.826866 91.166 83.4589
3.854597 91.211 82.7996
3.882529 91.257 82.1440
3.910664 91.303 81.4928
3.939002 91.349 80.8466
3.967546 91.395 80.2057
3.996296 91.442 79.5704
4.025255 91.489 78.9409
4.054423 91.537 78.3169
4.083804 91.585 77.6984
4.113396 91.633 77.0852
4.143204 91.681 76.4774
4.173227 91.730 75.8751
4.203468 91.779 75.2786
4.233928 91.828 74.6882
4.264609 91.878 74.1044
4.295512 91.928 73.5274
4.326639 91.978 72.9577
4.357992 92.028 72.3954
4.389572 92.079 71.8407
4.421380 92.129 71.2936
4.453419 92.180 70.7540
4.485691 92.232 70.2218
4.518196 92.283 69.6969
4.550936 92.335 69.1793
4.583914 92.387 68.6688
4.617131 92.439 68.1656
4.650589 92.491 67.6695
4.684289 92.544 67.1807
4.718233 92.596 66.6993
4.752424 92.649 66.2253
4.786862 92.702 65.7587
4.821549 92.756 65.2995
4.856488 92.809 64.8477
4.891680 92.863 64.4030
4.927127 92.916 63.9653
4.962831 92.970 63.5343
4.998794 93.024 63.1098
5.035017 93.078 62.6915
5.071503 93.132 62.2793
5.108253 93.186 61.8730
5.145270 93.240 61.4727
5.182555 93.295 61.0783
5.220110 93.349 60.6897
5.257937 93.403 60.3068
5.296038 93.457 59.9294
5.334415 93.511 59.5573
5.373071 93.565 59.1901
5.412006 93.619 58.8277
5.451224 93.672 58.4697
5.490725 93.726 58.1161
5.530514 93.779 57.7667
5.570590 93.831 57.4215
5.610957 93.884 57.0805
5.651616 93.936 56.7435
5.692570 93.988 56.4106
5.733821 94.039 56.0815
5.775370 94.090 55.7562
5.817221 94.140 55.4346
5.859375 94.189 55.1165
5.901834 94.238 54.8018
5.944602 94.287 54.4906
5.987679 94.335 54.1828
6.031068 94.382 53.8785
6.074771 94.428 53.5776
6.118792 94.474 53.2803
6.163131 94.519 52.9866
6.207792 94.563 52.6965
6.252776 94.606 52.4099
6.298086 94.648 52.1268
6.343725 94.690 51.8472
6.389694 94.730 51.5712
6.435996 94.770 51.2987
6.482634 94.809 51.0299
6.529610 94.847 50.7649
6.576926 94.884 50.5036
6.624585 94.920 50.2461
6.672590 94.956 49.9924
6.720942 94.990 49.7424
6.769645 95.024 49.4959
6.818700 95.056 49.2530
6.868111 95.088 49.0134
6.917881 95.120 48.7773
6.968010 95.150 48.5445
7.018504 95.179 48.3149
7.069362 95.208 48.0884
7.120590 95.236 47.8647
7.172189 95.263 47.6437
7.224161 95.290 47.4250
7.276511 95.315 47.2085
7.329239 95.340 46.9938
7.382350 95.365 46.7809
7.435845 95.388 46.5695
7.489729 95.411 46.3594
7.544002 95.434 46.1501
7.598669 95.455 45.9414
7.653732 95.476 45.7328
7.709194 95.496 45.5242
7.765058 95.516 45.3152
7.821327 95.535 45.1057
7.878004 95.553 44.8954
7.935091 95.570 44.6841
7.992592 95.587 44.4714
8.050510 95.603 44.2570
8.108847 95.618 44.0409
8.167607 95.632 43.8228
8.226793 95.646 43.6027
8.286408 95.658 43.3803
8.346454 95.670 43.1557
8.406936 95.681 42.9286
8.467856 95.691 42.6990
8.529218 95.701 42.4668
8.591024 95.709 42.2320
8.653278 95.717 41.9946
8.715983 95.724 41.7545
8.779143 95.730 41.5118
8.842760 95.736 41.2664
8.906839 95.740 41.0183
8.971381 95.744 40.7675
9.036392 95.747 40.5140
9.101873 95.750 40.2577
9.167829 95.752 39.9986
9.234263 95.754 39.7367
9.301178 95.755 39.4718
9.368578 95.756 39.2038
9.436467 95.756 38.9327
9.504847 95.756 38.6583
9.573723 95.756 38.3804
9.643099 95.755 38.0990
9.712976 95.755 37.8139
9.783361 95.754 37.5249
9.854255 95.753 37.2318
9.925663 95.752 36.9344
9.997588 95.752 36.6328
10.070035 95.751 36.3267
10.143007 95.750 36.0160
10.216507 95.750 35.7007
10.290540 95.749 35.3807
10.365109 95.749 35.0561
10.440219 95.749 34.7269
10.515873 95.749 34.3931
10.592076 95.749 34.0550
10.668830 95.750 33.7127
10.746141 95.751 33.3663
10.824012 95.752 33.0163
10.902447 95.753 32.6627
10.981451 95.755 32.3061
11.061027 95.757 31.9468
11.141180 95.759 31.5850
11.221913 95.762 31.2212
11.303232 95.766 30.8558
11.385140 95.770 30.4891
11.467641 95.774 30.1216
11.550741 95.779 29.7536
11.634442 95.785 29.3855
11.718750 95.791 29.0176
11.803669 95.798 28.6503
11.889203 95.806 28.2838
11.975357 95.814 27.9185
12.062136 95.823 27.5545
12.149543 95.833 27.1922
12.237583 95.843 26.8318
12.326262 95.855 26.4736
12.415583 95.867 26.1177
12.505552 95.879 25.7645
12.596172 95.893 25.4142
12.687449 95.907 25.0671
12.779387 95.921 24.7234
12.871992 95.936 24.3834
12.965268 95.951 24.0475
13.059220 95.967 23.7159
13.153852 95.983 23.3890
13.249170 96.000 23.0670
13.345179 96.016 22.7503
13.441884 96.033 22.4392
13.539289 96.050 22.1338
13.637401 96.066 21.8345
13.736223 96.083 21.5414
13.835761 96.100 21.2545
13.936021 96.117 20.9741
14.037007 96.134 20.7001
14.138725 96.150 20.4325
14.241180 96.167 20.1712
14.344377 96.183 19.9160
14.448323 96.198 19.6668
14.553021 96.214 19.4232
14.658478 96.229 19.1850
14.764700 96.243 18.9519
14.871691 96.257 18.7235
14.979457 96.271 18.4994
15.088005 96.284 18.2792
15.197339 96.296 18.0626
15.307465 96.307 17.8492
15.418389 96.318 17.6385
15.530117 96.327 17.4302
15.642655 96.336 17.2240
15.756008 96.344 17.0194
15.870182 96.350 16.8161
15.985184 96.356 16.6139
16.101019 96.360 16.4123
16.217694 96.364 16.2111
16.335214 96.366 16.0101
16.453586 96.367 15.8089
16.572815 96.367 15.6073
16.692909 96.366 15.4050
16.813872 96.364 15.2018
16.935713 96.361 14.9974
17.058436 96.357 14.7915
17.182048 96.352 14.5838
17.306556 96.346 14.3741
17.431967 96.340 14.1618
17.558286 96.333 13.9466
17.685521 96.326 13.7281
17.813677 96.319 13.5058
17.942762 96.311 13.2791
18.072783 96.303 13.0475
18.203746 96.295 12.8106
18.335658 96.287 12.5679
18.468526 96.279 12.3190
18.602356 96.271 12.0635
18.737156 96.264 11.8011
18.872934 96.257 11.5319
19.009695 96.250 11.2559
19.147447 96.243 10.9733
19.286197 96.237 10.6845
19.425953 96.231 10.3900
19.566721 96.225 10.0905
19.708510 96.220 9.7868
19.851326 96.215 9.4797
19.995177 96.211 9.1701
20.140070 96.207 8.8590
20.286013 96.204 8.5472
20.433014 96.202 8.2355
20.581080 96.200 7.9247
20.730219 96.199 7.6154
20.880439 96.199 7.3083
21.031747 96.200 7.0037
21.184152 96.202 6.7023
21.337661 96.204 6.4042
21.492282 96.208 6.1100
21.648024 96.212 5.8199
21.804895 96.217 5.5341
21.962902 96.222 5.2531
22.122054 96.228 4.9771
22.282360 96.233 4.7062
22.443827 96.240 4.4408
22.606464 96.246 4.1807
22.770280 96.252 3.9263
22.935283 96.258 3.6773
23.101481 96.264 3.4337
23.268884 96.269 3.1954
23.437500 96.274 2.9621
23.607338 96.279 2.7336
23.778406 96.282 2.5096
23.950714 96.285 2.2897
24.124271 96.287 2.0737
24.299086 96.288 1.8612
24.475167 96.288 1.6515
24.652524 96.288 1.4443
24.831166 96.286 1.2387
25.011103 96.284 1.0341
25.192344 96.280 0.8296
25.374898 96.276 0.6243
25.558775 96.271 0.4171
25.743984 96.266 0.2072
25.930536 96.260 -0.0062
26.118439 96.253 -0.2240
26.307704 96.245 -0.4465
26.498341 96.237 -0.6743
26.690359 96.229 -0.9074
26.883768 96.220 -1.1458
27.078579 96.211 -1.3895
27.274801 96.201 -1.6382
27.472446 96.192 -1.8918
27.671522 96.183 -2.1501
27.872042 96.174 -2.4130
28.074014 96.165 -2.6801
28.277450 96.157 -2.9513
28.482360 96.150 -3.2261
28.688755 96.143 -3.5042
28.896645 96.136 -3.7847
29.106042 96.131 -4.0669
29.316957 96.126 -4.3500
29.529400 96.122 -4.6330
29.743382 96.118 -4.9150
29.958915 96.115 -5.1954
30.176009 96.113 -5.4736
30.394677 96.111 -5.7491
30.614929 96.110 -6.0219
30.836778 96.109 -6.2916
31.060234 96.109 -6.5583
31.285309 96.108 -6.8218
31.512015 96.108 -7.0821
31.740364 96.108 -7.3391
31.970368 96.107 -7.5927
32.202039 96.106 -7.8430
32.435388 96.105 -8.0904
32.670428 96.103 -8.3351
32.907171 96.100 -8.5779
33.145630 96.097 -8.8193
33.385817 96.093 -9.0601
33.627745 96.088 -9.3009
33.871425 96.083 -9.5423
34.116871 96.077 -9.7847
34.364096 96.070 -10.0288
34.613113 96.062 -10.2749
34.863934 96.054 -10.5235
35.116572 96.046 -10.7752
35.371041 96.037 -11.0305
35.627354 96.028 -11.2895
35.885525 96.018 -11.5523
36.145566 96.008 -11.8185
36.407492 95.998 -12.0874
36.671316 95.988 -12.3581
36.937051 95.977 -12.6298
37.204712 95.967 -12.9020
37.474313 95.958 -13.1742
37.745867 95.949 -13.4465
38.019389 95.941 -13.7191
38.294893 95.933 -13.9922
38.572394 95.925 -14.2658
38.851905 95.918 -14.5394
39.133442 95.911 -14.8126
39.417019 95.905 -15.0846
39.702651 95.898 -15.3549
39.990353 95.891 -15.6233
40.280140 95.885 -15.8898
40.572026 95.878 -16.1552
40.866028 95.871 -16.4199
41.162160 95.864 -16.6844
41.460438 95.857 -16.9490
41.760877 95.849 -17.2136
42.063494 95.840 -17.4778
42.368303 95.831 -17.7413
42.675322 95.822 -18.0042
42.984565 95.812 -18.2668
43.296048 95.803 -18.5298
43.609789 95.793 -18.7940
43.925804 95.783 -19.0599
44.244108 95.773 -19.3278
44.564719 95.763 -19.5976
44.887654 95.753 -19.8690
45.212928 95.743 -20.1415
45.540560 95.732 -20.4150
45.870565 95.723 -20.6892
46.202962 95.713 -20.9646
46.537768 95.703 -21.2410
46.875000 95.694 -21.5187
47.214676 95.684 -21.7972
47.556813 95.674 -22.0763
47.901429 95.664 -22.3554
48.248542 95.654 -22.6343
48.598171 95.643 -22.9128
48.950334 95.633 -23.1910
49.305048 95.622 -23.4690
49.662333 95.611 -23.7471
50.022206 95.600 -24.0255
50.384688 95.589 -24.3047
50.749796 95.577 -24.5851
51.117550 95.566 -24.8668
51.487969 95.555 -25.1499
51.861072 95.543 -25.4341
52.236879 95.531 -25.7189
52.615409 95.520 -26.0037
52.996681 95.508 -26.2882
53.380717 95.497 -26.5720
53.767536 95.486 -26.8549
54.157158 95.475 -27.1370
54.549603 95.464 -27.4183
54.944892 95.453 -27.6994
55.343045 95.443 -27.9811
55.744084 95.434 -28.2642
56.148028 95.424 -28.5499
56.554900 95.414 -28.8389
56.964720 95.404 -29.1316
57.377510 95.394 -29.4281
57.793291 95.384 -29.7286
58.212085 95.373 -30.0330
58.633914 95.362 -30.3415
59.058799 95.350 -30.6541
59.486764 95.338 -30.9707
59.917829 95.325 -31.2904
60.352019 95.312 -31.6119
60.789354 95.298 -31.9333
61.229859 95.283 -32.2532
61.673556 95.269 -32.5706
62.120468 95.254 -32.8854
62.570618 95.240 -33.1982
63.024031 95.225 -33.5097
63.480729 95.210 -33.8203
63.940736 95.195 -34.1301
64.404077 95.180 -34.4392
64.870776 95.165 -34.7476
65.340856 95.149 -35.0560
65.814343 95.134 -35.3649
66.291261 95.118 -35.6746
66.771635 95.101 -35.9853
67.255489 95.085 -36.2973
67.742850 95.069 -36.6106
68.233743 95.052 -36.9254
68.728193 95.036 -37.2415
69.226226 95.020 -37.5589
69.727867 95.003 -37.8774
70.233144 94.987 -38.1968
70.742083 94.971 -38.5167
71.254709 94.955 -38.8367
71.771050 94.939 -39.1564
72.291132 94.922 -39.4754
72.814984 94.906 -39.7935
73.342631 94.889 -40.1109
73.874102 94.873 -40.4280
74.409424 94.857 -40.7454
74.948626 94.840 -41.0639
75.491734 94.824 -41.3841
76.038779 94.807 -41.7066
76.589787 94.791 -42.0317
77.144788 94.775 -42.3593
77.703811 94.759 -42.6898
78.266885 94.743 -43.0239
78.834039 94.727 -43.3624
79.405303 94.711 -43.7065
79.980706 94.695 -44.0566
80.560280 94.678 -44.4130
81.144053 94.661 -44.7756
81.732056 94.643 -45.1433
82.324320 94.624 -45.5145
82.920876 94.603 -45.8868
83.521755 94.581 -46.2579
84.126988 94.558 -46.6258
84.736607 94.534 -46.9888
85.350643 94.509 -47.3456
85.969129 94.484 -47.6955
86.592097 94.458 -48.0384
87.219579 94.432 -48.3750
87.851608 94.406 -48.7069
88.488217 94.380 -49.0354
89.129439 94.355 -49.3622
89.775308 94.330 -49.6888
90.425856 94.306 -50.0169
91.081119 94.282 -50.3478
91.741131 94.259 -50.6819
92.405925 94.236 -51.0187
93.075536 94.213 -51.3578
93.750000 94.191 -51.6990
94.429351 94.168 -52.0423
95.113625 94.146 -52.3879
95.802858 94.123 -52.7355
96.497085 94.100 -53.0852
97.196342 94.076 -53.4365
97.900667 94.051 -53.7885
98.610096 94.025 -54.1402
99.324665 93.999 -54.4905
100.044413 93.972 -54.8388
100.769376 93.945 -55.1849
101.499592 93.918 -55.5288
102.235100 93.891 -55.8709
102.975938 93.865 -56.2116
103.722144 93.840 -56.5522
104.473757 93.815 -56.8942
105.230817 93.790 -57.2389
105.993363 93.766 -57.5873
106.761435 93.741 -57.9400
107.535072 93.716 -58.2981
108.314315 93.691 -58.6634
109.099206 93.665 -59.0376
109.889783 93.639 -59.4210
110.686090 93.611 -59.8127
111.488167 93.582 -60.2114
112.296056 93.552 -60.6152
113.109800 93.520 -61.0211
113.929440 93.486 -61.4246
114.755020 93.451 -61.8193
115.586582 93.413 -62.1992
116.424170 93.375 -62.5602
117.267827 93.336 -62.9015
118.117598 93.297 -63.2268
118.973527 93.260 -63.5434
119.835658 93.223 -63.8591
120.704037 93.187 -64.1787
121.578708 93.151 -64.5032
122.459718 93.114 -64.8321
123.347111 93.078 -65.1654
124.240935 93.042 -65.5032
125.141236 93.005 -65.8450
126.048061 92.969 -66.1896
126.961458 92.932 -66.5354
127.881473 92.895 -66.8810
128.808154 92.857 -67.2254
129.741551 92.817 -67.5685
130.681712 92.777 -67.9106
131.628686 92.735 -68.2523
132.582521 92.692 -68.5937
133.543269 92.648 -68.9347
134.510979 92.601 -69.2744
135.485701 92.553 -69.6108
136.467486 92.502 -69.9404
137.456386 92.449 -70.2593
138.452451 92.395 -70.5633
139.455735 92.338 -70.8493
140.466288 92.280 -71.1139
141.484165 92.220 -71.3540
142.509418 92.158 -71.5662
143.542100 92.095 -71.7467
144.582265 92.031 -71.8920
145.629968 91.967 -71.9980
146.685262 91.904 -72.0605
147.748204 91.843 -72.0751
148.818849 91.786 -72.0390
149.897251 91.736 -71.9512
150.983469 91.693 -71.8123
152.077557 91.660 -71.6252
153.179574 91.640 -71.3989
154.289576 91.636 -71.1521
155.407622 91.647 -70.9127
156.533770 91.675 -70.7153
157.668078 91.718 -70.5949
158.810606 91.771 -70.5792
159.961413 91.830 -70.6842
161.120559 91.890 -70.9126
162.288105 91.946 -71.2557
163.464112 91.996 -71.6971
164.648640 92.036 -72.2153
165.841752 92.065 -72.7870
167.043510 92.083 -73.3893
168.253976 92.091 -74.0020
169.473213 92.089 -74.6092
170.701286 92.080 -75.2006
171.938258 92.065 -75.7712
173.184194 92.046 -76.3204
174.439158 92.024 -76.8502
175.703216 91.999 -77.3641
176.976434 91.972 -77.8644
178.258878 91.944 -78.3528
179.550615 91.914 -78.8298
180.851713 91.883 -79.2962
182.162239 91.851 -79.7527
183.482262 91.818 -80.1996
184.811850 91.785 -80.6374
186.151073 91.752 -81.0666
187.500000 91.719 -81.4876
188.858702 91.685 -81.9005
190.227250 91.651 -82.3050
191.605715 91.616 -82.7003
192.994169 91.580 -83.0864
194.392685 91.544 -83.4637
195.801334 91.508 -83.8329
197.220191 91.471 -84.1947
198.649330 91.434 -84.5488
200.088825 91.396 -84.8947
201.538751 91.360 -85.2321
202.999184 91.324 -85.5631
204.470200 91.289 -85.8914
205.951875 91.255 -86.2216
207.444287 91.221 -86.5569
208.947514 91.187 -86.8979
210.461634 91.151 -87.2418
211.986726 91.115 -87.5833
213.522869 91.079 -87.9168
215.070144 91.042 -88.2387
216.628631 91.006 -88.5481
218.198411 90.970 -88.8449
219.779567 90.935 -89.1305
221.372180 90.901 -89.4086
222.976334 90.869 -89.6841
224.592112 90.838 -89.9609
226.219600 90.807 -90.2411
227.858880 90.776 -90.5250
229.510039 90.745 -90.8118
231.173164 90.715 -91.0999
232.848340 90.684 -91.3877
234.535655 90.653 -91.6744
236.235197 90.623 -91.9605
237.947054 90.593 -92.2470
239.671317 90.562 -92.5345
241.408074 90.530 -92.8218
243.157416 90.497 -93.1069
244.919435 90.464 -93.3872
246.694223 90.430 -93.6599
248.481871 90.395 -93.9223
250.282473 90.360 -94.1717
252.096123 90.326 -94.4065
253.922915 90.294 -94.6282
255.762945 90.264 -94.8424
257.616309 90.237 -95.0586
259.483103 90.212 -95.2860
261.363424 90.188 -95.5291
263.257372 90.164 -95.7858
265.165043 90.138 -96.0499
267.086538 90.111 -96.3140
269.021957 90.083 -96.5715
270.971401 90.054 -96.8182
272.934972 90.025 -97.0530
274.912771 89.997 -97.2771
276.904902 89.969 -97.4932
278.911469 89.943 -97.7033
280.932577 89.919 -97.9097
282.968330 89.896 -98.1158
285.018835 89.876 -98.3271
287.084199 89.858 -98.5507
289.164530 89.840 -98.7923
291.259935 89.822 -99.0536
293.370525 89.803 -99.3294
295.496408 89.780 -99.6106
297.637697 89.755 -99.8873
299.794503 89.728 -100.1532
301.966937 89.699 -100.4059
304.155114 89.670 -100.6465
306.359147 89.642 -100.8778
308.579152 89.614 -101.1035
310.815244 89.586 -101.3266
313.067539 89.558 -101.5485
315.336156 89.530 -101.7678
317.621211 89.502 -101.9807
319.922826 89.473 -102.1826
322.241118 89.445 -102.3706
324.576210 89.417 -102.5454
326.928223 89.390 -102.7098
329.297280 89.364 -102.8673
331.683504 89.340 -103.0213
334.087019 89.316 -103.1743
336.507952 89.293 -103.3277
338.946427 89.269 -103.4812
341.402572 89.246 -103.6322
343.876516 89.222 -103.7770
346.368387 89.198 -103.9124
348.878315 89.175 -104.0366
351.406431 89.152 -104.1490
353.952867 89.130 -104.2497
356.517756 89.110 -104.3390
359.101230 89.091 -104.4180
361.703426 89.074 -104.4883
364.324478 89.059 -104.5515
366.964523 89.047 -104.6089
369.623699 89.037 -104.6615
372.302145 89.029 -104.7111
375.000000 89.025 -104.7601
377.717405 89.024 -104.8131
380.454501 89.027 -104.8756
383.211431 89.032 -104.9538
385.988339 89.040 -105.0529
388.785369 89.049 -105.1762
391.602668 89.058 -105.3243
394.440383 89.066 -105.4951
397.298660 89.073 -105.6846
400.177650 89.077 -105.8878
403.077502 89.080 -106.0998
405.998368 89.080 -106.3164
408.940400 89.078 -106.5335
411.903750 89.073 -106.7470
414.888575 89.066 -106.9521
417.895028 89.057 -107.1448
420.923268 89.048 -107.3221
423.973452 89.038 -107.4832
427.045738 89.030 -107.6292
430.140287 89.023 -107.7639
433.257261 89.017 -107.8923
436.396822 89.013 -108.0187
439.559133 89.011 -108.1448
442.744360 89.009 -108.2710
445.952668 89.009 -108.4000
449.184225 89.011 -108.5368
452.439199 89.013 -108.6877
455.717760 89.015 -108.8559
459.020079 89.016 -109.0379
462.346327 89.014 -109.2240
465.696680 89.009 -109.4030
469.071310 89.002 -109.5678
472.470394 88.995 -109.7174
475.894109 88.988 -109.8545
479.342634 88.982 -109.9844
482.816148 88.976 -110.1127
486.314833 88.971 -110.2408
489.838871 88.964 -110.3643
493.388445 88.957 -110.4752
496.963741 88.951 -110.5696
500.564945 88.946 -110.6510
504.192245 88.943 -110.7275
507.845830 88.942 -110.8067
511.525890 88.942 -110.8922
515.232618 88.942 -110.9835
518.966206 88.942 -111.0768
522.726849 88.940 -111.1671
526.514743 88.939 -111.2493
530.330086 88.938 -111.3208
534.173076 88.938 -111.3836
538.043915 88.939 -111.4421
541.942803 88.941 -111.4992
545.869944 88.944 -111.5548
549.825542 88.948 -111.6088
553.809805 88.952 -111.6627
557.822939 88.958 -111.7194
561.865154 88.964 -111.7807
565.936660 88.970 -111.8461
570.037671 88.975 -111.9123
574.168399 88.980 -111.9757
578.329060 88.985 -112.0342
582.519870 88.989 -112.0885
586.741049 88.994 -112.1391
590.992817 88.998 -112.1835
595.275394 89.003 -112.2189
599.589005 89.009 -112.2457
603.933874 89.016 -112.2678
608.310228 89.023 -112.2894
612.718295 89.031 -112.3120
617.158304 89.038 -112.3333
621.630488 89.045 -112.3475
626.135079 89.052 -112.3482
630.672311 89.060 -112.3331
635.242423 89.070 -112.3064
639.845651 89.082 -112.2747
644.482237 89.096 -112.2407
649.152421 89.112 -112.2034
653.856447 89.131 -112.1643
658.594560 89.153 -112.1302
663.367008 89.177 -112.1112
668.174039 89.203 -112.1151
673.015903 89.228 -112.1414
677.892854 89.252 -112.1819
682.805145 89.272 -112.2275
687.753032 89.291 -112.2709
692.736774 89.308 -112.3071
697.756631 89.324 -112.3319
702.812863 89.339 -112.3436
707.905735 89.355 -112.3440
713.035511 89.373 -112.3372
718.202461 89.391 -112.3267
723.406852 89.410 -112.3137
728.648956 89.429 -112.2979
733.929047 89.448 -112.2779
739.247399 89.468 -112.2531
744.604290 89.489 -112.2229
750.000000 89.510 -112.1870
755.434809 89.532 -112.1452
760.909001 89.555 -112.0978
766.422861 89.579 -112.0447
771.976677 89.604 -111.9866
777.570739 89.631 -111.9244
783.205337 89.658 -111.8587
788.880766 89.686 -111.7884
794.597321 89.715 -111.7106
800.355301 89.747 -111.6228
806.155005 89.781 -111.5264
811.996736 89.819 -111.4277
817.880799 89.860 -111.3354
823.807501 89.905 -111.2589
829.777150 89.951 -111.2059
835.790057 89.998 -111.1785
841.846536 90.043 -111.1704
847.946903 90.086 -111.1717
854.091476 90.128 -111.1747
860.280575 90.168 -111.1752
866.514523 90.208 -111.1699
872.793644 90.247 -111.1555
879.118267 90.287 -111.1320
885.488720 90.329 -111.1036
891.905336 90.371 -111.0742
898.368450 90.415 -111.0440
904.878398 90.460 -111.0110
911.435520 90.506 -110.9741
918.040157 90.553 -110.9352
924.692655 90.603 -110.8972
931.393359 90.655 -110.8635
938.142619 90.708 -110.8381
944.940787 90.762 -110.8233
951.788218 90.817 -110.8181
958.685268 90.872 -110.8202
965.632296 90.927 -110.8271
972.629666 90.982 -110.8367
979.677741 91.038 -110.8481
986.776890 91.094 -110.8620
993.927482 91.150 -110.8772
1001.129891 91.208 -110.8898
1008.384491 91.267 -110.8966
1015.691660 91.328 -110.8987
1023.051781 91.393 -110.9009
1030.465236 91.462 -110.9110
1037.932411 91.535 -110.9402
1045.453698 91.610 -111.0007
1053.029486 91.687 -111.0981
1060.660172 91.762 -111.2290
1068.346153 91.835 -111.3847
1076.087829 91.905 -111.5560
1083.885605 91.974 -111.7365
1091.739887 92.041 -111.9244
1099.651084 92.107 -112.1194
1107.619609 92.172 -112.3213
1115.645878 92.236 -112.5291
1123.730308 92.298 -112.7418
1131.873321 92.360 -112.9579
1140.075341 92.421 -113.1766
1148.336797 92.481 -113.3971
1156.658119 92.540 -113.6189
1165.039741 92.600 -113.8410
1173.482099 92.660 -114.0621
1181.985634 92.721 -114.2826
1190.550789 92.785 -114.5082
1199.178011 92.850 -114.7495
1207.867749 92.917 -115.0181
1216.620457 92.983 -115.3191
1225.436590 93.047 -115.6493
1234.316609 93.107 -115.9999
1243.260976 93.164 -116.3622
1252.270157 93.217 -116.7287
1261.344623 93.266 -117.0951
1270.484846 93.314 -117.4601
1279.691303 93.359 -117.8219
1288.964474 93.402 -118.1789
1298.304842 93.444 -118.5311
1307.712894 93.486 -118.8806
1317.189120 93.526 -119.2307
1326.734016 93.565 -119.5836
1336.348077 93.602 -119.9386
1346.031806 93.638 -120.2929
1355.785708 93.671 -120.6428
1365.610290 93.702 -120.9842
1375.506065 93.732 -121.3126
1385.473549 93.761 -121.6228
1395.513261 93.790 -121.9134
1405.625726 93.822 -122.1893
1415.811469 93.857 -122.4616
1426.071023 93.894 -122.7444
1436.404921 93.932 -123.0463
1446.813703 93.970 -123.3678
1457.297912 94.005 -123.7033
1467.858093 94.038 -124.0465
1478.494798 94.069 -124.3926
1489.208581 94.098 -124.7375
1500.000000 94.124 -125.0775
1510.869618 94.149 -125.4092
1521.818002 94.172 -125.7294
1532.845723 94.194 -126.0357
1543.953355 94.217 -126.3260
1555.141477 94.240 -126.6000
1566.410674 94.265 -126.8612
1577.761531 94.294 -127.1198
1589.194642 94.325 -127.3890
1600.710601 94.358 -127.6779
1612.310010 94.390 -127.9875
1623.993473 94.421 -128.3133
1635.761599 94.449 -128.6484
1647.615002 94.474 -128.9872
1659.554299 94.498 -129.3250
1671.580114 94.521 -129.6586
1683.693072 94.542 -129.9871
1695.893807 94.563 -130.3123
1708.182952 94.582 -130.6364
1720.561150 94.601 -130.9594
1733.029045 94.618 -131.2784
1745.587288 94.633 -131.5885
1758.236533 94.647 -131.8833
1770.977440 94.662 -132.1576
1783.810673 94.677 -132.4121
1796.736900 94.697 -132.6560
1809.756796 94.719 -132.9034
1822.871040 94.744 -133.1656
1836.080315 94.770 -133.4465
1849.385310 94.795 -133.7451
1862.786718 94.819 -134.0580
1876.285239 94.842 -134.3806
1889.881575 94.863 -134.7073
1903.576436 94.882 -135.0324
1917.370535 94.900 -135.3510
1931.264593 94.918 -135.6596
1945.259332 94.937 -135.9594
1959.355483 94.959 -136.2587
1973.553781 94.983 -136.5706
1987.854965 95.008 -136.9057
2002.259781 95.034 -137.2676
2016.768981 95.057 -137.6544
2031.383320 95.078 -138.0611
2046.103561 95.096 -138.4815
2060.930471 95.111 -138.9108
2075.864823 95.124 -139.3463
2090.907395 95.133 -139.7868
2106.058972 95.140 -140.2300
2121.320344 95.142 -140.6704
2136.692305 95.141 -141.0995
2152.175658 95.137 -141.5089
2167.771210 95.132 -141.8952
2183.479774 95.128 -142.2642
2199.302169 95.125 -142.6269
2215.239219 95.123 -142.9926
2231.291755 95.120 -143.3656
2247.460615 95.116 -143.7459
2263.746641 95.109 -144.1294
2280.150683 95.100 -144.5094
2296.673595 95.088 -144.8774
2313.316238 95.074 -145.2260
2330.079481 95.061 -145.5531
2346.964198 95.049 -145.8651
2363.971268 95.038 -146.1733
2381.101578 95.029 -146.4874
2398.356022 95.019 -146.8116
2415.735498 95.009 -147.1455
2433.240913 94.996 -147.4856
2450.873180 94.981 -147.8280
2468.633217 94.963 -148.1699
2486.521951 94.941 -148.5078
2504.540314 94.916 -148.8351
2522.689246 94.888 -149.1420
2540.969692 94.856 -149.4183
2559.382606 94.824 -149.6602
2577.928947 94.792 -149.8726
2596.609683 94.762 -150.0638
2615.425787 94.732 -150.2411
2634.378241 94.703 -150.4076
2653.468031 94.674 -150.5616
2672.696154 94.643 -150.6968
2692.063613 94.612 -150.8049
2711.571415 94.581 -150.8801
2731.220579 94.553 -150.9250
2751.012130 94.529 -150.9490
2770.947098 94.509 -150.9630
2791.026522 94.491 -150.9747
2811.251451 94.475 -150.9877
2831.622938 94.461 -151.0025
2852.142045 94.447 -151.0187
2872.809842 94.433 -151.0341
2893.627406 94.417 -151.0425
2914.595823 94.401 -151.0336
2935.716186 94.384 -150.9982
2956.989596 94.368 -150.9341
2978.417161 94.355 -150.8459
3000.000000 94.345 -150.7406
3021.739237 94.337 -150.6228
3043.636005 94.331 -150.4926
3065.691446 94.327 -150.3446
3087.906710 94.325 -150.1715
3110.282955 94.326 -149.9702
3132.821347 94.333 -149.7459
3155.523062 94.346 -149.5090
3178.389283 94.365 -149.2704
3201.421202 94.389 -149.0385
3224.620020 94.419 -148.8192
3247.986946 94.452 -148.6162
3271.523198 94.487 -148.4288
3295.230004 94.524 -148.2503
3319.108599 94.563 -148.0712
3343.160228 94.604 -147.8868
3367.386145 94.649 -147.6990
3391.787613 94.698 -147.5135
3416.365904 94.751 -147.3352
3441.122300 94.806 -147.1636
3466.058091 94.865 -146.9933
3491.174576 94.928 -146.8188
3516.473066 94.997 -146.6417
3541.954880 95.072 -146.4708
3567.621345 95.155 -146.3190
3593.473800 95.245 -146.1993
3619.513592 95.341 -146.1238
3645.742080 95.442 -146.1011
3672.160630 95.547 -146.1332
3698.770620 95.653 -146.2153
3725.573436 95.761 -146.3426
3752.570477 95.870 -146.5152
3779.763150 95.982 -146.7378
3807.152872 96.093 -147.0151
3834.741071 96.205 -147.3471
3862.529185 96.315 -147.7285
3890.518664 96.425 -148.1544
3918.710966 96.535 -148.6262
3947.107561 96.646 -149.1510
3975.709929 96.757 -149.7399
4004.519563 96.868 -150.4044
4033.537962 96.975 -151.1541
4062.766641 97.078 -151.9915
4092.207123 97.174 -152.9110
4121.860942 97.261 -153.9048
4151.729646 97.339 -154.9667
4181.814790 97.406 -156.0920
4212.117944 97.461 -157.2733
4242.640687 97.502 -158.4965
4273.384610 97.529 -159.7442
4304.351317 97.543 -161.0011
4335.542421 97.545 -162.2574
4366.959549 97.535 -163.5082
4398.604338 97.515 -164.7525
4430.478438 97.483 -165.9895
4462.583511 97.438 -167.2131
4494.921231 97.381 -168.4118
4527.493283 97.312 -169.5735
4560.301365 97.231 -170.6882
4593.347189 97.137 -171.7467
4626.632476 97.032 -172.7357
4660.158962 96.916 -173.6379
4693.928395 96.790 -174.4375
4727.942535 96.658 -175.1245
4762.203156 96.522 -175.6975
4796.712043 96.385 -176.1625
4831.470996 96.248 -176.5285
4866.481826 96.111 -176.8014
4901.746360 95.976 -176.9839
4937.266434 95.844 -177.0795
4973.043902 95.714 -177.0929
5009.080628 95.586 -177.0258
5045.378492 95.462 -176.8733
5081.939384 95.341 -176.6281
5118.765212 95.226 -176.2857
5155.857894 95.120 -175.8492
5193.219366 95.024 -175.3302
5230.851574 94.940 -174.7444
5268.756481 94.868 -174.1056
5306.936062 94.809 -173.4255
5345.392309 94.763 -172.7164
5384.127225 94.728 -171.9890
5423.142830 94.704 -171.2466
5462.441159 94.690 -170.4848
5502.024259 94.686 -169.6973
5541.894195 94.694 -168.8809
5582.053045 94.716 -168.0409
5622.502902 94.753 -167.1880
5663.245876 94.806 -166.3343
5704.284090 94.874 -165.4921
5745.619684 94.959 -164.6757
5787.254813 95.059 -163.8987
5829.191647 95.173 -163.1688
5871.432373 95.301 -162.4882
5913.979192 95.444 -161.8576
5956.834323 95.601 -161.2825
6000.000000 95.774 -160.7754
6043.478473 95.963 -160.3535
6087.272010 96.169 -160.0368
6131.382892 96.390 -159.8491
6175.813420 96.626 -159.8153
6220.565910 96.873 -159.9574
6265.642695 97.128 -160.2923
6311.046124 97.389 -160.8341
6356.778566 97.652 -161.5972
6402.842404 97.915 -162.5976
6449.240040 98.173 -163.8506
6495.973891 98.422 -165.3684
6543.046396 98.655 -167.1584
6590.460007 98.866 -169.2190
6638.217197 99.049 -171.5346
6686.320456 99.198 -174.0751
6734.772290 99.308 -176.7979
6783.575226 99.378 -179.6525
6832.731809 99.405 177.4172
6882.244600 99.390 174.4688
6932.116181 99.335 171.5570
6982.349153 99.243 168.7315
7032.946133 99.119 166.0366
7083.909760 98.968 163.5097
7135.242690 98.795 161.1780
7186.947600 98.609 159.0549
7239.027185 98.415 157.1390
7291.484160 98.222 155.4131
7344.321260 98.037 153.8442
7397.541239 97.863 152.3891
7451.146872 97.703 151.0000
7505.140954 97.561 149.6288
7559.526299 97.435 148.2265
7614.305743 97.325 146.7432
7669.482141 97.229 145.1280
7725.058371 97.142 143.3298
7781.037328 97.058 141.3027
7837.421932 96.967 139.0161
7894.215122 96.856 136.4623
7951.419859 96.714 133.6583
8009.039125 96.530 130.6452
8067.075924 96.293 127.4850
8125.533282 95.995 124.2533
8184.414245 95.633 121.0341
8243.721885 95.202 117.9189
8303.459292 94.702 115.0021
8363.629581 94.135 112.3756
8424.235888 93.508 110.1217
8485.281374 92.829 108.3060
8546.769221 92.110 106.9693
8608.702634 91.362 106.1274
8671.084842 90.600 105.7764
8733.919097 89.832 105.8994
8797.208675 89.069 106.4725
8860.956876 88.319 107.4684
8925.167022 87.590 108.8536
8989.842461 86.890 110.5871
9054.986566 86.222 112.6250
9120.602731 85.590 114.9274
9186.694378 84.997 117.4632
9253.264952 84.444 120.2108
9320.317925 83.935 123.1487
9387.856790 83.472 126.2449
9455.885071 83.058 129.4547
9524.406312 82.695 132.7270
9593.424086 82.383 136.0131
9662.941992 82.120 139.2740
9732.963653 81.904 142.4756
9803.492719 81.733 145.5810
9874.532869 81.605 148.5505
9946.087805 81.515 151.3460
10018.161257 81.457 153.9401
10090.756983 81.425 156.3176
10163.878768 81.414 158.4686
10237.530423 81.419 160.3836
10311.715789 81.432 162.0542
10386.438732 81.449 163.4799
10461.703149 81.460 164.6746
10537.512962 81.461 165.6643
10613.872125 81.448 166.4794
10690.784618 81.417 167.1495
10768.254450 81.364 167.7047
10846.285661 81.288 168.1813
10924.882318 81.188 168.6211
11004.048518 81.063 169.0649
11083.788390 80.917 169.5451
11164.106090 80.751 170.0834
11245.005805 80.568 170.6973
11326.491752 80.370 171.4039
11408.568180 80.160 172.2172
11491.239368 79.942 173.1431
11574.509626 79.719 174.1789
11658.383294 79.492 175.3204
11742.864745 79.264 176.5675
11827.958384 79.036 177.9207
11913.668646 78.810 179.3747
12000.000000 78.589 -179.0818
12086.956947 78.373 -177.4584
12174.544019 78.162 -175.7571
12262.765784 77.957 -173.9760
12351.626840 77.760 -172.1187
12441.131819 77.570 -170.1943
12531.285389 77.389 -168.2103
12622.092249 77.213 -166.1646
12713.557132 77.044 -164.0452
12805.684808 76.882 -161.8344
12898.480079 76.730 -159.5134
12991.947783 76.590 -157.0665
13086.092792 76.468 -154.4870
13180.920015 76.369 -151.7811
13276.434395 76.297 -148.9635
13372.640911 76.258 -146.0489
13469.544580 76.254 -143.0488
13567.150452 76.294 -139.9796
13665.463617 76.381 -136.8689
13764.489200 76.521 -133.7526
13864.232362 76.721 -130.6721
13964.698305 76.986 -127.6776
14065.892266 77.320 -124.8346
14167.819519 77.729 -122.2223
14270.485380 78.215 -119.9308
14373.895200 78.777 -118.0636
14478.054370 79.412 -116.7384
14582.968320 80.109 -116.0775
14688.642520 80.854 -116.1969
14795.082478 81.625 -117.1984
14902.293745 82.397 -119.1605
15010.281908 83.140 -122.1253
15119.052599 83.822 -126.0885
15228.611486 84.411 -130.9954
15338.964283 84.880 -136.7406
15450.116741 85.204 -143.1701
15562.074656 85.366 -150.0928
15674.843864 85.361 -157.3029
15788.430244 85.189 -164.6030
15902.839718 84.855 -171.8199
16018.078250 84.368 -178.8048
16134.151848 83.736 174.5758
16251.066563 82.966 168.4510
16368.828491 82.069 162.9503
16487.443769 81.055 158.1960
16606.918584 79.941 154.2898
16727.259161 78.747 151.3035
16848.471777 77.493 149.2795
16970.562748 76.200 148.2375
17093.538442 74.889 148.1904
17217.405268 73.579 149.1685
17342.169684 72.290 151.2314
17467.838194 71.052 154.4299
17594.417350 69.905 158.6875
17721.913751 68.895 163.6348
17850.334044 68.052 168.6151
17979.684923 67.360 173.0355
18109.973131 66.768 176.7396
18241.205462 66.217 179.9809
18373.388756 65.674 -176.8304
18506.529905 65.136 -173.3126
18640.635849 64.628 -169.2033
18775.713581 64.195 -164.4392
18911.770141 63.886 -159.2510
19048.812624 63.732 -154.1821
19186.848172 63.723 -149.8782
19325.883983 63.807 -146.7340
19465.927305 63.922 -144.7380
19606.985439 64.024 -143.6207
19749.065738 64.096 -143.0720
19892.175609 64.139 -142.8476
20036.322514 64.159 -142.7814
