* Measurement data measured by REW V5.31.3
* Source: EXCL: Microphone (USB Sound Device        ), MICROPHONE (Master Volume), R, volume: 0.390
* Format: 256k Log Swept Sine, 1 sweep at -15.0 dBFS with no timing reference
* Dated: Jul 5, 2025 1:02:34 AM
* REW Settings:
*  C-weighting compensation: Off
*  Target level: 75.0 dB
* Note: Symphonium Giant L
* Measurement: L Symphonium Giant L
* Smoothing: 1/12 octave
* Frequency Step: 96 ppo
* Start Frequency: 0.36621094 Hz
*
* Freq(Hz) SPL(dB) Phase(degrees)
0.366211 94.197 157.9218
0.368865 94.191 157.8988
0.371538 94.182 157.8643
0.374230 94.171 157.8210
0.376942 94.159 157.7710
0.379673 94.146 157.7162
0.382424 94.132 157.6574
0.385196 94.118 157.5954
0.387987 94.104 157.5306
0.390798 94.089 157.4631
0.393630 94.075 157.3931
0.396483 94.060 157.3206
0.399356 94.045 157.2455
0.402250 94.030 157.1680
0.405165 94.015 157.0879
0.408101 94.000 157.0053
0.411058 93.984 156.9201
0.414037 93.969 156.8323
0.417037 93.953 156.7419
0.420059 93.938 156.6489
0.423103 93.922 156.5531
0.426169 93.906 156.4547
0.429257 93.890 156.3536
0.432368 93.874 156.2497
0.435501 93.858 156.1430
0.438656 93.841 156.0336
0.441835 93.825 155.9213
0.445037 93.808 155.8062
0.448262 93.791 155.6883
0.451510 93.774 155.5675
0.454782 93.757 155.4438
0.458077 93.740 155.3171
0.461397 93.723 155.1876
0.464740 93.706 155.0550
0.468108 93.688 154.9195
0.471500 93.671 154.7811
0.474917 93.653 154.6396
0.478358 93.635 154.4951
0.481825 93.617 154.3475
0.485316 93.599 154.1969
0.488833 93.581 154.0433
0.492375 93.562 153.8866
0.495943 93.544 153.7268
0.499537 93.525 153.5639
0.503157 93.506 153.3980
0.506803 93.488 153.2289
0.510475 93.469 153.0568
0.514175 93.449 152.8815
0.517900 93.430 152.7032
0.521653 93.411 152.5217
0.525434 93.391 152.3372
0.529241 93.371 152.1496
0.533076 93.351 151.9590
0.536939 93.331 151.7652
0.540830 93.311 151.5684
0.544749 93.291 151.3686
0.548696 93.270 151.1658
0.552673 93.250 150.9600
0.556677 93.229 150.7512
0.560711 93.208 150.5395
0.564774 93.187 150.3249
0.568867 93.166 150.1074
0.572989 93.144 149.8871
0.577141 93.123 149.6640
0.581324 93.101 149.4382
0.585536 93.079 149.2097
0.589779 93.057 148.9786
0.594053 93.035 148.7449
0.598358 93.013 148.5087
0.602694 92.990 148.2700
0.607061 92.967 148.0290
0.611460 92.945 147.7858
0.615891 92.922 147.5403
0.620354 92.898 147.2927
0.624849 92.875 147.0432
0.629377 92.852 146.7917
0.633938 92.828 146.5385
0.638532 92.804 146.2836
0.643159 92.780 146.0271
0.647819 92.756 145.7692
0.652514 92.732 145.5101
0.657242 92.707 145.2499
0.662005 92.682 144.9887
0.666802 92.657 144.7267
0.671634 92.632 144.4640
0.676501 92.607 144.2010
0.681403 92.582 143.9377
0.686341 92.556 143.6743
0.691314 92.530 143.4111
0.696324 92.504 143.1482
0.701370 92.478 142.8859
0.706452 92.451 142.6243
0.711571 92.424 142.3634
0.716728 92.395 142.1032
0.721921 92.366 141.8436
0.727153 92.335 141.5839
0.732422 92.303 141.3236
0.737729 92.268 141.0615
0.743075 92.231 140.7966
0.748460 92.192 140.5281
0.753883 92.152 140.2552
0.759346 92.111 139.9774
0.764849 92.070 139.6943
0.770391 92.027 139.4058
0.775974 91.984 139.1116
0.781597 91.941 138.8117
0.787261 91.897 138.5059
0.792966 91.852 138.1942
0.798712 91.807 137.8765
0.804500 91.761 137.5528
0.810329 91.715 137.2230
0.816201 91.668 136.8870
0.822116 91.620 136.5448
0.828073 91.572 136.1965
0.834074 91.523 135.8418
0.840118 91.473 135.4809
0.846206 91.422 135.1137
0.852338 91.371 134.7401
0.858514 91.318 134.3602
0.864735 91.265 133.9740
0.871001 91.211 133.5815
0.877313 91.156 133.1827
0.883670 91.099 132.7777
0.890074 91.042 132.3664
0.896524 90.984 131.9490
0.903020 90.925 131.5255
0.909564 90.864 131.0960
0.916155 90.802 130.6607
0.922794 90.739 130.2196
0.929481 90.675 129.7729
0.936216 90.609 129.3207
0.943000 90.542 128.8633
0.949834 90.473 128.4009
0.956717 90.403 127.9336
0.963649 90.331 127.4618
0.970632 90.258 126.9857
0.977666 90.182 126.5057
0.984750 90.106 126.0221
0.991886 90.027 125.5353
0.999074 89.946 125.0457
1.006314 89.864 124.5539
1.013606 89.779 124.0603
1.020951 89.692 123.5655
1.028349 89.603 123.0700
1.035801 89.512 122.5746
1.043307 89.419 122.0799
1.050867 89.323 121.5867
1.058482 89.225 121.0956
1.066152 89.124 120.6074
1.073878 89.021 120.1227
1.081660 88.915 119.6422
1.089498 88.807 119.1659
1.097393 88.697 118.6940
1.105345 88.584 118.2259
1.113355 88.470 117.7611
1.121423 88.355 117.2989
1.129549 88.238 116.8384
1.137734 88.119 116.3791
1.145979 88.000 115.9205
1.154283 87.878 115.4621
1.162647 87.756 115.0034
1.171072 87.631 114.5440
1.179558 87.505 114.0835
1.188106 87.376 113.6214
1.196715 87.246 113.1572
1.205387 87.113 112.6905
1.214122 86.977 112.2208
1.222920 86.839 111.7475
1.231782 86.698 111.2701
1.240708 86.554 110.7880
1.249699 86.406 110.3005
1.258754 86.255 109.8072
1.267876 86.100 109.3071
1.277063 85.941 108.7997
1.286318 85.778 108.2841
1.295639 85.611 107.7595
1.305027 85.439 107.2252
1.314484 85.262 106.6801
1.324009 85.079 106.1234
1.333604 84.891 105.5541
1.343268 84.697 104.9711
1.353002 84.497 104.3734
1.362806 84.291 103.7598
1.372681 84.078 103.1292
1.382628 83.857 102.4804
1.392647 83.629 101.8124
1.402739 83.394 101.1239
1.412904 83.150 100.4139
1.423142 82.896 99.6816
1.433455 82.633 98.9261
1.443843 82.358 98.1471
1.454305 82.071 97.3445
1.464844 81.768 96.5183
1.475459 81.447 95.6687
1.486150 81.105 94.7955
1.496920 80.741 93.8974
1.507767 80.353 92.9724
1.518693 79.941 92.0177
1.529698 79.505 91.0291
1.540783 79.047 90.0018
1.551948 78.568 88.9299
1.563194 78.070 87.8064
1.574521 77.554 86.6228
1.585931 77.023 85.3689
1.597423 76.478 84.0327
1.608999 75.924 82.5995
1.620658 75.361 81.0514
1.632402 74.794 79.3664
1.644232 74.225 77.5173
1.656146 73.656 75.4704
1.668147 73.093 73.1831
1.680235 72.538 70.6021
1.692411 71.995 67.6596
1.704675 71.469 64.2702
1.717028 70.963 60.3267
1.729470 70.484 55.6981
1.742003 70.035 50.2310
1.754626 69.623 43.7632
1.767341 69.253 36.1586
1.780147 68.932 27.3731
1.793047 68.666 17.5448
1.806040 68.460 7.0525
1.819128 68.322 -3.5376
1.832310 68.254 -13.6498
1.845587 68.261 -22.8817
1.858961 68.343 -31.0632
1.872432 68.498 -38.2027
1.886001 68.725 -44.4018
1.899667 69.017 -49.7921
1.913433 69.371 -54.5027
1.927299 69.780 -58.6465
1.941265 70.238 -62.3174
1.955332 70.739 -65.5918
1.969501 71.276 -68.5311
1.983773 71.842 -71.1844
1.998148 72.432 -73.5915
2.012627 73.037 -75.7841
2.027212 73.651 -77.7879
2.041902 74.269 -79.6240
2.056698 74.882 -81.3095
2.071602 75.485 -82.8585
2.086614 76.072 -84.2827
2.101734 76.636 -85.5923
2.116964 77.172 -86.7962
2.132304 77.674 -87.9028
2.147756 78.139 -88.9208
2.163320 78.564 -89.8600
2.178996 78.948 -90.7321
2.194786 79.292 -91.5508
2.210690 79.599 -92.3313
2.226710 79.874 -93.0877
2.242845 80.120 -93.8311
2.259098 80.341 -94.5684
2.275468 80.539 -95.3031
2.291957 80.715 -96.0360
2.308566 80.873 -96.7662
2.325295 81.013 -97.4916
2.342145 81.137 -98.2091
2.359117 81.247 -98.9155
2.376212 81.343 -99.6070
2.393431 81.427 -100.2796
2.410775 81.501 -100.9291
2.428244 81.566 -101.5511
2.445840 81.624 -102.1411
2.463564 81.676 -102.6948
2.481416 81.723 -103.2079
2.499397 81.767 -103.6770
2.517509 81.806 -104.0996
2.535752 81.841 -104.4747
2.554127 81.870 -104.8038
2.572635 81.891 -105.0903
2.591277 81.904 -105.3393
2.610055 81.910 -105.5556
2.628968 81.910 -105.7429
2.648019 81.906 -105.9034
2.667208 81.898 -106.0379
2.686535 81.888 -106.1460
2.706003 81.877 -106.2265
2.725612 81.864 -106.2778
2.745363 81.851 -106.2975
2.765257 81.838 -106.2832
2.785295 81.825 -106.2320
2.805478 81.812 -106.1408
2.825808 81.801 -106.0064
2.846285 81.791 -105.8254
2.866910 81.782 -105.5943
2.887685 81.776 -105.3096
2.908611 81.771 -104.9677
2.929688 81.769 -104.5653
2.950917 81.769 -104.0996
2.972301 81.772 -103.5688
2.993839 81.776 -102.9725
3.015534 81.782 -102.3117
3.037386 81.789 -101.5892
3.059396 81.797 -100.8088
3.081565 81.806 -99.9755
3.103896 81.816 -99.0953
3.126388 81.827 -98.1752
3.149043 81.838 -97.2227
3.171862 81.850 -96.2459
3.194847 81.864 -95.2531
3.217998 81.881 -94.2519
3.241317 81.903 -93.2487
3.264805 81.935 -92.2478
3.288463 81.980 -91.2508
3.312293 82.041 -90.2570
3.336295 82.120 -89.2652
3.360471 82.216 -88.2759
3.384822 82.329 -87.2925
3.409350 82.455 -86.3213
3.434056 82.592 -85.3702
3.458940 82.738 -84.4484
3.484005 82.892 -83.5652
3.509252 83.051 -82.7295
3.534681 83.214 -81.9497
3.560295 83.379 -81.2328
3.586094 83.545 -80.5844
3.612081 83.711 -80.0081
3.638255 83.878 -79.5053
3.664620 84.044 -79.0748
3.691175 84.211 -78.7134
3.717923 84.379 -78.4165
3.744864 84.548 -78.1796
3.772001 84.719 -77.9981
3.799335 84.891 -77.8681
3.826866 85.063 -77.7862
3.854597 85.233 -77.7492
3.882529 85.402 -77.7545
3.910664 85.566 -77.7999
3.939002 85.727 -77.8840
3.967546 85.882 -78.0059
3.996296 86.030 -78.1654
4.025255 86.173 -78.3632
4.054423 86.309 -78.5998
4.083804 86.438 -78.8752
4.113396 86.562 -79.1876
4.143204 86.679 -79.5339
4.173227 86.791 -79.9097
4.203468 86.898 -80.3098
4.233928 86.998 -80.7289
4.264609 87.093 -81.1619
4.295512 87.182 -81.6046
4.326639 87.265 -82.0540
4.357992 87.342 -82.5087
4.389572 87.413 -82.9693
4.421380 87.477 -83.4377
4.453419 87.534 -83.9159
4.485691 87.584 -84.4047
4.518196 87.629 -84.9027
4.550936 87.666 -85.4069
4.583914 87.698 -85.9127
4.617131 87.725 -86.4148
4.650589 87.746 -86.9079
4.684289 87.763 -87.3870
4.718233 87.775 -87.8485
4.752424 87.782 -88.2903
4.786862 87.784 -88.7125
4.821549 87.782 -89.1160
4.856488 87.774 -89.5021
4.891680 87.762 -89.8710
4.927127 87.746 -90.2224
4.962831 87.727 -90.5548
4.998794 87.706 -90.8661
5.035017 87.683 -91.1537
5.071503 87.659 -91.4147
5.108253 87.634 -91.6466
5.145270 87.609 -91.8476
5.182555 87.584 -92.0170
5.220110 87.559 -92.1555
5.257937 87.534 -92.2652
5.296038 87.509 -92.3494
5.334415 87.486 -92.4117
5.373071 87.465 -92.4560
5.412006 87.448 -92.4855
5.451224 87.435 -92.5024
5.490725 87.426 -92.5081
5.530514 87.422 -92.5027
5.570590 87.423 -92.4873
5.610957 87.429 -92.4642
5.651616 87.439 -92.4380
5.692570 87.454 -92.4149
5.733821 87.473 -92.4016
5.775370 87.497 -92.4049
5.817221 87.525 -92.4301
5.859375 87.557 -92.4809
5.901834 87.594 -92.5588
5.944602 87.636 -92.6646
5.987679 87.681 -92.7992
6.031068 87.730 -92.9642
6.074771 87.781 -93.1618
6.118792 87.834 -93.3950
6.163131 87.887 -93.6664
6.207792 87.941 -93.9782
6.252776 87.995 -94.3316
6.298086 88.048 -94.7263
6.343725 88.101 -95.1607
6.389694 88.153 -95.6319
6.435996 88.203 -96.1367
6.482634 88.252 -96.6722
6.529610 88.298 -97.2359
6.576926 88.341 -97.8264
6.624585 88.380 -98.4430
6.672590 88.416 -99.0848
6.720942 88.448 -99.7492
6.769645 88.477 -100.4326
6.818700 88.503 -101.1299
6.868111 88.525 -101.8360
6.917881 88.544 -102.5469
6.968010 88.560 -103.2597
7.018504 88.572 -103.9729
7.069362 88.581 -104.6850
7.120590 88.587 -105.3939
7.172189 88.591 -106.0965
7.224161 88.593 -106.7889
7.276511 88.594 -107.4675
7.329239 88.594 -108.1294
7.382350 88.594 -108.7730
7.435845 88.594 -109.3980
7.489729 88.594 -110.0044
7.544002 88.595 -110.5924
7.598669 88.598 -111.1622
7.653732 88.603 -111.7136
7.709194 88.612 -112.2465
7.765058 88.623 -112.7613
7.821327 88.639 -113.2596
7.878004 88.658 -113.7440
7.935091 88.681 -114.2177
7.992592 88.708 -114.6841
8.050510 88.740 -115.1459
8.108847 88.777 -115.6050
8.167607 88.819 -116.0632
8.226793 88.864 -116.5227
8.286408 88.914 -116.9861
8.346454 88.967 -117.4565
8.406936 89.024 -117.9361
8.467856 89.083 -118.4264
8.529218 89.145 -118.9280
8.591024 89.209 -119.4406
8.653278 89.274 -119.9639
8.715983 89.341 -120.4976
8.779143 89.407 -121.0410
8.842760 89.474 -121.5936
8.906839 89.540 -122.1537
8.971381 89.605 -122.7192
9.036392 89.669 -123.2873
9.101873 89.732 -123.8553
9.167829 89.793 -124.4208
9.234263 89.852 -124.9818
9.301178 89.910 -125.5362
9.368578 89.966 -126.0816
9.436467 90.021 -126.6153
9.504847 90.073 -127.1351
9.573723 90.125 -127.6392
9.643099 90.175 -128.1266
9.712976 90.224 -128.5965
9.783361 90.273 -129.0484
9.854255 90.321 -129.4818
9.925663 90.369 -129.8968
9.997588 90.417 -130.2936
10.070035 90.465 -130.6734
10.143007 90.513 -131.0374
10.216507 90.562 -131.3872
10.290540 90.610 -131.7242
10.365109 90.660 -132.0497
10.440219 90.709 -132.3654
10.515873 90.759 -132.6729
10.592076 90.809 -132.9740
10.668830 90.859 -133.2698
10.746141 90.908 -133.5616
10.824012 90.957 -133.8499
10.902447 91.004 -134.1354
10.981451 91.051 -134.4186
11.061027 91.097 -134.6996
11.141180 91.141 -134.9785
11.221913 91.183 -135.2549
11.303232 91.224 -135.5285
11.385140 91.263 -135.7990
11.467641 91.301 -136.0660
11.550741 91.336 -136.3293
11.634442 91.370 -136.5889
11.718750 91.402 -136.8446
11.803669 91.432 -137.0965
11.889203 91.461 -137.3451
11.975357 91.489 -137.5909
12.062136 91.515 -137.8346
12.149543 91.539 -138.0771
12.237583 91.563 -138.3193
12.326262 91.585 -138.5620
12.415583 91.606 -138.8064
12.505552 91.625 -139.0532
12.596172 91.643 -139.3032
12.687449 91.659 -139.5570
12.779387 91.674 -139.8149
12.871992 91.687 -140.0773
12.965268 91.699 -140.3443
13.059220 91.708 -140.6156
13.153852 91.716 -140.8910
13.249170 91.723 -141.1704
13.345179 91.728 -141.4535
13.441884 91.732 -141.7401
13.539289 91.734 -142.0302
13.637401 91.736 -142.3240
13.736223 91.737 -142.6217
13.835761 91.737 -142.9241
13.936021 91.737 -143.2319
14.037007 91.737 -143.5462
14.138725 91.737 -143.8679
14.241180 91.737 -144.1984
14.344377 91.737 -144.5387
14.448323 91.737 -144.8898
14.553021 91.737 -145.2524
14.658478 91.738 -145.6269
14.764700 91.739 -146.0134
14.871691 91.739 -146.4114
14.979457 91.739 -146.8203
15.088005 91.739 -147.2387
15.197339 91.739 -147.6654
15.307465 91.738 -148.0988
15.418389 91.738 -148.5370
15.530117 91.738 -148.9784
15.642655 91.738 -149.4215
15.756008 91.738 -149.8650
15.870182 91.740 -150.3079
15.985184 91.742 -150.7496
16.101019 91.746 -151.1898
16.217694 91.752 -151.6287
16.335214 91.759 -152.0665
16.453586 91.769 -152.5036
16.572815 91.780 -152.9404
16.692909 91.792 -153.3774
16.813872 91.807 -153.8144
16.935713 91.822 -154.2514
17.058436 91.839 -154.6878
17.182048 91.856 -155.1225
17.306556 91.874 -155.5544
17.431967 91.893 -155.9820
17.558286 91.912 -156.4037
17.685521 91.930 -156.8181
17.813677 91.949 -157.2236
17.942762 91.968 -157.6191
18.072783 91.987 -158.0037
18.203746 92.007 -158.3771
18.335658 92.026 -158.7390
18.468526 92.045 -159.0896
18.602356 92.065 -159.4295
18.737156 92.084 -159.7592
18.872934 92.103 -160.0793
19.009695 92.121 -160.3906
19.147447 92.139 -160.6936
19.286197 92.156 -160.9888
19.425953 92.172 -161.2767
19.566721 92.187 -161.5576
19.708510 92.201 -161.8318
19.851326 92.213 -162.0998
19.995177 92.224 -162.3620
20.140070 92.234 -162.6192
20.286013 92.242 -162.8721
20.433014 92.249 -163.1215
20.581080 92.254 -163.3684
20.730219 92.257 -163.6139
20.880439 92.259 -163.8587
21.031747 92.260 -164.1038
21.184152 92.258 -164.3499
21.337661 92.256 -164.5979
21.492282 92.252 -164.8484
21.648024 92.246 -165.1021
21.804895 92.239 -165.3599
21.962902 92.232 -165.6226
22.122054 92.223 -165.8911
22.282360 92.214 -166.1664
22.443827 92.203 -166.4493
22.606464 92.192 -166.7405
22.770280 92.181 -167.0402
22.935283 92.169 -167.3486
23.101481 92.157 -167.6654
23.268884 92.144 -167.9900
23.437500 92.132 -168.3216
23.607338 92.119 -168.6594
23.778406 92.107 -169.0025
23.950714 92.095 -169.3502
24.124271 92.084 -169.7020
24.299086 92.074 -170.0575
24.475167 92.064 -170.4164
24.652524 92.057 -170.7785
24.831166 92.050 -171.1431
25.011103 92.044 -171.5096
25.192344 92.040 -171.8770
25.374898 92.036 -172.2439
25.558775 92.034 -172.6089
25.743984 92.032 -172.9705
25.930536 92.030 -173.3272
26.118439 92.030 -173.6779
26.307704 92.030 -174.0216
26.498341 92.031 -174.3577
26.690359 92.032 -174.6859
26.883768 92.033 -175.0058
27.078579 92.035 -175.3173
27.274801 92.036 -175.6201
27.472446 92.037 -175.9142
27.671522 92.038 -176.1996
27.872042 92.038 -176.4765
28.074014 92.037 -176.7455
28.277450 92.036 -177.0072
28.482360 92.033 -177.2626
28.688755 92.030 -177.5128
28.896645 92.025 -177.7589
29.106042 92.019 -178.0016
29.316957 92.012 -178.2417
29.529400 92.004 -178.4798
29.743382 91.994 -178.7165
29.958915 91.982 -178.9527
30.176009 91.970 -179.1893
30.394677 91.957 -179.4278
30.614929 91.943 -179.6698
30.836778 91.929 -179.9168
31.060234 91.914 179.8298
31.285309 91.899 179.5692
31.512015 91.883 179.3012
31.740364 91.866 179.0261
31.970368 91.849 178.7446
32.202039 91.832 178.4577
32.435388 91.815 178.1661
32.670428 91.798 177.8705
32.907171 91.782 177.5715
33.145630 91.766 177.2694
33.385817 91.751 176.9647
33.627745 91.736 176.6581
33.871425 91.722 176.3504
34.116871 91.708 176.0429
34.364096 91.695 175.7371
34.613113 91.681 175.4343
34.863934 91.669 175.1360
35.116572 91.656 174.8432
35.371041 91.643 174.5567
35.627354 91.631 174.2770
35.885525 91.618 174.0039
36.145566 91.606 173.7373
36.407492 91.593 173.4765
36.671316 91.580 173.2209
36.937051 91.567 172.9699
37.204712 91.553 172.7229
37.474313 91.538 172.4793
37.745867 91.523 172.2387
38.019389 91.506 172.0004
38.294893 91.489 171.7635
38.572394 91.471 171.5273
38.851905 91.452 171.2907
39.133442 91.432 171.0533
39.417019 91.412 170.8147
39.702651 91.391 170.5752
39.990353 91.370 170.3350
40.280140 91.348 170.0945
40.572026 91.326 169.8538
40.866028 91.304 169.6125
41.162160 91.282 169.3701
41.460438 91.260 169.1261
41.760877 91.239 168.8806
42.063494 91.218 168.6338
42.368303 91.197 168.3868
42.675322 91.175 168.1409
42.984565 91.154 167.8973
43.296048 91.133 167.6570
43.609789 91.111 167.4204
43.925804 91.090 167.1870
44.244108 91.069 166.9561
44.564719 91.048 166.7267
44.887654 91.027 166.4980
45.212928 91.006 166.2701
45.540560 90.984 166.0432
45.870565 90.961 165.8182
46.202962 90.937 165.5958
46.537768 90.914 165.3767
46.875000 90.890 165.1605
47.214676 90.865 164.9465
47.556813 90.842 164.7333
47.901429 90.818 164.5199
48.248542 90.794 164.3055
48.598171 90.770 164.0900
48.950334 90.746 163.8742
49.305048 90.722 163.6590
49.662333 90.697 163.4454
50.022206 90.673 163.2343
50.384688 90.648 163.0261
50.749796 90.623 162.8210
51.117550 90.598 162.6191
51.487969 90.573 162.4203
51.861072 90.548 162.2245
52.236879 90.522 162.0314
52.615409 90.497 161.8408
52.996681 90.471 161.6523
53.380717 90.444 161.4656
53.767536 90.418 161.2806
54.157158 90.391 161.0970
54.549603 90.365 160.9141
54.944892 90.339 160.7311
55.343045 90.313 160.5470
55.744084 90.287 160.3606
56.148028 90.263 160.1710
56.554900 90.238 159.9775
56.964720 90.214 159.7796
57.377510 90.189 159.5782
57.793291 90.165 159.3749
58.212085 90.139 159.1722
58.633914 90.114 158.9720
59.058799 90.087 158.7755
59.486764 90.061 158.5823
59.917829 90.034 158.3916
60.352019 90.006 158.2027
60.789354 89.977 158.0157
61.229859 89.947 157.8314
61.673556 89.917 157.6504
62.120468 89.885 157.4725
62.570618 89.854 157.2969
63.024031 89.822 157.1226
63.480729 89.789 156.9487
63.940736 89.757 156.7748
64.404077 89.725 156.6012
64.870776 89.692 156.4284
65.340856 89.660 156.2570
65.814343 89.628 156.0874
66.291261 89.597 155.9198
66.771635 89.566 155.7547
67.255489 89.534 155.5928
67.742850 89.503 155.4353
68.233743 89.472 155.2830
68.728193 89.441 155.1357
69.226226 89.410 154.9920
69.727867 89.379 154.8504
70.233144 89.348 154.7094
70.742083 89.317 154.5686
71.254709 89.286 154.4279
71.771050 89.254 154.2875
72.291132 89.223 154.1475
72.814984 89.191 154.0079
73.342631 89.159 153.8689
73.874102 89.128 153.7306
74.409424 89.096 153.5925
74.948626 89.065 153.4547
75.491734 89.034 153.3170
76.038779 89.003 153.1799
76.589787 88.972 153.0438
77.144788 88.941 152.9079
77.703811 88.911 152.7711
78.266885 88.880 152.6318
78.834039 88.850 152.4893
79.405303 88.820 152.3431
79.980706 88.789 152.1924
80.560280 88.758 152.0368
81.144053 88.727 151.8760
81.732056 88.694 151.7106
82.324320 88.661 151.5422
82.920876 88.626 151.3726
83.521755 88.589 151.2042
84.126988 88.550 151.0399
84.736607 88.510 150.8821
85.350643 88.469 150.7326
85.969129 88.426 150.5920
86.592097 88.383 150.4601
87.219579 88.341 150.3362
87.851608 88.298 150.2197
88.488217 88.256 150.1104
89.129439 88.214 150.0078
89.775308 88.173 149.9113
90.425856 88.134 149.8192
91.081119 88.095 149.7291
91.741131 88.056 149.6390
92.405925 88.017 149.5479
93.075536 87.978 149.4570
93.750000 87.939 149.3682
94.429351 87.899 149.2834
95.113625 87.859 149.2029
95.802858 87.820 149.1254
96.497085 87.781 149.0481
97.196342 87.743 148.9691
97.900667 87.705 148.8885
98.610096 87.667 148.8084
99.324665 87.629 148.7316
100.044413 87.591 148.6602
100.769376 87.552 148.5952
101.499592 87.513 148.5362
102.235100 87.475 148.4818
102.975938 87.437 148.4305
103.722144 87.399 148.3809
104.473757 87.362 148.3314
105.230817 87.326 148.2802
105.993363 87.290 148.2256
106.761435 87.254 148.1668
107.535072 87.219 148.1032
108.314315 87.184 148.0350
109.099206 87.148 147.9622
109.889783 87.112 147.8852
110.686090 87.076 147.8041
111.488167 87.038 147.7191
112.296056 87.000 147.6312
113.109800 86.959 147.5425
113.929440 86.917 147.4567
114.755020 86.873 147.3789
115.586582 86.827 147.3146
116.424170 86.780 147.2675
117.267827 86.734 147.2385
118.117598 86.688 147.2250
118.973527 86.643 147.2230
119.835658 86.600 147.2280
120.704037 86.558 147.2367
121.578708 86.518 147.2460
122.459718 86.480 147.2536
123.347111 86.442 147.2578
124.240935 86.405 147.2576
125.141236 86.369 147.2530
126.048061 86.333 147.2442
126.961458 86.297 147.2317
127.881473 86.262 147.2162
128.808154 86.226 147.1985
129.741551 86.190 147.1789
130.681712 86.155 147.1573
131.628686 86.119 147.1336
132.582521 86.082 147.1084
133.543269 86.045 147.0828
134.510979 86.007 147.0578
135.485701 85.969 147.0338
136.467486 85.930 147.0117
137.456386 85.890 146.9926
138.452451 85.850 146.9775
139.455735 85.810 146.9666
140.466288 85.770 146.9596
141.484165 85.730 146.9558
142.509418 85.691 146.9545
143.542100 85.651 146.9550
144.582265 85.612 146.9565
145.629968 85.572 146.9583
146.685262 85.533 146.9600
147.748204 85.492 146.9625
148.818849 85.451 146.9675
149.897251 85.409 146.9773
150.983469 85.367 146.9942
152.077557 85.325 147.0202
153.179574 85.283 147.0568
154.289576 85.241 147.1038
155.407622 85.202 147.1585
156.533770 85.164 147.2157
157.668078 85.128 147.2695
158.810606 85.093 147.3155
159.961413 85.060 147.3519
161.120559 85.026 147.3796
162.288105 84.992 147.4008
163.464112 84.957 147.4183
164.648640 84.921 147.4351
165.841752 84.883 147.4538
167.043510 84.845 147.4771
168.253976 84.805 147.5074
169.473213 84.765 147.5465
170.701286 84.724 147.5952
171.938258 84.685 147.6520
173.184194 84.646 147.7140
174.439158 84.609 147.7776
175.703216 84.573 147.8395
176.976434 84.537 147.8974
178.258878 84.503 147.9510
179.550615 84.468 148.0008
180.851713 84.434 148.0480
182.162239 84.400 148.0936
183.482262 84.365 148.1381
184.811850 84.329 148.1817
186.151073 84.293 148.2248
187.500000 84.256 148.2685
188.858702 84.220 148.3138
190.227250 84.184 148.3605
191.605715 84.147 148.4077
192.994169 84.111 148.4556
194.392685 84.074 148.5059
195.801334 84.037 148.5602
197.220191 84.000 148.6202
198.649330 83.962 148.6877
200.088825 83.925 148.7632
201.538751 83.888 148.8460
202.999184 83.852 148.9333
204.470200 83.817 149.0204
205.951875 83.783 149.1026
207.444287 83.750 149.1769
208.947514 83.717 149.2430
210.461634 83.683 149.3031
211.986726 83.648 149.3614
213.522869 83.612 149.4236
215.070144 83.575 149.4955
216.628631 83.536 149.5812
218.198411 83.498 149.6812
219.779567 83.461 149.7924
221.372180 83.426 149.9093
222.976334 83.392 150.0258
224.592112 83.359 150.1373
226.219600 83.327 150.2423
227.858880 83.296 150.3421
229.510039 83.265 150.4393
231.173164 83.234 150.5357
232.848340 83.203 150.6316
234.535655 83.172 150.7261
236.235197 83.141 150.8179
237.947054 83.109 150.9063
239.671317 83.077 150.9912
241.408074 83.043 151.0744
243.157416 83.009 151.1588
244.919435 82.974 151.2475
246.694223 82.938 151.3436
248.481871 82.901 151.4501
250.282473 82.864 151.5703
252.096123 82.828 151.7065
253.922915 82.793 151.8580
255.762945 82.762 152.0189
257.616309 82.733 152.1791
259.483103 82.706 152.3270
261.363424 82.681 152.4558
263.257372 82.656 152.5664
265.165043 82.629 152.6660
267.086538 82.600 152.7638
269.021957 82.570 152.8678
270.971401 82.540 152.9823
272.934972 82.509 153.1081
274.912771 82.479 153.2434
276.904902 82.450 153.3860
278.911469 82.422 153.5333
280.932577 82.396 153.6829
282.968330 82.372 153.8310
285.018835 82.351 153.9718
287.084199 82.332 154.0978
289.164530 82.314 154.2023
291.259935 82.295 154.2835
293.370525 82.274 154.3473
295.496408 82.250 154.4043
297.637697 82.223 154.4652
299.794503 82.194 154.5371
301.966937 82.163 154.6225
304.155114 82.132 154.7201
306.359147 82.100 154.8261
308.579152 82.070 154.9365
310.815244 82.039 155.0479
313.067539 82.009 155.1589
315.336156 81.978 155.2704
317.621211 81.945 155.3854
319.922826 81.913 155.5078
322.241118 81.880 155.6395
324.576210 81.847 155.7805
326.928223 81.816 155.9287
329.297280 81.786 156.0811
331.683504 81.758 156.2340
334.087019 81.731 156.3844
336.507952 81.704 156.5305
338.946427 81.678 156.6719
341.402572 81.652 156.8105
343.876516 81.625 156.9493
346.368387 81.598 157.0916
348.878315 81.571 157.2397
351.406431 81.545 157.3946
353.952867 81.518 157.5564
356.517756 81.493 157.7248
359.101230 81.468 157.8988
361.703426 81.444 158.0765
364.324478 81.421 158.2554
366.964523 81.399 158.4324
369.623699 81.378 158.6053
372.302145 81.357 158.7726
375.000000 81.337 158.9336
377.717405 81.318 159.0889
380.454501 81.298 159.2401
383.211431 81.278 159.3893
385.988339 81.257 159.5394
388.785369 81.236 159.6915
391.602668 81.214 159.8444
394.440383 81.192 159.9966
397.298660 81.171 160.1473
400.177650 81.149 160.2965
403.077502 81.128 160.4442
405.998368 81.107 160.5900
408.940400 81.085 160.7341
411.903750 81.063 160.8782
414.888575 81.040 161.0257
417.895028 81.016 161.1805
420.923268 80.993 161.3454
423.973452 80.970 161.5210
427.045738 80.949 161.7058
430.140287 80.929 161.8965
433.257261 80.910 162.0880
436.396822 80.893 162.2759
439.559133 80.878 162.4579
442.744360 80.864 162.6326
445.952668 80.852 162.7978
449.184225 80.841 162.9501
452.439199 80.830 163.0853
455.717760 80.819 163.2013
459.020079 80.806 163.3026
462.346327 80.790 163.3992
465.696680 80.770 163.5028
469.071310 80.749 163.6204
472.470394 80.726 163.7531
475.894109 80.704 163.8970
479.342634 80.681 164.0451
482.816148 80.658 164.1913
486.314833 80.635 164.3341
489.838871 80.611 164.4785
493.388445 80.586 164.6327
496.963741 80.561 164.8015
500.564945 80.537 164.9828
504.192245 80.515 165.1698
507.845830 80.494 165.3559
511.525890 80.474 165.5380
515.232618 80.453 165.7166
518.966206 80.433 165.8947
522.726849 80.411 166.0767
526.514743 80.388 166.2662
530.330086 80.366 166.4642
534.173076 80.345 166.6672
538.043915 80.324 166.8708
541.942803 80.305 167.0734
545.869944 80.287 167.2770
549.825542 80.270 167.4835
553.809805 80.253 167.6917
557.822939 80.237 167.8987
561.865154 80.221 168.1026
565.936660 80.205 168.3035
570.037671 80.188 168.5039
574.168399 80.171 168.7074
578.329060 80.153 168.9156
582.519870 80.136 169.1283
586.741049 80.118 169.3454
590.992817 80.101 169.5694
595.275394 80.083 169.8030
599.589005 80.066 170.0457
603.933874 80.050 170.2931
608.310228 80.035 170.5410
612.718295 80.020 170.7875
617.158304 80.005 171.0346
621.630488 79.989 171.2881
626.135079 79.974 171.5540
630.672311 79.960 171.8346
635.242423 79.948 172.1257
639.845651 79.938 172.4213
644.482237 79.930 172.7184
649.152421 79.925 173.0165
653.856447 79.922 173.3134
658.594560 79.921 173.6025
663.367008 79.924 173.8746
668.174039 79.927 174.1232
673.015903 79.929 174.3496
677.892854 79.930 174.5620
682.805145 79.928 174.7692
687.753032 79.924 174.9780
692.736774 79.919 175.1934
697.756631 79.912 175.4193
702.812863 79.905 175.6572
707.905735 79.899 175.9049
713.035511 79.893 176.1586
718.202461 79.888 176.4157
723.406852 79.884 176.6763
728.648956 79.880 176.9417
733.929047 79.877 177.2132
739.247399 79.875 177.4914
744.604290 79.873 177.7762
750.000000 79.871 178.0671
755.434809 79.870 178.3638
760.909001 79.871 178.6656
766.422861 79.872 178.9723
771.976677 79.875 179.2836
777.570739 79.880 179.5990
783.205337 79.885 179.9185
788.880766 79.892 -179.7568
794.597321 79.899 -179.4248
800.355301 79.909 -179.0841
806.155005 79.922 -178.7365
811.996736 79.938 -178.3875
817.880799 79.958 -178.0451
823.807501 79.981 -177.7182
829.777150 80.006 -177.4148
835.790057 80.031 -177.1374
841.846536 80.054 -176.8793
847.946903 80.076 -176.6301
854.091476 80.096 -176.3813
860.280575 80.115 -176.1284
866.514523 80.133 -175.8682
872.793644 80.151 -175.5976
879.118267 80.171 -175.3172
885.488720 80.192 -175.0308
891.905336 80.214 -174.7417
898.368450 80.237 -174.4492
904.878398 80.261 -174.1510
911.435520 80.287 -173.8462
918.040157 80.316 -173.5375
924.692655 80.346 -173.2287
931.393359 80.380 -172.9236
938.142619 80.415 -172.6265
944.940787 80.451 -172.3392
951.788218 80.489 -172.0608
958.685268 80.527 -171.7890
965.632296 80.566 -171.5209
972.629666 80.605 -171.2535
979.677741 80.646 -170.9852
986.776890 80.687 -170.7164
993.927482 80.730 -170.4478
1001.129891 80.774 -170.1777
1008.384491 80.819 -169.9042
1015.691660 80.868 -169.6267
1023.051781 80.920 -169.3477
1030.465236 80.978 -169.0732
1037.932411 81.040 -168.8140
1045.453698 81.106 -168.5824
1053.029486 81.174 -168.3844
1060.660172 81.243 -168.2173
1068.346153 81.310 -168.0734
1076.087829 81.378 -167.9448
1083.885605 81.445 -167.8266
1091.739887 81.512 -167.7186
1099.651084 81.579 -167.6226
1107.619609 81.646 -167.5401
1115.645878 81.714 -167.4715
1123.730308 81.782 -167.4171
1131.873321 81.851 -167.3765
1140.075341 81.919 -167.3493
1148.336797 81.987 -167.3347
1156.658119 82.056 -167.3317
1165.039741 82.125 -167.3387
1173.482099 82.194 -167.3537
1181.985634 82.263 -167.3769
1190.550789 82.335 -167.4139
1199.178011 82.408 -167.4754
1207.867749 82.481 -167.5718
1216.620457 82.554 -167.7075
1225.436590 82.623 -167.8775
1234.316609 82.687 -168.0720
1243.260976 82.747 -168.2808
1252.270157 82.803 -168.4943
1261.344623 82.855 -168.7065
1270.484846 82.903 -168.9142
1279.691303 82.949 -169.1140
1288.964474 82.993 -169.3032
1298.304842 83.035 -169.4810
1307.712894 83.077 -169.6495
1317.189120 83.117 -169.8121
1326.734016 83.158 -169.9714
1336.348077 83.197 -170.1268
1346.031806 83.235 -170.2760
1355.785708 83.271 -170.4156
1365.610290 83.307 -170.5426
1375.506065 83.342 -170.6532
1385.473549 83.378 -170.7434
1395.513261 83.416 -170.8129
1405.625726 83.457 -170.8677
1415.811469 83.503 -170.9203
1426.071023 83.553 -170.9853
1436.404921 83.606 -171.0720
1446.813703 83.659 -171.1811
1457.297912 83.713 -171.3076
1467.858093 83.765 -171.4460
1478.494798 83.817 -171.5922
1489.208581 83.868 -171.7429
1500.000000 83.919 -171.8948
1510.869618 83.969 -172.0449
1521.818002 84.019 -172.1907
1532.845723 84.070 -172.3300
1543.953355 84.122 -172.4614
1555.141477 84.176 -172.5848
1566.410674 84.233 -172.7043
1577.761531 84.294 -172.8310
1589.194642 84.359 -172.9790
1600.710601 84.427 -173.1581
1612.310010 84.494 -173.3694
1623.993473 84.561 -173.6082
1635.761599 84.626 -173.8672
1647.615002 84.689 -174.1400
1659.554299 84.752 -174.4218
1671.580114 84.813 -174.7093
1683.693072 84.874 -175.0022
1695.893807 84.935 -175.3021
1708.182952 84.995 -175.6113
1720.561150 85.055 -175.9295
1733.029045 85.113 -176.2543
1745.587288 85.171 -176.5808
1758.236533 85.228 -176.9026
1770.977440 85.285 -177.2144
1783.810673 85.345 -177.5170
1796.736900 85.408 -177.8201
1809.756796 85.476 -178.1384
1822.871040 85.546 -178.4835
1836.080315 85.618 -178.8596
1849.385310 85.690 -179.2654
1862.786718 85.761 -179.6978
1876.285239 85.830 179.8475
1889.881575 85.899 179.3759
1903.576436 85.966 178.8922
1917.370535 86.032 178.4011
1931.264593 86.099 177.9047
1945.259332 86.168 177.4008
1959.355483 86.240 176.8796
1973.553781 86.314 176.3270
1987.854965 86.391 175.7324
2002.259781 86.467 175.0923
2016.768981 86.542 174.4087
2031.383320 86.614 173.6852
2046.103561 86.683 172.9258
2060.930471 86.749 172.1337
2075.864823 86.812 171.3095
2090.907395 86.871 170.4528
2106.058972 86.925 169.5644
2121.320344 86.975 168.6478
2136.692305 87.019 167.7093
2152.175658 87.059 166.7551
2167.771210 87.096 165.7865
2183.479774 87.130 164.7967
2199.302169 87.161 163.7744
2215.239219 87.187 162.7118
2231.291755 87.208 161.6071
2247.460615 87.221 160.4635
2263.746641 87.224 159.2882
2280.150683 87.216 158.0916
2296.673595 87.198 156.8854
2313.316238 87.169 155.6809
2330.079481 87.130 154.4851
2346.964198 87.083 153.2976
2363.971268 87.028 152.1139
2381.101578 86.964 150.9309
2398.356022 86.889 149.7513
2415.735498 86.803 148.5820
2433.240913 86.705 147.4327
2450.873180 86.595 146.3128
2468.633217 86.473 145.2304
2486.521951 86.340 144.1937
2504.540314 86.195 143.2134
2522.689246 86.039 142.3033
2540.969692 85.874 141.4766
2559.382606 85.701 140.7404
2577.928947 85.524 140.0920
2596.609683 85.344 139.5244
2615.425787 85.162 139.0307
2634.378241 84.977 138.6071
2653.468031 84.791 138.2547
2672.696154 84.602 137.9786
2692.063613 84.411 137.7865
2711.571415 84.222 137.6827
2731.220579 84.036 137.6630
2751.012130 83.854 137.7155
2770.947098 83.678 137.8264
2791.026522 83.508 137.9852
2811.251451 83.342 138.1851
2831.622938 83.181 138.4220
2852.142045 83.024 138.6929
2872.809842 82.870 138.9969
2893.627406 82.718 139.3375
2914.595823 82.569 139.7231
2935.716186 82.423 140.1612
2956.989596 82.282 140.6524
2978.417161 82.147 141.1904
3000.000000 82.019 141.7666
3021.739237 81.897 142.3745
3043.636005 81.781 143.0121
3065.691446 81.670 143.6826
3087.906710 81.565 144.3921
3110.282955 81.467 145.1432
3132.821347 81.377 145.9307
3155.523062 81.297 146.7440
3178.389283 81.226 147.5711
3201.421202 81.165 148.4026
3224.620020 81.112 149.2313
3247.986946 81.066 150.0522
3271.523198 81.027 150.8653
3295.230004 80.991 151.6774
3319.108599 80.961 152.4984
3343.160228 80.936 153.3335
3367.386145 80.917 154.1807
3391.787613 80.906 155.0347
3416.365904 80.901 155.8914
3441.122300 80.903 156.7517
3466.058091 80.911 157.6218
3491.174576 80.927 158.5078
3516.473066 80.951 159.4085
3541.954880 80.986 160.3143
3567.621345 81.033 161.2115
3593.473800 81.090 162.0862
3619.513592 81.159 162.9260
3645.742080 81.236 163.7212
3672.160630 81.322 164.4691
3698.770620 81.414 165.1743
3725.573436 81.513 165.8407
3752.570477 81.619 166.4661
3779.763150 81.733 167.0426
3807.152872 81.853 167.5626
3834.741071 81.979 168.0233
3862.529185 82.111 168.4271
3890.518664 82.248 168.7753
3918.710966 82.392 169.0613
3947.107561 82.543 169.2712
3975.709929 82.700 169.3875
4004.519563 82.862 169.3919
4033.537962 83.025 169.2698
4062.766641 83.186 169.0151
4092.207123 83.341 168.6317
4121.860942 83.487 168.1262
4151.729646 83.622 167.5048
4181.814790 83.744 166.7737
4212.117944 83.848 165.9452
4242.640687 83.931 165.0407
4273.384610 83.993 164.0873
4304.351317 84.034 163.1104
4335.542421 84.052 162.1308
4366.959549 84.051 161.1648
4398.604338 84.029 160.2255
4430.478438 83.989 159.3260
4462.583511 83.929 158.4842
4494.921231 83.851 157.7220
4527.493283 83.756 157.0599
4560.301365 83.649 156.5130
4593.347189 83.530 156.0930
4626.632476 83.403 155.8124
4660.158962 83.272 155.6846
4693.928395 83.141 155.7168
4727.942535 83.015 155.9047
4762.203156 82.900 156.2304
4796.712043 82.799 156.6645
4831.470996 82.714 157.1737
4866.481826 82.645 157.7298
4901.746360 82.591 158.3116
4937.266434 82.552 158.9011
4973.043902 82.525 159.4825
5009.080628 82.509 160.0461
5045.378492 82.502 160.5906
5081.939384 82.503 161.1180
5118.765212 82.513 161.6276
5155.857894 82.532 162.1119
5193.219366 82.559 162.5560
5230.851574 82.594 162.9438
5268.756481 82.635 163.2638
5306.936062 82.679 163.5085
5345.392309 82.724 163.6724
5384.127225 82.766 163.7534
5423.142830 82.802 163.7586
5462.441159 82.830 163.7037
5502.024259 82.848 163.6077
5541.894195 82.856 163.4874
5582.053045 82.855 163.3539
5622.502902 82.845 163.2147
5663.245876 82.825 163.0779
5704.284090 82.797 162.9516
5745.619684 82.760 162.8408
5787.254813 82.715 162.7498
5829.191647 82.660 162.6864
5871.432373 82.597 162.6630
5913.979192 82.525 162.6935
5956.834323 82.447 162.7879
6000.000000 82.363 162.9505
6043.478473 82.276 163.1834
6087.272010 82.187 163.4886
6131.382892 82.097 163.8659
6175.813420 82.006 164.3143
6220.565910 81.916 164.8354
6265.642695 81.826 165.4355
6311.046124 81.738 166.1224
6356.778566 81.654 166.9016
6402.842404 81.577 167.7726
6449.240040 81.509 168.7310
6495.973891 81.452 169.7676
6543.046396 81.407 170.8692
6590.460007 81.376 172.0218
6638.217197 81.359 173.2162
6686.320456 81.356 174.4487
6734.772290 81.369 175.7174
6783.575226 81.397 177.0177
6832.731809 81.444 178.3419
6882.244600 81.512 179.6781
6932.116181 81.600 -178.9911
6982.349153 81.711 -177.6854
7032.946133 81.845 -176.4221
7083.909760 82.000 -175.2146
7135.242690 82.179 -174.0764
7186.947600 82.381 -173.0245
7239.027185 82.609 -172.0813
7291.484160 82.862 -171.2765
7344.321260 83.140 -170.6477
7397.541239 83.442 -170.2352
7451.146872 83.764 -170.0771
7505.140954 84.101 -170.2076
7559.526299 84.449 -170.6602
7614.305743 84.801 -171.4667
7669.482141 85.149 -172.6557
7725.058371 85.482 -174.2497
7781.037328 85.787 -176.2579
7837.421932 86.052 -178.6679
7894.215122 86.263 178.5590
7951.419859 86.406 175.4857
8009.039125 86.474 172.1952
8067.075924 86.459 168.7849
8125.533282 86.360 165.3562
8184.414245 86.176 162.0091
8243.721885 85.912 158.8394
8303.459292 85.574 155.9358
8363.629581 85.171 153.3752
8424.235888 84.713 151.2189
8485.281374 84.213 149.5074
8546.769221 83.685 148.2566
8608.702634 83.141 147.4593
8671.084842 82.593 147.0939
8733.919097 82.050 147.1317
8797.208675 81.517 147.5424
8860.956876 81.002 148.2971
8925.167022 80.510 149.3637
8989.842461 80.044 150.7046
9054.986566 79.607 152.2798
9120.602731 79.201 154.0526
9186.694378 78.826 155.9940
9253.264952 78.482 158.0845
9320.317925 78.168 160.3084
9387.856790 77.886 162.6471
9455.885071 77.636 165.0790
9524.406312 77.417 167.5820
9593.424086 77.230 170.1399
9662.941992 77.072 172.7457
9732.963653 76.945 175.3948
9803.492719 76.850 178.0771
9874.532869 76.787 -179.2251
9946.087805 76.757 -176.5313
10018.161257 76.758 -173.8559
10090.756983 76.793 -171.2071
10163.878768 76.860 -168.5958
10237.530423 76.963 -166.0424
10311.715789 77.102 -163.5755
10386.438732 77.277 -161.2254
10461.703149 77.487 -159.0173
10537.512962 77.732 -156.9751
10613.872125 78.011 -155.1298
10690.784618 78.324 -153.5236
10768.254450 78.669 -152.2062
10846.285661 79.039 -151.2257
10924.882318 79.431 -150.6271
11004.048518 79.835 -150.4550
11083.788390 80.243 -150.7531
11164.106090 80.640 -151.5562
11245.005805 81.011 -152.8779
11326.491752 81.338 -154.7022
11408.568180 81.604 -156.9834
11491.239368 81.795 -159.6480
11574.509626 81.897 -162.5956
11658.383294 81.899 -165.6989
11742.864745 81.796 -168.8104
11827.958384 81.591 -171.7762
11913.668646 81.291 -174.4531
12000.000000 80.908 -176.7211
12086.956947 80.458 -178.4882
12174.544019 79.960 -179.6938
12262.765784 79.432 179.6888
12351.626840 78.894 179.6511
12441.131819 78.362 -179.8420
12531.285389 77.850 -178.8392
12622.092249 77.369 -177.3927
12713.557132 76.927 -175.5586
12805.684808 76.533 -173.3997
12898.480079 76.192 -170.9820
12991.947783 75.906 -168.3693
13086.092792 75.679 -165.6228
13180.920015 75.513 -162.8060
13276.434395 75.406 -159.9837
13372.640911 75.359 -157.2152
13469.544580 75.368 -154.5513
13567.150452 75.431 -152.0396
13665.463617 75.545 -149.7274
13764.489200 75.706 -147.6588
13864.232362 75.910 -145.8720
13964.698305 76.154 -144.4051
14065.892266 76.433 -143.3010
14167.819519 76.741 -142.6046
14270.485380 77.070 -142.3579
14373.895200 77.412 -142.5997
14478.054370 77.756 -143.3645
14582.968320 78.087 -144.6744
14688.642520 78.391 -146.5303
14795.082478 78.652 -148.9095
14902.293745 78.853 -151.7655
15010.281908 78.980 -155.0247
15119.052599 79.023 -158.5869
15228.611486 78.973 -162.3332
15338.964283 78.829 -166.1376
15450.116741 78.595 -169.8777
15562.074656 78.279 -173.4462
15674.843864 77.895 -176.7644
15788.430244 77.459 -179.7902
15902.839718 76.986 177.4803
16018.078250 76.494 175.0154
16134.151848 75.996 172.7520
16251.066563 75.502 170.6027
16368.828491 75.015 168.4686
16487.443769 74.534 166.2510
16606.918584 74.050 163.8616
16727.259161 73.551 161.2356
16848.471777 73.019 158.3436
16970.562748 72.433 155.1970
17093.538442 71.773 151.8500
17217.405268 71.020 148.4003
17342.169684 70.156 144.9843
17467.838194 69.170 141.7719
17594.417350 68.050 138.9707
17721.913751 66.792 136.8462
17850.334044 65.396 135.7662
17979.684923 63.872 136.3000
18109.973131 62.251 139.4026
18241.205462 60.600 146.6363
18373.388756 59.057 159.8184
18506.529905 57.832 178.1742
18640.635849 57.114 -164.5018
18775.713581 56.916 -153.2626
18911.770141 57.051 -147.7642
19048.812624 57.286 -146.0639
19186.848172 57.454 -146.6651
19325.883983 57.471 -148.5925
19465.927305 57.314 -151.1794
19606.985439 57.007 -153.9288
19749.065738 56.616 -156.4406
19892.175609 56.245 -158.3721
20036.322514 56.016 -159.4313
