* Measurement data measured by REW V5.31.3
* Source: EXCL: Microphone (USB Sound Device        ), MICROPHONE (Master Volume), R, volume: 0.390
* Format: 256k Log Swept Sine, 1 sweep at -15.0 dBFS with no timing reference
* Dated: Apr 26, 2025 11:24:07 PM
* REW Settings:
*  C-weighting compensation: Off
*  Target level: 75.0 dB
* Note: Tanchjim Origin L
* Measurement: L Tanchjim Origin
* Smoothing: 1/12 octave
* Frequency Step: 96 ppo
* Start Frequency: 0.36621094 Hz
*
* Freq(Hz) SPL(dB) Phase(degrees)
0.366211 94.737 156.4093
0.368865 94.732 156.3848
0.371538 94.723 156.3481
0.374230 94.712 156.3020
0.376942 94.700 156.2489
0.379673 94.687 156.1904
0.382424 94.673 156.1279
0.385196 94.659 156.0618
0.387987 94.645 155.9928
0.390798 94.630 155.9209
0.393630 94.615 155.8463
0.396483 94.601 155.7690
0.399356 94.586 155.6891
0.402250 94.571 155.6064
0.405165 94.556 155.5210
0.408101 94.541 155.4330
0.411058 94.525 155.3421
0.414037 94.510 155.2485
0.417037 94.494 155.1521
0.420059 94.479 155.0528
0.423103 94.463 154.9507
0.426169 94.447 154.8456
0.429257 94.431 154.7377
0.432368 94.415 154.6269
0.435501 94.399 154.5130
0.438656 94.382 154.3962
0.441835 94.366 154.2764
0.445037 94.349 154.1535
0.448262 94.333 154.0276
0.451510 94.316 153.8986
0.454782 94.299 153.7665
0.458077 94.282 153.6313
0.461397 94.264 153.4929
0.464740 94.247 153.3514
0.468108 94.230 153.2067
0.471500 94.212 153.0588
0.474917 94.194 152.9076
0.478358 94.177 152.7533
0.481825 94.159 152.5956
0.485316 94.141 152.4347
0.488833 94.122 152.2706
0.492375 94.104 152.1031
0.495943 94.086 151.9324
0.499537 94.067 151.7584
0.503157 94.048 151.5810
0.506803 94.029 151.4004
0.510475 94.010 151.2164
0.514175 93.991 151.0291
0.517900 93.972 150.8385
0.521653 93.952 150.6446
0.525434 93.933 150.4474
0.529241 93.913 150.2469
0.533076 93.893 150.0431
0.536939 93.873 149.8360
0.540830 93.853 149.6257
0.544749 93.833 149.4121
0.548696 93.812 149.1953
0.552673 93.792 148.9754
0.556677 93.771 148.7522
0.560711 93.750 148.5260
0.564774 93.729 148.2966
0.568867 93.708 148.0642
0.572989 93.686 147.8288
0.577141 93.665 147.5904
0.581324 93.643 147.3491
0.585536 93.621 147.1049
0.589779 93.599 146.8580
0.594053 93.577 146.6083
0.598358 93.555 146.3560
0.602694 93.533 146.1011
0.607061 93.510 145.8437
0.611460 93.487 145.5838
0.615891 93.464 145.3217
0.620354 93.441 145.0574
0.624849 93.418 144.7909
0.629377 93.394 144.5225
0.633938 93.371 144.2522
0.638532 93.347 143.9802
0.643159 93.323 143.7065
0.647819 93.299 143.4314
0.652514 93.275 143.1550
0.657242 93.250 142.8775
0.662005 93.225 142.5989
0.666802 93.201 142.3196
0.671634 93.175 142.0397
0.676501 93.150 141.7594
0.681403 93.125 141.4788
0.686341 93.099 141.1983
0.691314 93.073 140.9180
0.696324 93.047 140.6382
0.701370 93.021 140.3590
0.706452 92.994 140.0806
0.711571 92.967 139.8031
0.716728 92.939 139.5265
0.721921 92.910 139.2505
0.727153 92.879 138.9745
0.732422 92.846 138.6979
0.737729 92.812 138.4195
0.743075 92.775 138.1382
0.748460 92.736 137.8530
0.753883 92.697 137.5632
0.759346 92.656 137.2683
0.764849 92.614 136.9678
0.770391 92.572 136.6615
0.775974 92.529 136.3492
0.781597 92.486 136.0309
0.787261 92.442 135.7064
0.792966 92.397 135.3756
0.798712 92.352 135.0385
0.804500 92.306 134.6951
0.810329 92.260 134.3452
0.816201 92.213 133.9888
0.822116 92.166 133.6258
0.828073 92.117 133.2563
0.834074 92.068 132.8802
0.840118 92.019 132.4975
0.846206 91.968 132.1081
0.852338 91.917 131.7121
0.858514 91.865 131.3095
0.864735 91.811 130.9002
0.871001 91.757 130.4843
0.877313 91.702 130.0618
0.883670 91.646 129.6328
0.890074 91.589 129.1973
0.896524 91.531 128.7553
0.903020 91.472 128.3071
0.909564 91.412 127.8527
0.916155 91.350 127.3922
0.922794 91.287 126.9258
0.929481 91.223 126.4536
0.936216 91.157 125.9758
0.943000 91.090 125.4927
0.949834 91.022 125.0044
0.956717 90.952 124.5113
0.963649 90.881 124.0137
0.970632 90.808 123.5119
0.977666 90.733 123.0062
0.984750 90.656 122.4971
0.991886 90.578 121.9851
0.999074 90.498 121.4705
1.006314 90.416 120.9539
1.013606 90.331 120.4359
1.020951 90.245 119.9171
1.028349 90.157 119.3982
1.035801 90.066 118.8800
1.043307 89.973 118.3630
1.050867 89.878 117.8483
1.058482 89.781 117.3365
1.066152 89.681 116.8284
1.073878 89.578 116.3249
1.081660 89.474 115.8264
1.089498 89.368 115.3334
1.097393 89.260 114.8456
1.105345 89.152 114.3627
1.113355 89.043 113.8841
1.121423 88.934 113.4089
1.129549 88.825 112.9363
1.137734 88.717 112.4659
1.145979 88.610 111.9969
1.154283 88.502 111.5289
1.162647 88.395 111.0614
1.171072 88.287 110.5941
1.179558 88.179 110.1265
1.188106 88.070 109.6582
1.196715 87.960 109.1887
1.205387 87.848 108.7176
1.214122 87.735 108.2444
1.222920 87.619 107.7686
1.231782 87.500 107.2898
1.240708 87.378 106.8074
1.249699 87.252 106.3208
1.258754 87.122 105.8295
1.267876 86.988 105.3330
1.277063 86.849 104.8305
1.286318 86.704 104.3214
1.295639 86.552 103.8051
1.305027 86.394 103.2809
1.314484 86.229 102.7481
1.324009 86.056 102.2058
1.333604 85.875 101.6534
1.343268 85.684 101.0901
1.353002 85.484 100.5152
1.362806 85.273 99.9277
1.372681 85.051 99.3271
1.382628 84.817 98.7125
1.392647 84.571 98.0834
1.402739 84.311 97.4390
1.412904 84.036 96.7791
1.423142 83.746 96.1034
1.433455 83.440 95.4120
1.443843 83.114 94.7055
1.454305 82.767 93.9849
1.464844 82.395 93.2514
1.475459 81.995 92.5067
1.486150 81.564 91.7520
1.496920 81.099 90.9878
1.507767 80.598 90.2141
1.518693 80.061 89.4298
1.529698 79.488 88.6336
1.540783 78.882 87.8230
1.551948 78.242 86.9956
1.563194 77.573 86.1478
1.574521 76.876 85.2759
1.585931 76.155 84.3749
1.597423 75.411 83.4392
1.608999 74.650 82.4618
1.620658 73.873 81.4341
1.632402 73.086 80.3456
1.644232 72.292 79.1831
1.656146 71.495 77.9299
1.668147 70.701 76.5645
1.680235 69.914 75.0589
1.692411 69.141 73.3758
1.704675 68.386 71.4650
1.717028 67.657 69.2568
1.729470 66.961 66.6529
1.742003 66.305 63.5107
1.754626 65.698 59.6182
1.767341 65.150 54.6530
1.780147 64.669 48.1183
1.793047 64.268 39.2652
1.806040 63.955 27.0931
1.819128 63.740 10.8014
1.832310 63.631 -8.7989
1.845587 63.632 -28.3956
1.858961 63.745 -44.7570
1.872432 63.967 -57.1623
1.886001 64.293 -66.4064
1.899667 64.714 -73.4432
1.913433 65.223 -78.9764
1.927299 65.808 -83.4686
1.941265 66.461 -87.2181
1.955332 67.170 -90.4204
1.969501 67.925 -93.2066
1.983773 68.717 -95.6673
1.998148 69.535 -97.8667
2.012627 70.370 -99.8510
2.027212 71.212 -101.6549
2.041902 72.053 -103.3042
2.056698 72.883 -104.8190
2.071602 73.694 -106.2149
2.086614 74.477 -107.5045
2.101734 75.224 -108.6983
2.116964 75.930 -109.8054
2.132304 76.586 -110.8347
2.147756 77.189 -111.7956
2.163320 77.735 -112.6990
2.178996 78.223 -113.5584
2.194786 78.655 -114.3897
2.210690 79.036 -115.2106
2.226710 79.371 -116.0373
2.242845 79.666 -116.8817
2.259098 79.923 -117.7503
2.275468 80.147 -118.6454
2.291957 80.341 -119.5658
2.308566 80.506 -120.5084
2.325295 80.645 -121.4686
2.342145 80.760 -122.4411
2.359117 80.852 -123.4202
2.376212 80.924 -124.3999
2.393431 80.978 -125.3740
2.410775 81.015 -126.3364
2.428244 81.039 -127.2806
2.445840 81.051 -128.2005
2.463564 81.055 -129.0901
2.481416 81.052 -129.9441
2.499397 81.044 -130.7585
2.517509 81.034 -131.5311
2.535752 81.021 -132.2629
2.554127 81.007 -132.9587
2.572635 80.990 -133.6269
2.591277 80.967 -134.2786
2.610055 80.938 -134.9239
2.628968 80.899 -135.5705
2.648019 80.851 -136.2228
2.667208 80.791 -136.8824
2.686535 80.720 -137.5484
2.706003 80.637 -138.2180
2.725612 80.542 -138.8870
2.745363 80.435 -139.5498
2.765257 80.315 -140.1994
2.785295 80.184 -140.8276
2.805478 80.040 -141.4249
2.825808 79.884 -141.9806
2.846285 79.714 -142.4833
2.866910 79.531 -142.9208
2.887685 79.332 -143.2816
2.908611 79.116 -143.5552
2.929688 78.880 -143.7337
2.950917 78.620 -143.8114
2.972301 78.334 -143.7840
2.993839 78.020 -143.6467
3.015534 77.680 -143.3929
3.037386 77.315 -143.0134
3.059396 76.929 -142.4964
3.081565 76.529 -141.8269
3.103896 76.120 -140.9875
3.126388 75.711 -139.9577
3.149043 75.308 -138.7150
3.171862 74.921 -137.2345
3.194847 74.560 -135.4901
3.217998 74.235 -133.4552
3.241317 73.955 -131.1035
3.264805 73.729 -128.4099
3.288463 73.563 -125.3522
3.312293 73.461 -121.9153
3.336295 73.422 -118.0994
3.360471 73.444 -113.9325
3.384822 73.522 -109.4787
3.409350 73.650 -104.8382
3.434056 73.821 -100.1380
3.458940 74.030 -95.5159
3.484005 74.269 -91.1006
3.509252 74.531 -86.9972
3.534681 74.812 -83.2780
3.560295 75.105 -79.9826
3.586094 75.407 -77.1217
3.612081 75.715 -74.6849
3.638255 76.029 -72.6463
3.664620 76.350 -70.9715
3.691175 76.681 -69.6211
3.717923 77.024 -68.5552
3.744864 77.379 -67.7359
3.772001 77.745 -67.1283
3.799335 78.118 -66.7009
3.826866 78.494 -66.4259
3.854597 78.868 -66.2794
3.882529 79.235 -66.2409
3.910664 79.590 -66.2942
3.939002 79.928 -66.4267
3.967546 80.247 -66.6302
3.996296 80.542 -66.9005
4.025255 80.814 -67.2368
4.054423 81.061 -67.6406
4.083804 81.286 -68.1119
4.113396 81.490 -68.6474
4.143204 81.673 -69.2398
4.173227 81.839 -69.8787
4.203468 81.988 -70.5519
4.233928 82.122 -71.2467
4.264609 82.241 -71.9511
4.295512 82.347 -72.6553
4.326639 82.441 -73.3520
4.357992 82.523 -74.0386
4.389572 82.592 -74.7164
4.421380 82.649 -75.3906
4.453419 82.693 -76.0670
4.485691 82.723 -76.7490
4.518196 82.740 -77.4354
4.550936 82.743 -78.1210
4.583914 82.734 -78.7972
4.617131 82.714 -79.4532
4.650589 82.683 -80.0774
4.684289 82.641 -80.6584
4.718233 82.590 -81.1868
4.752424 82.528 -81.6566
4.786862 82.456 -82.0654
4.821549 82.374 -82.4137
4.856488 82.280 -82.7024
4.891680 82.177 -82.9316
4.927127 82.066 -83.0995
4.962831 81.948 -83.2024
4.998794 81.827 -83.2349
5.035017 81.705 -83.1901
5.071503 81.582 -83.0601
5.108253 81.461 -82.8367
5.145270 81.342 -82.5121
5.182555 81.226 -82.0813
5.220110 81.112 -81.5433
5.257937 81.001 -80.9025
5.296038 80.896 -80.1681
5.334415 80.799 -79.3535
5.373071 80.714 -78.4744
5.412006 80.643 -77.5470
5.451224 80.590 -76.5856
5.490725 80.555 -75.6015
5.530514 80.541 -74.6032
5.570590 80.548 -73.5992
5.610957 80.574 -72.6018
5.651616 80.616 -71.6278
5.692570 80.674 -70.6977
5.733821 80.744 -69.8325
5.775370 80.825 -69.0518
5.817221 80.914 -68.3710
5.859375 81.011 -67.7997
5.901834 81.117 -67.3414
5.944602 81.228 -66.9951
5.987679 81.346 -66.7574
6.031068 81.466 -66.6244
6.074771 81.587 -66.5920
6.118792 81.705 -66.6576
6.163131 81.818 -66.8192
6.207792 81.924 -67.0758
6.252776 82.022 -67.4263
6.298086 82.111 -67.8676
6.343725 82.191 -68.3929
6.389694 82.262 -68.9919
6.435996 82.324 -69.6523
6.482634 82.375 -70.3616
6.529610 82.416 -71.1100
6.576926 82.446 -71.8911
6.624585 82.464 -72.7020
6.672590 82.470 -73.5412
6.720942 82.465 -74.4050
6.769645 82.449 -75.2861
6.818700 82.423 -76.1742
6.868111 82.387 -77.0576
6.917881 82.343 -77.9260
6.968010 82.290 -78.7723
7.018504 82.229 -79.5926
7.069362 82.161 -80.3850
7.120590 82.087 -81.1470
7.172189 82.008 -81.8747
7.224161 81.926 -82.5622
7.276511 81.843 -83.2033
7.329239 81.761 -83.7921
7.382350 81.681 -84.3255
7.435845 81.603 -84.8037
7.489729 81.530 -85.2306
7.544002 81.463 -85.6119
7.598669 81.404 -85.9543
7.653732 81.355 -86.2637
7.709194 81.319 -86.5449
7.765058 81.295 -86.8028
7.821327 81.284 -87.0446
7.878004 81.286 -87.2808
7.935091 81.301 -87.5246
7.992592 81.330 -87.7888
8.050510 81.371 -88.0841
8.108847 81.425 -88.4177
8.167607 81.490 -88.7938
8.226793 81.566 -89.2160
8.286408 81.650 -89.6881
8.346454 81.741 -90.2138
8.406936 81.837 -90.7956
8.467856 81.937 -91.4338
8.529218 82.039 -92.1255
8.591024 82.143 -92.8654
8.653278 82.246 -93.6466
8.715983 82.349 -94.4622
8.779143 82.449 -95.3061
8.842760 82.547 -96.1726
8.906839 82.640 -97.0555
8.971381 82.730 -97.9467
9.036392 82.816 -98.8368
9.101873 82.899 -99.7167
9.167829 82.977 -100.5786
9.234263 83.052 -101.4169
9.301178 83.123 -102.2268
9.368578 83.192 -103.0029
9.436467 83.259 -103.7400
9.504847 83.325 -104.4333
9.573723 83.390 -105.0797
9.643099 83.455 -105.6783
9.712976 83.522 -106.2295
9.783361 83.590 -106.7345
9.854255 83.661 -107.1952
9.925663 83.734 -107.6136
9.997588 83.811 -107.9929
10.070035 83.892 -108.3374
10.143007 83.976 -108.6524
10.216507 84.064 -108.9434
10.290540 84.155 -109.2152
10.365109 84.249 -109.4717
10.440219 84.346 -109.7169
10.515873 84.444 -109.9543
10.592076 84.543 -110.1870
10.668830 84.643 -110.4175
10.746141 84.742 -110.6465
10.824012 84.841 -110.8743
10.902447 84.938 -111.1002
10.981451 85.032 -111.3234
11.061027 85.124 -111.5426
11.141180 85.213 -111.7563
11.221913 85.299 -111.9626
11.303232 85.382 -112.1592
11.385140 85.461 -112.3446
11.467641 85.538 -112.5175
11.550741 85.611 -112.6772
11.634442 85.682 -112.8232
11.718750 85.750 -112.9556
11.803669 85.817 -113.0750
11.889203 85.881 -113.1826
11.975357 85.944 -113.2801
12.062136 86.004 -113.3696
12.149543 86.063 -113.4530
12.237583 86.121 -113.5324
12.326262 86.176 -113.6097
12.415583 86.230 -113.6869
12.505552 86.281 -113.7654
12.596172 86.329 -113.8462
12.687449 86.375 -113.9297
12.779387 86.418 -114.0160
12.871992 86.458 -114.1049
12.965268 86.495 -114.1959
13.059220 86.528 -114.2882
13.153852 86.559 -114.3809
13.249170 86.587 -114.4736
13.345179 86.612 -114.5658
13.441884 86.635 -114.6579
13.539289 86.656 -114.7505
13.637401 86.676 -114.8446
13.736223 86.694 -114.9422
13.835761 86.712 -115.0456
13.936021 86.729 -115.1574
14.037007 86.746 -115.2806
14.138725 86.763 -115.4179
14.241180 86.779 -115.5722
14.344377 86.795 -115.7456
14.448323 86.810 -115.9399
14.553021 86.824 -116.1558
14.658478 86.836 -116.3935
14.764700 86.847 -116.6522
14.871691 86.856 -116.9305
14.979457 86.864 -117.2262
15.088005 86.869 -117.5367
15.197339 86.874 -117.8596
15.307465 86.877 -118.1921
15.418389 86.879 -118.5321
15.530117 86.882 -118.8776
15.642655 86.885 -119.2278
15.756008 86.889 -119.5824
15.870182 86.895 -119.9418
15.985184 86.904 -120.3071
16.101019 86.915 -120.6800
16.217694 86.929 -121.0623
16.335214 86.947 -121.4556
16.453586 86.967 -121.8612
16.572815 86.990 -122.2798
16.692909 87.015 -122.7112
16.813872 87.042 -123.1543
16.935713 87.071 -123.6070
17.058436 87.101 -124.0665
17.182048 87.132 -124.5292
17.306556 87.163 -124.9913
17.431967 87.196 -125.4488
17.558286 87.230 -125.8982
17.685521 87.264 -126.3363
17.813677 87.300 -126.7608
17.942762 87.338 -127.1700
18.072783 87.378 -127.5632
18.203746 87.419 -127.9404
18.335658 87.463 -128.3020
18.468526 87.508 -128.6489
18.602356 87.555 -128.9821
18.737156 87.603 -129.3023
18.872934 87.651 -129.6101
19.009695 87.701 -129.9056
19.147447 87.750 -130.1887
19.286197 87.799 -130.4590
19.425953 87.847 -130.7160
19.566721 87.894 -130.9594
19.708510 87.940 -131.1889
19.851326 87.985 -131.4049
19.995177 88.029 -131.6079
20.140070 88.072 -131.7988
20.286013 88.113 -131.9789
20.433014 88.152 -132.1494
20.581080 88.189 -132.3117
20.730219 88.224 -132.4666
20.880439 88.257 -132.6151
21.031747 88.287 -132.7577
21.184152 88.315 -132.8948
21.337661 88.341 -133.0270
21.492282 88.364 -133.1550
21.648024 88.385 -133.2800
21.804895 88.404 -133.4034
21.962902 88.422 -133.5275
22.122054 88.438 -133.6548
22.282360 88.453 -133.7878
22.443827 88.467 -133.9293
22.606464 88.479 -134.0813
22.770280 88.490 -134.2454
22.935283 88.499 -134.4223
23.101481 88.507 -134.6123
23.268884 88.513 -134.8146
23.437500 88.518 -135.0283
23.607338 88.522 -135.2524
23.778406 88.526 -135.4860
23.950714 88.529 -135.7284
24.124271 88.533 -135.9796
24.299086 88.537 -136.2398
24.475167 88.542 -136.5092
24.652524 88.549 -136.7882
24.831166 88.556 -137.0764
25.011103 88.565 -137.3735
25.192344 88.576 -137.6780
25.374898 88.587 -137.9883
25.558775 88.600 -138.3023
25.743984 88.614 -138.6178
25.930536 88.630 -138.9326
26.118439 88.647 -139.2447
26.307704 88.666 -139.5524
26.498341 88.686 -139.8541
26.690359 88.708 -140.1486
26.883768 88.731 -140.4346
27.078579 88.755 -140.7109
27.274801 88.779 -140.9766
27.472446 88.805 -141.2310
27.671522 88.831 -141.4738
27.872042 88.858 -141.7050
28.074014 88.885 -141.9252
28.277450 88.912 -142.1353
28.482360 88.938 -142.3359
28.688755 88.964 -142.5278
28.896645 88.988 -142.7111
29.106042 89.011 -142.8858
29.316957 89.032 -143.0515
29.529400 89.052 -143.2083
29.743382 89.069 -143.3562
29.958915 89.086 -143.4967
30.176009 89.101 -143.6316
30.394677 89.115 -143.7638
30.614929 89.129 -143.8966
30.836778 89.141 -144.0330
31.060234 89.152 -144.1756
31.285309 89.162 -144.3260
31.512015 89.171 -144.4851
31.740364 89.178 -144.6527
31.970368 89.185 -144.8284
32.202039 89.190 -145.0118
32.435388 89.195 -145.2025
32.670428 89.199 -145.4007
32.907171 89.204 -145.6066
33.145630 89.208 -145.8207
33.385817 89.213 -146.0428
33.627745 89.218 -146.2722
33.871425 89.224 -146.5075
34.116871 89.230 -146.7463
34.364096 89.236 -146.9857
34.613113 89.242 -147.2227
34.863934 89.249 -147.4543
35.116572 89.257 -147.6785
35.371041 89.266 -147.8943
35.627354 89.276 -148.1020
35.885525 89.288 -148.3029
36.145566 89.302 -148.4989
36.407492 89.317 -148.6921
36.671316 89.332 -148.8837
36.937051 89.347 -149.0742
37.204712 89.361 -149.2625
37.474313 89.375 -149.4469
37.745867 89.387 -149.6257
38.019389 89.398 -149.7972
38.294893 89.408 -149.9610
38.572394 89.418 -150.1176
38.851905 89.426 -150.2685
39.133442 89.434 -150.4156
39.417019 89.441 -150.5610
39.702651 89.448 -150.7065
39.990353 89.455 -150.8536
40.280140 89.460 -151.0030
40.572026 89.466 -151.1554
40.866028 89.471 -151.3108
41.162160 89.475 -151.4693
41.460438 89.479 -151.6308
41.760877 89.483 -151.7949
42.063494 89.487 -151.9614
42.368303 89.491 -152.1299
42.675322 89.494 -152.2995
42.984565 89.498 -152.4692
43.296048 89.502 -152.6377
43.609789 89.506 -152.8036
43.925804 89.509 -152.9658
44.244108 89.513 -153.1239
44.564719 89.518 -153.2782
44.887654 89.523 -153.4296
45.212928 89.528 -153.5793
45.540560 89.534 -153.7281
45.870565 89.539 -153.8764
46.202962 89.544 -154.0242
46.537768 89.549 -154.1711
46.875000 89.554 -154.3169
47.214676 89.558 -154.4617
47.556813 89.562 -154.6060
47.901429 89.566 -154.7507
48.248542 89.570 -154.8962
48.598171 89.574 -155.0422
48.950334 89.577 -155.1878
49.305048 89.579 -155.3315
49.662333 89.582 -155.4719
50.022206 89.584 -155.6084
50.384688 89.586 -155.7413
50.749796 89.589 -155.8713
51.117550 89.592 -155.9992
51.487969 89.595 -156.1251
51.861072 89.597 -156.2485
52.236879 89.599 -156.3684
52.615409 89.601 -156.4841
52.996681 89.603 -156.5958
53.380717 89.605 -156.7047
53.767536 89.606 -156.8123
54.157158 89.608 -156.9201
54.549603 89.610 -157.0294
54.944892 89.611 -157.1409
55.343045 89.613 -157.2550
55.744084 89.615 -157.3724
56.148028 89.617 -157.4943
56.554900 89.620 -157.6219
56.964720 89.622 -157.7560
57.377510 89.625 -157.8967
57.793291 89.627 -158.0429
58.212085 89.629 -158.1919
58.633914 89.630 -158.3400
59.058799 89.630 -158.4830
59.486764 89.630 -158.6173
59.917829 89.629 -158.7417
60.352019 89.630 -158.8578
60.789354 89.630 -158.9688
61.229859 89.631 -159.0782
61.673556 89.632 -159.1877
62.120468 89.633 -159.2971
62.570618 89.633 -159.4055
63.024031 89.632 -159.5127
63.480729 89.631 -159.6194
63.940736 89.629 -159.7269
64.404077 89.627 -159.8359
64.870776 89.624 -159.9459
65.340856 89.621 -160.0559
65.814343 89.618 -160.1647
66.291261 89.615 -160.2715
66.771635 89.611 -160.3765
67.255489 89.609 -160.4800
67.742850 89.606 -160.5823
68.233743 89.604 -160.6834
68.728193 89.601 -160.7827
69.226226 89.599 -160.8800
69.727867 89.597 -160.9759
70.233144 89.594 -161.0710
70.742083 89.592 -161.1659
71.254709 89.589 -161.2604
71.771050 89.586 -161.3540
72.291132 89.583 -161.4465
72.814984 89.580 -161.5378
73.342631 89.577 -161.6275
73.874102 89.574 -161.7155
74.409424 89.571 -161.8022
74.948626 89.569 -161.8890
75.491734 89.567 -161.9766
76.038779 89.566 -162.0650
76.589787 89.564 -162.1536
77.144788 89.563 -162.2429
77.703811 89.562 -162.3344
78.266885 89.560 -162.4296
78.834039 89.559 -162.5289
79.405303 89.557 -162.6319
79.980706 89.555 -162.7391
80.560280 89.552 -162.8514
81.144053 89.549 -162.9693
81.732056 89.544 -163.0919
82.324320 89.538 -163.2169
82.920876 89.532 -163.3421
83.521755 89.523 -163.4653
84.126988 89.514 -163.5854
84.736607 89.503 -163.7018
85.350643 89.491 -163.8136
85.969129 89.477 -163.9199
86.592097 89.463 -164.0193
87.219579 89.447 -164.1120
87.851608 89.430 -164.1992
88.488217 89.413 -164.2796
89.129439 89.396 -164.3491
89.775308 89.379 -164.4047
90.425856 89.364 -164.4496
91.081119 89.351 -164.4909
91.741131 89.341 -164.5350
92.405925 89.332 -164.5834
93.075536 89.323 -164.6349
93.750000 89.314 -164.6871
94.429351 89.305 -164.7381
95.113625 89.295 -164.7870
95.802858 89.285 -164.8337
96.497085 89.273 -164.8786
97.196342 89.261 -164.9221
97.900667 89.249 -164.9646
98.610096 89.235 -165.0062
99.324665 89.222 -165.0458
100.044413 89.208 -165.0824
100.769376 89.195 -165.1146
101.499592 89.182 -165.1422
102.235100 89.170 -165.1649
102.975938 89.158 -165.1838
103.722144 89.148 -165.2008
104.473757 89.138 -165.2186
105.230817 89.127 -165.2397
105.993363 89.117 -165.2662
106.761435 89.106 -165.2999
107.535072 89.095 -165.3412
108.314315 89.083 -165.3895
109.099206 89.071 -165.4432
109.889783 89.060 -165.5002
110.686090 89.048 -165.5578
111.488167 89.036 -165.6127
112.296056 89.022 -165.6600
113.109800 89.006 -165.6924
113.929440 88.986 -165.7009
114.755020 88.962 -165.6777
115.586582 88.935 -165.6192
116.424170 88.906 -165.5273
117.267827 88.878 -165.4130
118.117598 88.852 -165.2967
118.973527 88.831 -165.2010
119.835658 88.815 -165.1445
120.704037 88.802 -165.1377
121.578708 88.791 -165.1761
122.459718 88.781 -165.2404
123.347111 88.771 -165.3083
124.240935 88.760 -165.3639
125.141236 88.750 -165.3996
126.048061 88.739 -165.4151
126.961458 88.729 -165.4158
127.881473 88.717 -165.4095
128.808154 88.704 -165.4023
129.741551 88.689 -165.3976
130.681712 88.673 -165.3972
131.628686 88.656 -165.4009
132.582521 88.639 -165.4075
133.543269 88.622 -165.4150
134.510979 88.605 -165.4207
135.485701 88.587 -165.4223
136.467486 88.570 -165.4172
137.456386 88.552 -165.4039
138.452451 88.533 -165.3819
139.455735 88.515 -165.3519
140.466288 88.498 -165.3156
141.484165 88.481 -165.2756
142.509418 88.465 -165.2342
143.542100 88.449 -165.1936
144.582265 88.433 -165.1559
145.629968 88.418 -165.1231
146.685262 88.401 -165.0965
147.748204 88.382 -165.0740
148.818849 88.362 -165.0510
149.897251 88.340 -165.0224
150.983469 88.317 -164.9844
152.077557 88.292 -164.9341
153.179574 88.268 -164.8701
154.289576 88.244 -164.7939
155.407622 88.221 -164.7086
156.533770 88.201 -164.6193
157.668078 88.182 -164.5314
158.810606 88.165 -164.4496
159.961413 88.149 -164.3771
161.120559 88.134 -164.3144
162.288105 88.117 -164.2603
163.464112 88.100 -164.2119
164.648640 88.080 -164.1656
165.841752 88.059 -164.1173
167.043510 88.036 -164.0623
168.253976 88.012 -163.9964
169.473213 87.986 -163.9178
170.701286 87.961 -163.8278
171.938258 87.937 -163.7300
173.184194 87.914 -163.6280
174.439158 87.892 -163.5242
175.703216 87.872 -163.4209
176.976434 87.852 -163.3203
178.258878 87.833 -163.2247
179.550615 87.813 -163.1339
180.851713 87.793 -163.0461
182.162239 87.773 -162.9588
183.482262 87.751 -162.8704
184.811850 87.729 -162.7803
186.151073 87.707 -162.6891
187.500000 87.684 -162.5973
188.858702 87.661 -162.5052
190.227250 87.637 -162.4120
191.605715 87.612 -162.3164
192.994169 87.587 -162.2170
194.392685 87.561 -162.1128
195.801334 87.534 -162.0026
197.220191 87.507 -161.8851
198.649330 87.479 -161.7587
200.088825 87.452 -161.6231
201.538751 87.425 -161.4790
202.999184 87.399 -161.3291
204.470200 87.375 -161.1774
205.951875 87.351 -161.0280
207.444287 87.329 -160.8840
208.947514 87.305 -160.7455
210.461634 87.281 -160.6104
211.986726 87.255 -160.4752
213.522869 87.228 -160.3353
215.070144 87.200 -160.1863
216.628631 87.170 -160.0242
218.198411 87.141 -159.8476
219.779567 87.113 -159.6583
221.372180 87.087 -159.4615
222.976334 87.062 -159.2632
224.592112 87.038 -159.0677
226.219600 87.014 -158.8764
227.858880 86.991 -158.6885
229.510039 86.968 -158.5027
231.173164 86.944 -158.3184
232.848340 86.920 -158.1366
234.535655 86.896 -157.9588
236.235197 86.872 -157.7855
237.947054 86.848 -157.6153
239.671317 86.823 -157.4463
241.408074 86.797 -157.2764
243.157416 86.771 -157.1030
244.919435 86.742 -156.9231
246.694223 86.713 -156.7332
248.481871 86.682 -156.5302
250.282473 86.651 -156.3111
252.096123 86.621 -156.0744
253.922915 86.591 -155.8217
255.762945 86.565 -155.5587
257.616309 86.541 -155.2951
259.483103 86.519 -155.0404
261.363424 86.498 -154.7999
263.257372 86.477 -154.5720
265.165043 86.453 -154.3504
267.086538 86.428 -154.1271
269.021957 86.401 -153.8958
270.971401 86.373 -153.6532
272.934972 86.345 -153.3989
274.912771 86.318 -153.1346
276.904902 86.292 -152.8625
278.911469 86.267 -152.5842
280.932577 86.244 -152.3017
282.968330 86.223 -152.0180
285.018835 86.204 -151.7387
287.084199 86.186 -151.4715
289.164530 86.169 -151.2227
291.259935 86.150 -150.9939
293.370525 86.129 -150.7799
295.496408 86.105 -150.5708
297.637697 86.079 -150.3569
299.794503 86.050 -150.1314
301.966937 86.020 -149.8918
304.155114 85.990 -149.6393
306.359147 85.960 -149.3770
308.579152 85.930 -149.1089
310.815244 85.900 -148.8379
313.067539 85.870 -148.5648
315.336156 85.840 -148.2875
317.621211 85.808 -148.0016
319.922826 85.775 -147.7028
322.241118 85.743 -147.3896
324.576210 85.711 -147.0637
326.928223 85.680 -146.7287
329.297280 85.650 -146.3885
331.683504 85.621 -146.0466
334.087019 85.594 -145.7054
336.507952 85.567 -145.3664
338.946427 85.540 -145.0294
341.402572 85.513 -144.6922
343.876516 85.485 -144.3514
346.368387 85.457 -144.0045
348.878315 85.429 -143.6513
351.406431 85.401 -143.2936
353.952867 85.373 -142.9327
356.517756 85.345 -142.5693
359.101230 85.318 -142.2034
361.703426 85.291 -141.8348
364.324478 85.264 -141.4628
366.964523 85.236 -141.0866
369.623699 85.209 -140.7062
372.302145 85.182 -140.3215
375.000000 85.155 -139.9326
377.717405 85.128 -139.5396
380.454501 85.102 -139.1428
383.211431 85.076 -138.7422
385.988339 85.050 -138.3382
388.785369 85.025 -137.9306
391.602668 85.000 -137.5193
394.440383 84.974 -137.1039
397.298660 84.950 -136.6850
400.177650 84.925 -136.2636
403.077502 84.901 -135.8409
405.998368 84.876 -135.4175
408.940400 84.852 -134.9934
411.903750 84.827 -134.5670
414.888575 84.801 -134.1354
417.895028 84.774 -133.6949
420.923268 84.748 -133.2423
423.973452 84.722 -132.7763
427.045738 84.698 -132.2986
430.140287 84.676 -131.8141
433.257261 84.655 -131.3286
436.396822 84.635 -130.8464
439.559133 84.617 -130.3684
442.744360 84.599 -129.8945
445.952668 84.583 -129.4257
449.184225 84.567 -128.9657
452.439199 84.552 -128.5195
455.717760 84.536 -128.0901
459.020079 84.518 -127.6739
462.346327 84.496 -127.2605
465.696680 84.472 -126.8381
469.071310 84.446 -126.3987
472.470394 84.418 -125.9405
475.894109 84.392 -125.4668
479.342634 84.365 -124.9839
482.816148 84.340 -124.4975
486.314833 84.314 -124.0092
489.838871 84.287 -123.5143
493.388445 84.260 -123.0046
496.963741 84.232 -122.4760
500.564945 84.206 -121.9324
504.192245 84.182 -121.3821
507.845830 84.159 -120.8320
511.525890 84.136 -120.2854
515.232618 84.113 -119.7420
518.966206 84.091 -119.1988
522.726849 84.067 -118.6515
526.514743 84.043 -118.0952
530.330086 84.020 -117.5269
534.173076 83.998 -116.9481
538.043915 83.976 -116.3629
541.942803 83.956 -115.7738
545.869944 83.936 -115.1803
549.825542 83.917 -114.5816
553.809805 83.898 -113.9796
557.822939 83.880 -113.3778
561.865154 83.863 -112.7789
565.936660 83.845 -112.1824
570.037671 83.827 -111.5854
574.168399 83.808 -110.9837
578.329060 83.789 -110.3742
582.519870 83.770 -109.7555
586.741049 83.752 -109.1264
590.992817 83.733 -108.4855
595.275394 83.715 -107.8322
599.589005 83.698 -107.1694
603.933874 83.682 -106.5020
608.310228 83.666 -105.8338
612.718295 83.651 -105.1651
617.158304 83.635 -104.4924
621.630488 83.619 -103.8091
626.135079 83.603 -103.1088
630.672311 83.588 -102.3902
635.242423 83.575 -101.6587
639.845651 83.565 -100.9212
644.482237 83.556 -100.1803
649.152421 83.549 -99.4349
653.856447 83.545 -98.6857
658.594560 83.544 -97.9393
663.367008 83.545 -97.2059
668.174039 83.548 -96.4934
673.015903 83.550 -95.8012
677.892854 83.551 -95.1213
682.805145 83.549 -94.4441
687.753032 83.546 -93.7623
692.736774 83.541 -93.0702
697.756631 83.536 -92.3633
702.812863 83.530 -91.6401
707.905735 83.525 -90.9034
713.035511 83.522 -90.1578
718.202461 83.519 -89.4070
723.406852 83.518 -88.6516
728.648956 83.517 -87.8902
733.929047 83.516 -87.1216
739.247399 83.516 -86.3451
744.604290 83.516 -85.5605
750.000000 83.518 -84.7678
755.434809 83.520 -83.9671
760.909001 83.523 -83.1587
766.422861 83.528 -82.3431
771.976677 83.534 -81.5212
777.570739 83.542 -80.6937
783.205337 83.550 -79.8610
788.880766 83.561 -79.0215
794.597321 83.572 -78.1725
800.355301 83.586 -77.3122
806.155005 83.602 -76.4428
811.996736 83.623 -75.5708
817.880799 83.647 -74.7047
823.807501 83.675 -73.8539
829.777150 83.705 -73.0265
835.790057 83.735 -72.2245
841.846536 83.764 -71.4411
847.946903 83.792 -70.6652
854.091476 83.818 -69.8887
860.280575 83.843 -69.1077
866.514523 83.868 -68.3195
872.793644 83.893 -67.5210
879.118267 83.918 -66.7129
885.488720 83.945 -65.8994
891.905336 83.973 -65.0844
898.368450 84.002 -64.2681
904.878398 84.033 -63.4481
911.435520 84.064 -62.6237
918.040157 84.097 -61.7972
924.692655 84.132 -60.9717
931.393359 84.169 -60.1509
938.142619 84.207 -59.3382
944.940787 84.246 -58.5345
951.788218 84.285 -57.7381
958.685268 84.324 -56.9458
965.632296 84.363 -56.1542
972.629666 84.403 -55.3604
979.677741 84.442 -54.5629
986.776890 84.482 -53.7623
993.927482 84.522 -52.9577
1001.129891 84.563 -52.1454
1008.384491 84.605 -51.3217
1015.691660 84.650 -50.4868
1023.051781 84.698 -49.6452
1030.465236 84.751 -48.8043
1037.932411 84.807 -47.9762
1045.453698 84.867 -47.1738
1053.029486 84.928 -46.4032
1060.660172 84.989 -45.6604
1068.346153 85.047 -44.9365
1076.087829 85.105 -44.2221
1083.885605 85.161 -43.5111
1091.739887 85.217 -42.8021
1099.651084 85.272 -42.0957
1107.619609 85.328 -41.3923
1115.645878 85.382 -40.6915
1123.730308 85.437 -39.9927
1131.873321 85.491 -39.2947
1140.075341 85.546 -38.5964
1148.336797 85.600 -37.8969
1156.658119 85.655 -37.1951
1165.039741 85.710 -36.4897
1173.482099 85.766 -35.7790
1181.985634 85.824 -35.0638
1190.550789 85.885 -34.3508
1199.178011 85.949 -33.6515
1207.867749 86.015 -32.9781
1216.620457 86.081 -32.3363
1225.436590 86.145 -31.7222
1234.316609 86.206 -31.1267
1243.260976 86.265 -30.5405
1252.270157 86.320 -29.9556
1261.344623 86.373 -29.3675
1270.484846 86.424 -28.7743
1279.691303 86.473 -28.1740
1288.964474 86.522 -27.5645
1298.304842 86.571 -26.9461
1307.712894 86.619 -26.3208
1317.189120 86.668 -25.6925
1326.734016 86.717 -25.0637
1336.348077 86.764 -24.4338
1346.031806 86.811 -23.8001
1355.785708 86.857 -23.1583
1365.610290 86.902 -22.5044
1375.506065 86.947 -21.8334
1385.473549 86.993 -21.1400
1395.513261 87.041 -20.4232
1405.625726 87.092 -19.6886
1415.811469 87.149 -18.9489
1426.071023 87.209 -18.2197
1436.404921 87.273 -17.5110
1446.813703 87.337 -16.8238
1457.297912 87.401 -16.1529
1467.858093 87.465 -15.4925
1478.494798 87.529 -14.8382
1489.208581 87.592 -14.1872
1500.000000 87.656 -13.5363
1510.869618 87.719 -12.8831
1521.818002 87.783 -12.2254
1532.845723 87.849 -11.5618
1543.953355 87.916 -10.8918
1555.141477 87.986 -10.2163
1566.410674 88.060 -9.5411
1577.761531 88.139 -8.8787
1589.194642 88.221 -8.2442
1600.710601 88.305 -7.6474
1612.310010 88.389 -7.0889
1623.993473 88.472 -6.5632
1635.761599 88.552 -6.0623
1647.615002 88.630 -5.5795
1659.554299 88.706 -5.1092
1671.580114 88.779 -4.6473
1683.693072 88.851 -4.1926
1695.893807 88.921 -3.7459
1708.182952 88.989 -3.3081
1720.561150 89.055 -2.8774
1733.029045 89.117 -2.4490
1745.587288 89.177 -2.0159
1758.236533 89.235 -1.5697
1770.977440 89.291 -1.1034
1783.810673 89.349 -0.6171
1796.736900 89.408 -0.1199
1809.756796 89.471 0.3743
1822.871040 89.535 0.8549
1836.080315 89.599 1.3183
1849.385310 89.663 1.7664
1862.786718 89.726 2.2034
1876.285239 89.787 2.6346
1889.881575 89.846 3.0659
1903.576436 89.903 3.5032
1917.370535 89.960 3.9520
1931.264593 90.018 4.4160
1945.259332 90.077 4.8935
1959.355483 90.140 5.3750
1973.553781 90.206 5.8456
1987.854965 90.274 6.2940
2002.259781 90.342 6.7164
2016.768981 90.410 7.1152
2031.383320 90.476 7.4953
2046.103561 90.541 7.8626
2060.930471 90.604 8.2214
2075.864823 90.665 8.5731
2090.907395 90.724 8.9184
2106.058972 90.782 9.2594
2121.320344 90.837 9.6020
2136.692305 90.889 9.9549
2152.175658 90.942 10.3263
2167.771210 90.995 10.7180
2183.479774 91.051 11.1220
2199.302169 91.111 11.5247
2215.239219 91.173 11.9147
2231.291755 91.238 12.2851
2247.460615 91.304 12.6334
2263.746641 91.370 12.9606
2280.150683 91.435 13.2706
2296.673595 91.499 13.5692
2313.316238 91.564 13.8616
2330.079481 91.629 14.1483
2346.964198 91.695 14.4222
2363.971268 91.764 14.6722
2381.101578 91.832 14.8900
2398.356022 91.900 15.0736
2415.735498 91.965 15.2254
2433.240913 92.028 15.3506
2450.873180 92.086 15.4540
2468.633217 92.141 15.5387
2486.521951 92.191 15.6085
2504.540314 92.237 15.6702
2522.689246 92.278 15.7341
2540.969692 92.315 15.8102
2559.382606 92.351 15.9018
2577.928947 92.385 16.0034
2596.609683 92.420 16.1063
2615.425787 92.454 16.2034
2634.378241 92.487 16.2921
2653.468031 92.518 16.3742
2672.696154 92.546 16.4561
2692.063613 92.572 16.5453
2711.571415 92.598 16.6462
2731.220579 92.625 16.7543
2751.012130 92.653 16.8585
2770.947098 92.683 16.9469
2791.026522 92.713 17.0117
2811.251451 92.742 17.0501
2831.622938 92.769 17.0623
2852.142045 92.792 17.0500
2872.809842 92.811 17.0172
2893.627406 92.825 16.9722
2914.595823 92.832 16.9278
2935.716186 92.836 16.8954
2956.989596 92.835 16.8789
2978.417161 92.833 16.8751
3000.000000 92.828 16.8783
3021.739237 92.822 16.8851
3043.636005 92.812 16.8966
3065.691446 92.799 16.9195
3087.906710 92.784 16.9626
3110.282955 92.768 17.0300
3132.821347 92.752 17.1176
3155.523062 92.737 17.2164
3178.389283 92.723 17.3168
3201.421202 92.711 17.4120
3224.620020 92.698 17.4971
3247.986946 92.684 17.5697
3271.523198 92.667 17.6319
3295.230004 92.647 17.6915
3319.108599 92.623 17.7593
3343.160228 92.597 17.8416
3367.386145 92.570 17.9381
3391.787613 92.542 18.0449
3416.365904 92.512 18.1591
3441.122300 92.481 18.2827
3466.058091 92.448 18.4232
3491.174576 92.413 18.5884
3516.473066 92.380 18.7798
3541.954880 92.348 18.9916
3567.621345 92.320 19.2147
3593.473800 92.294 19.4393
3619.513592 92.270 19.6566
3645.742080 92.248 19.8607
3672.160630 92.226 20.0521
3698.770620 92.203 20.2377
3725.573436 92.180 20.4244
3752.570477 92.156 20.6133
3779.763150 92.134 20.8003
3807.152872 92.113 20.9804
3834.741071 92.091 21.1529
3862.529185 92.069 21.3225
3890.518664 92.048 21.4931
3918.710966 92.028 21.6626
3947.107561 92.010 21.8226
3975.709929 91.995 21.9623
4004.519563 91.981 22.0704
4033.537962 91.966 22.1390
4062.766641 91.948 22.1684
4092.207123 91.926 22.1676
4121.860942 91.899 22.1476
4151.729646 91.866 22.1164
4181.814790 91.828 22.0781
4212.117944 91.784 22.0386
4242.640687 91.733 22.0089
4273.384610 91.677 22.0022
4304.351317 91.617 22.0275
4335.542421 91.555 22.0863
4366.959549 91.492 22.1737
4398.604338 91.430 22.2803
4430.478438 91.369 22.3964
4462.583511 91.306 22.5188
4494.921231 91.243 22.6503
4527.493283 91.179 22.7942
4560.301365 91.115 22.9505
4593.347189 91.049 23.1189
4626.632476 90.983 23.3033
4660.158962 90.916 23.5113
4693.928395 90.851 23.7484
4727.942535 90.788 24.0123
4762.203156 90.731 24.2922
4796.712043 90.679 24.5702
4831.470996 90.633 24.8270
4866.481826 90.591 25.0494
4901.746360 90.551 25.2301
4937.266434 90.511 25.3647
4973.043902 90.468 25.4510
5009.080628 90.421 25.4941
5045.378492 90.366 25.5085
5081.939384 90.304 25.5135
5118.765212 90.234 25.5267
5155.857894 90.157 25.5599
5193.219366 90.075 25.6168
5230.851574 89.990 25.6976
5268.756481 89.900 25.8040
5306.936062 89.808 25.9379
5345.392309 89.713 26.0989
5384.127225 89.616 26.2862
5423.142830 89.516 26.5038
5462.441159 89.413 26.7608
5502.024259 89.308 27.0673
5541.894195 89.204 27.4294
5582.053045 89.101 27.8449
5622.502902 89.003 28.3061
5663.245876 88.910 28.8042
5704.284090 88.822 29.3297
5745.619684 88.741 29.8718
5787.254813 88.664 30.4207
5829.191647 88.591 30.9739
5871.432373 88.521 31.5357
5913.979192 88.455 32.1141
5956.834323 88.392 32.7141
6000.000000 88.334 33.3352
6043.478473 88.282 33.9734
6087.272010 88.236 34.6230
6131.382892 88.198 35.2756
6175.813420 88.167 35.9222
6220.565910 88.141 36.5582
6265.642695 88.120 37.1853
6311.046124 88.105 37.8096
6356.778566 88.094 38.4363
6402.842404 88.090 39.0666
6449.240040 88.093 39.6988
6495.973891 88.105 40.3281
6543.046396 88.125 40.9464
6590.460007 88.155 41.5456
6638.217197 88.193 42.1216
6686.320456 88.240 42.6751
6734.772290 88.295 43.2083
6783.575226 88.361 43.7208
6832.731809 88.438 44.2087
6882.244600 88.527 44.6643
6932.116181 88.631 45.0741
6982.349153 88.749 45.4225
7032.946133 88.880 45.6965
7083.909760 89.025 45.8869
7135.242690 89.185 45.9852
7186.947600 89.358 45.9806
7239.027185 89.547 45.8580
7291.484160 89.751 45.5967
7344.321260 89.970 45.1703
7397.541239 90.202 44.5507
7451.146872 90.444 43.7138
7505.140954 90.692 42.6407
7559.526299 90.943 41.3151
7614.305743 91.193 39.7224
7669.482141 91.437 37.8485
7725.058371 91.670 35.6790
7781.037328 91.884 33.2037
7837.421932 92.072 30.4241
7894.215122 92.223 27.3573
7951.419859 92.331 24.0360
8009.039125 92.387 20.5063
8067.075924 92.387 16.8238
8125.533282 92.328 13.0473
8184.414245 92.207 9.2371
8243.721885 92.025 5.4555
8303.459292 91.781 1.7669
8363.629581 91.480 -1.7662
8424.235888 91.126 -5.0863
8485.281374 90.726 -8.1477
8546.769221 90.289 -10.9218
8608.702634 89.824 -13.3968
8671.084842 89.339 -15.5718
8733.919097 88.840 -17.4519
8797.208675 88.333 -19.0443
8860.956876 87.824 -20.3578
8925.167022 87.319 -21.4071
8989.842461 86.822 -22.2153
9054.986566 86.338 -22.8103
9120.602731 85.870 -23.2198
9186.694378 85.418 -23.4661
9253.264952 84.983 -23.5647
9320.317925 84.566 -23.5289
9387.856790 84.169 -23.3756
9455.885071 83.793 -23.1254
9524.406312 83.437 -22.7990
9593.424086 83.101 -22.4119
9662.941992 82.784 -21.9715
9732.963653 82.486 -21.4822
9803.492719 82.206 -20.9516
9874.532869 81.946 -20.3921
9946.087805 81.705 -19.8175
10018.161257 81.482 -19.2365
10090.756983 81.276 -18.6509
10163.878768 81.086 -18.0606
10237.530423 80.913 -17.4701
10311.715789 80.757 -16.8883
10386.438732 80.617 -16.3242
10461.703149 80.492 -15.7804
10537.512962 80.381 -15.2552
10613.872125 80.285 -14.7486
10690.784618 80.203 -14.2661
10768.254450 80.136 -13.8156
10846.285661 80.082 -13.3997
10924.882318 80.042 -13.0149
11004.048518 80.015 -12.6570
11083.788390 80.002 -12.3258
11164.106090 80.004 -12.0252
11245.005805 80.020 -11.7571
11326.491752 80.050 -11.5182
11408.568180 80.096 -11.3041
11491.239368 80.158 -11.1154
11574.509626 80.240 -10.9583
11658.383294 80.341 -10.8385
11742.864745 80.464 -10.7578
11827.958384 80.611 -10.7184
11913.668646 80.786 -10.7283
12000.000000 80.992 -10.8035
12086.956947 81.232 -10.9634
12174.544019 81.511 -11.2298
12262.765784 81.833 -11.6320
12351.626840 82.204 -12.2129
12441.131819 82.627 -13.0293
12531.285389 83.103 -14.1474
12622.092249 83.632 -15.6414
12713.557132 84.211 -17.5958
12805.684808 84.829 -20.1030
12898.480079 85.474 -23.2530
12991.947783 86.123 -27.1205
13086.092792 86.754 -31.7556
13180.920015 87.336 -37.1756
13276.434395 87.839 -43.3529
13372.640911 88.233 -50.2037
13469.544580 88.493 -57.5841
13567.150452 88.600 -65.2991
13665.463617 88.545 -73.1213
13764.489200 88.332 -80.8153
13864.232362 87.974 -88.1654
13964.698305 87.493 -95.0006
14065.892266 86.918 -101.2092
14167.819519 86.282 -106.7385
14270.485380 85.616 -111.5866
14373.895200 84.949 -115.7926
14478.054370 84.308 -119.4287
14582.968320 83.714 -122.5885
14688.642520 83.182 -125.3740
14795.082478 82.723 -127.8906
14902.293745 82.345 -130.2444
15010.281908 82.052 -132.5389
15119.052599 81.844 -134.8717
15228.611486 81.719 -137.3370
15338.964283 81.675 -140.0280
15450.116741 81.704 -143.0364
15562.074656 81.797 -146.4494
15674.843864 81.942 -150.3460
15788.430244 82.122 -154.7926
15902.839718 82.314 -159.8339
16018.078250 82.495 -165.4854
16134.151848 82.640 -171.7288
16251.066563 82.724 -178.5091
16368.828491 82.723 174.2684
16487.443769 82.620 166.7338
16606.918584 82.403 159.0415
16727.259161 82.069 151.3557
16848.471777 81.623 143.8351
16970.562748 81.074 136.6157
17093.538442 80.441 129.7993
17217.405268 79.745 123.4495
17342.169684 79.008 117.5905
17467.838194 78.254 112.2096
17594.417350 77.504 107.2626
17721.913751 76.780 102.6826
17850.334044 76.096 98.3839
17979.684923 75.467 94.2686
18109.973131 74.899 90.2338
18241.205462 74.394 86.1745
18373.388756 73.952 81.9893
18506.529905 73.564 77.5888
18640.635849 73.219 72.9008
18775.713581 72.902 67.8728
18911.770141 72.594 62.4780
19048.812624 72.278 56.7201
19186.848172 71.935 50.6408
19325.883983 71.556 44.3318
19465.927305 71.138 37.9575
19606.985439 70.698 31.7924
19749.065738 70.274 26.2657
19892.175609 69.928 21.9746
20036.322514 69.731 19.5885
