* Measurement data measured by REW V5.31.3
* Source: EXCL: Microphone (USB Sound Device        ), MICROPHONE (Master Volume), R, volume: 0.390
* Format: 256k Log Swept Sine, 1 sweep at -15.0 dBFS with no timing reference
* Dated: Apr 27, 2025 11:41:49 PM
* REW Settings:
*  C-weighting compensation: Off
*  Target level: 75.0 dB
* Note: Tanchjim Zero Ultima L
* Measurement: L Tanchjim Zero Ultima
* Smoothing: 1/12 octave
* Frequency Step: 96 ppo
* Start Frequency: 0.36621094 Hz
*
* Freq(Hz) SPL(dB) Phase(degrees)
0.366211 94.778 156.3183
0.368865 94.772 156.2937
0.371538 94.763 156.2569
0.374230 94.752 156.2107
0.376942 94.740 156.1573
0.379673 94.727 156.0987
0.382424 94.713 156.0359
0.385196 94.699 155.9696
0.387987 94.685 155.9003
0.390798 94.670 155.8282
0.393630 94.656 155.7533
0.396483 94.641 155.6757
0.399356 94.626 155.5955
0.402250 94.611 155.5125
0.405165 94.596 155.4268
0.408101 94.580 155.3384
0.411058 94.565 155.2472
0.414037 94.550 155.1532
0.417037 94.534 155.0564
0.420059 94.518 154.9567
0.423103 94.502 154.8542
0.426169 94.486 154.7488
0.429257 94.470 154.6404
0.432368 94.454 154.5291
0.435501 94.438 154.4148
0.438656 94.422 154.2975
0.441835 94.405 154.1772
0.445037 94.388 154.0539
0.448262 94.372 153.9275
0.451510 94.355 153.7979
0.454782 94.338 153.6653
0.458077 94.321 153.5295
0.461397 94.303 153.3905
0.464740 94.286 153.2484
0.468108 94.268 153.1031
0.471500 94.251 152.9545
0.474917 94.233 152.8028
0.478358 94.215 152.6478
0.481825 94.197 152.4895
0.485316 94.179 152.3279
0.488833 94.161 152.1630
0.492375 94.142 151.9949
0.495943 94.124 151.8234
0.499537 94.105 151.6486
0.503157 94.086 151.4705
0.506803 94.067 151.2891
0.510475 94.048 151.1043
0.514175 94.029 150.9162
0.517900 94.009 150.7248
0.521653 93.990 150.5300
0.525434 93.970 150.3319
0.529241 93.951 150.1305
0.533076 93.931 149.9258
0.536939 93.910 149.7178
0.540830 93.890 149.5066
0.544749 93.870 149.2921
0.548696 93.849 149.0743
0.552673 93.829 148.8534
0.556677 93.808 148.6292
0.560711 93.787 148.4020
0.564774 93.766 148.1716
0.568867 93.744 147.9381
0.572989 93.723 147.7016
0.577141 93.701 147.4622
0.581324 93.680 147.2198
0.585536 93.658 146.9745
0.589779 93.636 146.7265
0.594053 93.614 146.4756
0.598358 93.591 146.2222
0.602694 93.569 145.9661
0.607061 93.546 145.7075
0.611460 93.523 145.4465
0.615891 93.500 145.1832
0.620354 93.477 144.9176
0.624849 93.453 144.6499
0.629377 93.430 144.3803
0.633938 93.406 144.1087
0.638532 93.382 143.8354
0.643159 93.358 143.5605
0.647819 93.334 143.2842
0.652514 93.310 143.0065
0.657242 93.285 142.7276
0.662005 93.260 142.4478
0.666802 93.235 142.1672
0.671634 93.210 141.8860
0.676501 93.185 141.6044
0.681403 93.159 141.3226
0.686341 93.134 141.0408
0.691314 93.108 140.7592
0.696324 93.082 140.4781
0.701370 93.055 140.1976
0.706452 93.028 139.9179
0.711571 93.001 139.6392
0.716728 92.973 139.3612
0.721921 92.943 139.0839
0.727153 92.913 138.8067
0.732422 92.880 138.5288
0.737729 92.845 138.2491
0.743075 92.808 137.9666
0.748460 92.769 137.6801
0.753883 92.729 137.3889
0.759346 92.688 137.0926
0.764849 92.647 136.7906
0.770391 92.604 136.4829
0.775974 92.561 136.1691
0.781597 92.518 135.8492
0.787261 92.473 135.5231
0.792966 92.429 135.1907
0.798712 92.384 134.8519
0.804500 92.338 134.5067
0.810329 92.291 134.1550
0.816201 92.244 133.7967
0.822116 92.196 133.4319
0.828073 92.148 133.0604
0.834074 92.099 132.6823
0.840118 92.049 132.2975
0.846206 91.998 131.9061
0.852338 91.947 131.5079
0.858514 91.894 131.1030
0.864735 91.841 130.6914
0.871001 91.787 130.2731
0.877313 91.731 129.8482
0.883670 91.675 129.4167
0.890074 91.618 128.9787
0.896524 91.560 128.5342
0.903020 91.500 128.0833
0.909564 91.439 127.6261
0.916155 91.378 127.1628
0.922794 91.314 126.6936
0.929481 91.250 126.2185
0.936216 91.184 125.7377
0.943000 91.117 125.2516
0.949834 91.048 124.7602
0.956717 90.978 124.2640
0.963649 90.906 123.7632
0.970632 90.832 123.2581
0.977666 90.757 122.7491
0.984750 90.680 122.2366
0.991886 90.602 121.7211
0.999074 90.521 121.2031
1.006314 90.438 120.6830
1.013606 90.354 120.1615
1.020951 90.267 119.6391
1.028349 90.178 119.1166
1.035801 90.087 118.5947
1.043307 89.993 118.0741
1.050867 89.897 117.5557
1.058482 89.799 117.0402
1.066152 89.698 116.5285
1.073878 89.595 116.0213
1.081660 89.490 115.5192
1.089498 89.383 115.0225
1.097393 89.274 114.5310
1.105345 89.164 114.0445
1.113355 89.053 113.5621
1.121423 88.942 113.0831
1.129549 88.831 112.6068
1.137734 88.720 112.1324
1.145979 88.609 111.6594
1.154283 88.498 111.1873
1.162647 88.387 110.7156
1.171072 88.275 110.2440
1.179558 88.163 109.7719
1.188106 88.049 109.2989
1.196715 87.934 108.8246
1.205387 87.817 108.3485
1.214122 87.698 107.8701
1.222920 87.577 107.3890
1.231782 87.453 106.9046
1.240708 87.325 106.4163
1.249699 87.194 105.9237
1.258754 87.059 105.4260
1.267876 86.920 104.9228
1.277063 86.776 104.4133
1.286318 86.626 103.8969
1.295639 86.470 103.3729
1.305027 86.308 102.8406
1.314484 86.139 102.2992
1.324009 85.963 101.7480
1.333604 85.778 101.1861
1.343268 85.586 100.6128
1.353002 85.384 100.0273
1.362806 85.172 99.4287
1.372681 84.950 98.8163
1.382628 84.717 98.1893
1.392647 84.472 97.5471
1.402739 84.215 96.8889
1.412904 83.944 96.2143
1.423142 83.659 95.5232
1.433455 83.358 94.8155
1.443843 83.040 94.0919
1.454305 82.701 93.3531
1.464844 82.340 92.6006
1.475459 81.953 91.8356
1.486150 81.535 91.0593
1.496920 81.086 90.2722
1.507767 80.603 89.4737
1.518693 80.085 88.6629
1.529698 79.534 87.8377
1.540783 78.951 86.9957
1.551948 78.338 86.1338
1.563194 77.696 85.2481
1.574521 77.028 84.3340
1.585931 76.337 83.3859
1.597423 75.626 82.3973
1.608999 74.898 81.3599
1.620658 74.157 80.2638
1.632402 73.406 79.0964
1.644232 72.648 77.8419
1.656146 71.890 76.4806
1.668147 71.134 74.9863
1.680235 70.386 73.3251
1.692411 69.651 71.4512
1.704675 68.935 69.3025
1.717028 68.245 66.7920
1.729470 67.586 63.7960
1.742003 66.966 60.1337
1.754626 66.394 55.5358
1.767341 65.878 49.5968
1.780147 65.427 41.7138
1.793047 65.051 31.0673
1.806040 64.759 16.8558
1.819128 64.561 -0.7989
1.832310 64.463 -19.7267
1.845587 64.470 -36.7600
1.858961 64.582 -50.3164
1.872432 64.798 -60.6291
1.886001 65.113 -68.5155
1.899667 65.519 -74.7021
1.913433 66.008 -79.7012
1.927299 66.571 -83.8529
1.941265 67.197 -87.3822
1.955332 67.879 -90.4409
1.969501 68.605 -93.1335
1.983773 69.367 -95.5340
1.998148 70.154 -97.6958
2.012627 70.959 -99.6583
2.027212 71.770 -101.4513
2.041902 72.581 -103.0976
2.056698 73.382 -104.6150
2.071602 74.165 -106.0175
2.086614 74.921 -107.3166
2.101734 75.644 -108.5219
2.116964 76.326 -109.6421
2.132304 76.962 -110.6854
2.147756 77.545 -111.6609
2.163320 78.074 -112.5791
2.178996 78.548 -113.4533
2.194786 78.967 -114.2990
2.210690 79.337 -115.1335
2.226710 79.662 -115.9728
2.242845 79.949 -116.8286
2.259098 80.199 -117.7076
2.275468 80.418 -118.6120
2.291957 80.607 -119.5407
2.308566 80.769 -120.4908
2.325295 80.905 -121.4578
2.342145 81.018 -122.4365
2.359117 81.110 -123.4215
2.376212 81.181 -124.4069
2.393431 81.235 -125.3865
2.410775 81.274 -126.3544
2.428244 81.299 -127.3042
2.445840 81.314 -128.2299
2.463564 81.319 -129.1257
2.481416 81.318 -129.9863
2.499397 81.313 -130.8078
2.517509 81.305 -131.5880
2.535752 81.295 -132.3280
2.554127 81.283 -133.0323
2.572635 81.268 -133.7095
2.591277 81.247 -134.3702
2.610055 81.220 -135.0245
2.628968 81.184 -135.6799
2.648019 81.138 -136.3409
2.667208 81.081 -137.0089
2.686535 81.013 -137.6831
2.706003 80.933 -138.3609
2.725612 80.842 -139.0382
2.745363 80.739 -139.7094
2.765257 80.625 -140.3678
2.785295 80.498 -141.0054
2.805478 80.360 -141.6131
2.825808 80.210 -142.1805
2.846285 80.047 -142.6965
2.866910 79.871 -143.1496
2.887685 79.681 -143.5286
2.908611 79.475 -143.8238
2.929688 79.249 -144.0276
2.950917 79.001 -144.1350
2.972301 78.729 -144.1426
2.993839 78.431 -144.0462
3.015534 78.107 -143.8404
3.037386 77.761 -143.5173
3.059396 77.396 -143.0665
3.081565 77.017 -142.4753
3.103896 76.630 -141.7284
3.126388 76.241 -140.8081
3.149043 75.859 -139.6947
3.171862 75.490 -138.3668
3.194847 75.145 -136.8017
3.217998 74.831 -134.9756
3.241317 74.558 -132.8646
3.264805 74.333 -130.4449
3.288463 74.160 -127.6933
3.312293 74.044 -124.5909
3.336295 73.983 -121.1298
3.360471 73.975 -117.3245
3.384822 74.016 -113.2198
3.409350 74.103 -108.8939
3.434056 74.228 -104.4525
3.458940 74.388 -100.0180
3.484005 74.577 -95.7134
3.509252 74.791 -91.6472
3.534681 75.023 -87.9032
3.560295 75.271 -84.5358
3.586094 75.532 -81.5711
3.612081 75.804 -79.0116
3.638255 76.086 -76.8417
3.664620 76.382 -75.0335
3.691175 76.692 -73.5521
3.717923 77.019 -72.3601
3.744864 77.362 -71.4213
3.772001 77.720 -70.7020
3.799335 78.087 -70.1714
3.826866 78.460 -69.8024
3.854597 78.833 -69.5711
3.882529 79.201 -69.4572
3.910664 79.557 -69.4442
3.939002 79.896 -69.5194
3.967546 80.216 -69.6742
3.996296 80.513 -69.9039
4.025255 80.785 -70.2074
4.054423 81.034 -70.5851
4.083804 81.259 -71.0366
4.113396 81.464 -71.5579
4.143204 81.649 -72.1410
4.173227 81.816 -72.7752
4.203468 81.967 -73.4477
4.233928 82.102 -74.1456
4.264609 82.223 -74.8569
4.295512 82.331 -75.5717
4.326639 82.427 -76.2829
4.357992 82.510 -76.9877
4.389572 82.581 -77.6881
4.421380 82.638 -78.3893
4.453419 82.683 -79.0974
4.485691 82.714 -79.8157
4.518196 82.731 -80.5429
4.550936 82.734 -81.2737
4.583914 82.725 -81.9991
4.617131 82.704 -82.7081
4.650589 82.672 -83.3886
4.684289 82.629 -84.0293
4.718233 82.575 -84.6207
4.752424 82.511 -85.1572
4.786862 82.435 -85.6369
4.821549 82.348 -86.0606
4.856488 82.250 -86.4296
4.891680 82.141 -86.7440
4.927127 82.023 -87.0017
4.962831 81.898 -87.1982
4.998794 81.768 -87.3270
5.035017 81.635 -87.3803
5.071503 81.501 -87.3487
5.108253 81.366 -87.2229
5.145270 81.232 -86.9941
5.182555 81.098 -86.6564
5.220110 80.964 -86.2077
5.257937 80.832 -85.6513
5.296038 80.705 -84.9946
5.334415 80.585 -84.2493
5.373071 80.475 -83.4291
5.412006 80.379 -82.5484
5.451224 80.301 -81.6200
5.490725 80.242 -80.6540
5.530514 80.204 -79.6580
5.570590 80.187 -78.6406
5.610957 80.189 -77.6150
5.651616 80.210 -76.5998
5.692570 80.247 -75.6179
5.733821 80.297 -74.6936
5.775370 80.360 -73.8493
5.817221 80.434 -73.1034
5.859375 80.519 -72.4674
5.901834 80.613 -71.9467
5.944602 80.716 -71.5412
5.987679 80.827 -71.2489
6.031068 80.943 -71.0669
6.074771 81.061 -70.9928
6.118792 81.177 -71.0249
6.163131 81.289 -71.1624
6.207792 81.395 -71.4051
6.252776 81.492 -71.7521
6.298086 81.582 -72.2001
6.343725 81.663 -72.7418
6.389694 81.735 -73.3665
6.435996 81.798 -74.0611
6.482634 81.851 -74.8130
6.529610 81.892 -75.6119
6.576926 81.923 -76.4517
6.624585 81.941 -77.3296
6.672590 81.947 -78.2444
6.720942 81.941 -79.1919
6.769645 81.924 -80.1643
6.818700 81.897 -81.1503
6.868111 81.859 -82.1373
6.917881 81.811 -83.1144
6.968010 81.755 -84.0740
7.018504 81.689 -85.0124
7.069362 81.615 -85.9275
7.120590 81.534 -86.8161
7.172189 81.447 -87.6732
7.224161 81.357 -88.4914
7.276511 81.265 -89.2627
7.329239 81.172 -89.9800
7.382350 81.080 -90.6390
7.435845 80.990 -91.2390
7.489729 80.903 -91.7828
7.544002 80.822 -92.2751
7.598669 80.749 -92.7211
7.653732 80.687 -93.1253
7.709194 80.636 -93.4910
7.765058 80.598 -93.8224
7.821327 80.575 -94.1266
7.878004 80.565 -94.4146
7.935091 80.569 -94.7002
7.992592 80.589 -94.9976
8.050510 80.623 -95.3184
8.108847 80.671 -95.6703
8.167607 80.733 -96.0589
8.226793 80.807 -96.4891
8.286408 80.892 -96.9663
8.346454 80.985 -97.4959
8.406936 81.084 -98.0819
8.467856 81.189 -98.7254
8.529218 81.297 -99.4241
8.591024 81.408 -100.1729
8.653278 81.520 -100.9651
8.715983 81.631 -101.7942
8.779143 81.740 -102.6542
8.842760 81.846 -103.5397
8.906839 81.949 -104.4440
8.971381 82.047 -105.3584
9.036392 82.141 -106.2728
9.101873 82.231 -107.1775
9.167829 82.316 -108.0644
9.234263 82.397 -108.9274
9.301178 82.473 -109.7609
9.368578 82.546 -110.5589
9.436467 82.616 -111.3153
9.504847 82.684 -112.0243
9.573723 82.751 -112.6824
9.643099 82.816 -113.2881
9.712976 82.882 -113.8415
9.783361 82.949 -114.3433
9.854255 83.018 -114.7951
9.925663 83.089 -115.1986
9.997588 83.164 -115.5571
10.070035 83.241 -115.8753
10.143007 83.322 -116.1589
10.216507 83.407 -116.4139
10.290540 83.495 -116.6458
10.365109 83.586 -116.8593
10.440219 83.679 -117.0589
10.515873 83.775 -117.2492
10.592076 83.871 -117.4343
10.668830 83.968 -117.6169
10.746141 84.065 -117.7988
10.824012 84.161 -117.9804
10.902447 84.254 -118.1615
10.981451 84.346 -118.3416
11.061027 84.434 -118.5195
11.141180 84.519 -118.6936
11.221913 84.601 -118.8619
11.303232 84.679 -119.0219
11.385140 84.753 -119.1718
11.467641 84.824 -119.3100
11.550741 84.892 -119.4356
11.634442 84.956 -119.5478
11.718750 85.017 -119.6465
11.803669 85.076 -119.7321
11.889203 85.133 -119.8057
11.975357 85.187 -119.8692
12.062136 85.240 -119.9246
12.149543 85.290 -119.9742
12.237583 85.339 -120.0203
12.326262 85.386 -120.0650
12.415583 85.431 -120.1107
12.505552 85.473 -120.1590
12.596172 85.512 -120.2112
12.687449 85.549 -120.2677
12.779387 85.582 -120.3289
12.871992 85.613 -120.3944
12.965268 85.639 -120.4636
13.059220 85.663 -120.5356
13.153852 85.682 -120.6092
13.249170 85.699 -120.6836
13.345179 85.713 -120.7582
13.441884 85.725 -120.8329
13.539289 85.734 -120.9082
13.637401 85.742 -120.9850
13.736223 85.749 -121.0654
13.835761 85.755 -121.1518
13.936021 85.761 -121.2473
14.037007 85.767 -121.3551
14.138725 85.773 -121.4787
14.241180 85.779 -121.6216
14.344377 85.785 -121.7866
14.448323 85.791 -121.9760
14.553021 85.796 -122.1910
14.658478 85.799 -122.4322
14.764700 85.801 -122.6989
14.871691 85.802 -122.9896
14.979457 85.801 -123.3018
15.088005 85.798 -123.6325
15.197339 85.793 -123.9783
15.307465 85.787 -124.3359
15.418389 85.780 -124.7018
15.530117 85.773 -125.0736
15.642655 85.767 -125.4493
15.756008 85.762 -125.8278
15.870182 85.759 -126.2091
15.985184 85.759 -126.5940
16.101019 85.762 -126.9839
16.217694 85.769 -127.3809
16.335214 85.780 -127.7868
16.453586 85.795 -128.2036
16.572815 85.813 -128.6325
16.692909 85.834 -129.0737
16.813872 85.858 -129.5265
16.935713 85.885 -129.9893
17.058436 85.913 -130.4592
17.182048 85.942 -130.9326
17.306556 85.973 -131.4054
17.431967 86.005 -131.8732
17.558286 86.037 -132.3317
17.685521 86.071 -132.7773
17.813677 86.106 -133.2068
17.942762 86.143 -133.6183
18.072783 86.181 -134.0104
18.203746 86.222 -134.3828
18.335658 86.264 -134.7360
18.468526 86.308 -135.0708
18.602356 86.353 -135.3884
18.737156 86.399 -135.6897
18.872934 86.447 -135.9755
19.009695 86.494 -136.2463
19.147447 86.541 -136.5022
19.286197 86.588 -136.7429
19.425953 86.634 -136.9682
19.566721 86.679 -137.1776
19.708510 86.722 -137.3713
19.851326 86.764 -137.5495
19.995177 86.804 -137.7131
20.140070 86.843 -137.8634
20.286013 86.880 -138.0018
20.433014 86.915 -138.1302
20.581080 86.948 -138.2504
20.730219 86.979 -138.3638
20.880439 87.007 -138.4718
21.031747 87.032 -138.5753
21.184152 87.055 -138.6752
21.337661 87.075 -138.7722
21.492282 87.092 -138.8670
21.648024 87.107 -138.9609
21.804895 87.120 -139.0555
21.962902 87.131 -139.1528
22.122054 87.139 -139.2552
22.282360 87.146 -139.3653
22.443827 87.152 -139.4853
22.606464 87.156 -139.6173
22.770280 87.158 -139.7624
22.935283 87.159 -139.9211
23.101481 87.157 -140.0931
23.268884 87.155 -140.2775
23.437500 87.151 -140.4731
23.607338 87.147 -140.6788
23.778406 87.143 -140.8940
23.950714 87.139 -141.1185
24.124271 87.136 -141.3528
24.299086 87.134 -141.5979
24.475167 87.134 -141.8550
24.652524 87.136 -142.1247
24.831166 87.140 -142.4073
25.011103 87.146 -142.7021
25.192344 87.153 -143.0072
25.374898 87.161 -143.3201
25.558775 87.171 -143.6373
25.743984 87.182 -143.9556
25.930536 87.195 -144.2713
26.118439 87.209 -144.5818
26.307704 87.225 -144.8849
26.498341 87.243 -145.1790
26.690359 87.263 -145.4633
26.883768 87.284 -145.7370
27.078579 87.307 -145.9999
27.274801 87.331 -146.2513
27.472446 87.355 -146.4908
27.671522 87.381 -146.7179
27.872042 87.406 -146.9320
28.074014 87.430 -147.1330
28.277450 87.455 -147.3210
28.482360 87.479 -147.4962
28.688755 87.501 -147.6592
28.896645 87.523 -147.8109
29.106042 87.543 -147.9520
29.316957 87.562 -148.0839
29.529400 87.579 -148.2077
29.743382 87.594 -148.3251
29.958915 87.608 -148.4382
30.176009 87.620 -148.5492
30.394677 87.631 -148.6603
30.614929 87.639 -148.7737
30.836778 87.647 -148.8911
31.060234 87.652 -149.0140
31.285309 87.657 -149.1432
31.512015 87.659 -149.2794
31.740364 87.661 -149.4231
31.970368 87.662 -149.5748
32.202039 87.662 -149.7354
32.435388 87.663 -149.9052
32.670428 87.663 -150.0847
32.907171 87.663 -150.2738
33.145630 87.664 -150.4717
33.385817 87.665 -150.6770
33.627745 87.667 -150.8882
33.871425 87.669 -151.1036
34.116871 87.673 -151.3217
34.364096 87.678 -151.5414
34.613113 87.684 -151.7616
34.863934 87.691 -151.9814
35.116572 87.699 -152.1997
35.371041 87.708 -152.4150
35.627354 87.718 -152.6260
35.885525 87.728 -152.8309
36.145566 87.739 -153.0286
36.407492 87.749 -153.2181
36.671316 87.760 -153.3987
36.937051 87.770 -153.5700
37.204712 87.780 -153.7321
37.474313 87.789 -153.8849
37.745867 87.798 -154.0292
38.019389 87.806 -154.1659
38.294893 87.813 -154.2965
38.572394 87.819 -154.4229
38.851905 87.825 -154.5470
39.133442 87.830 -154.6702
39.417019 87.834 -154.7936
39.702651 87.837 -154.9176
39.990353 87.839 -155.0424
40.280140 87.840 -155.1683
40.572026 87.841 -155.2960
40.866028 87.842 -155.4265
41.162160 87.843 -155.5611
41.460438 87.844 -155.7010
41.760877 87.846 -155.8463
42.063494 87.847 -155.9968
42.368303 87.848 -156.1509
42.675322 87.849 -156.3066
42.984565 87.849 -156.4618
43.296048 87.850 -156.6146
43.609789 87.851 -156.7639
43.925804 87.853 -156.9097
44.244108 87.855 -157.0525
44.564719 87.857 -157.1931
44.887654 87.860 -157.3323
45.212928 87.863 -157.4701
45.540560 87.865 -157.6062
45.870565 87.867 -157.7399
46.202962 87.869 -157.8710
46.537768 87.870 -157.9993
46.875000 87.871 -158.1256
47.214676 87.873 -158.2507
47.556813 87.874 -158.3753
47.901429 87.874 -158.5000
48.248542 87.875 -158.6247
48.598171 87.875 -158.7491
48.950334 87.876 -158.8727
49.305048 87.876 -158.9952
49.662333 87.876 -159.1164
50.022206 87.877 -159.2361
50.384688 87.877 -159.3545
50.749796 87.878 -159.4712
51.117550 87.878 -159.5858
51.487969 87.879 -159.6977
51.861072 87.879 -159.8059
52.236879 87.879 -159.9100
52.615409 87.879 -160.0097
52.996681 87.878 -160.1052
53.380717 87.878 -160.1975
53.767536 87.877 -160.2880
54.157158 87.877 -160.3783
54.549603 87.877 -160.4698
54.944892 87.877 -160.5635
55.343045 87.877 -160.6600
55.744084 87.876 -160.7595
56.148028 87.877 -160.8623
56.554900 87.877 -160.9688
56.964720 87.878 -161.0792
57.377510 87.879 -161.1934
57.793291 87.881 -161.3107
58.212085 87.882 -161.4302
58.633914 87.884 -161.5515
59.058799 87.885 -161.6743
59.486764 87.886 -161.7979
59.917829 87.886 -161.9208
60.352019 87.884 -162.0403
60.789354 87.882 -162.1540
61.229859 87.879 -162.2603
61.673556 87.874 -162.3597
62.120468 87.870 -162.4541
62.570618 87.865 -162.5460
63.024031 87.859 -162.6369
63.480729 87.853 -162.7275
63.940736 87.847 -162.8175
64.404077 87.841 -162.9065
64.870776 87.835 -162.9953
65.340856 87.829 -163.0853
65.814343 87.824 -163.1779
66.291261 87.820 -163.2729
66.771635 87.815 -163.3689
67.255489 87.810 -163.4632
67.742850 87.805 -163.5535
68.233743 87.801 -163.6394
68.728193 87.796 -163.7214
69.226226 87.792 -163.8008
69.727867 87.788 -163.8784
70.233144 87.783 -163.9543
70.742083 87.778 -164.0284
71.254709 87.772 -164.1006
71.771050 87.766 -164.1712
72.291132 87.760 -164.2409
72.814984 87.755 -164.3107
73.342631 87.749 -164.3813
73.874102 87.743 -164.4529
74.409424 87.738 -164.5249
74.948626 87.732 -164.5966
75.491734 87.728 -164.6677
76.038779 87.723 -164.7384
76.589787 87.719 -164.8095
77.144788 87.715 -164.8819
77.703811 87.711 -164.9562
78.266885 87.706 -165.0329
78.834039 87.702 -165.1125
79.405303 87.697 -165.1961
79.980706 87.692 -165.2849
80.560280 87.687 -165.3796
81.144053 87.680 -165.4800
81.732056 87.672 -165.5849
82.324320 87.664 -165.6920
82.920876 87.654 -165.7985
83.521755 87.642 -165.9019
84.126988 87.630 -166.0004
84.736607 87.617 -166.0930
85.350643 87.603 -166.1794
85.969129 87.588 -166.2596
86.592097 87.573 -166.3333
87.219579 87.557 -166.3997
87.851608 87.541 -166.4584
88.488217 87.525 -166.5102
89.129439 87.509 -166.5563
89.775308 87.494 -166.5981
90.425856 87.479 -166.6367
91.081119 87.464 -166.6727
91.741131 87.450 -166.7069
92.405925 87.436 -166.7398
93.075536 87.422 -166.7715
93.750000 87.408 -166.8017
94.429351 87.394 -166.8303
95.113625 87.379 -166.8574
95.802858 87.365 -166.8831
96.497085 87.351 -166.9076
97.196342 87.336 -166.9314
97.900667 87.322 -166.9546
98.610096 87.308 -166.9770
99.324665 87.293 -166.9978
100.044413 87.278 -167.0159
100.769376 87.263 -167.0299
101.499592 87.248 -167.0394
102.235100 87.233 -167.0447
102.975938 87.218 -167.0475
103.722144 87.204 -167.0500
104.473757 87.190 -167.0543
105.230817 87.177 -167.0621
105.993363 87.164 -167.0745
106.761435 87.152 -167.0917
107.535072 87.141 -167.1134
108.314315 87.129 -167.1387
109.099206 87.116 -167.1662
109.889783 87.103 -167.1947
110.686090 87.088 -167.2242
111.488167 87.071 -167.2547
112.296056 87.053 -167.2866
113.109800 87.032 -167.3206
113.929440 87.010 -167.3582
114.755020 86.985 -167.3990
115.586582 86.959 -167.4395
116.424170 86.931 -167.4728
117.267827 86.902 -167.4921
118.117598 86.874 -167.4927
118.973527 86.849 -167.4710
119.835658 86.825 -167.4262
120.704037 86.806 -167.3631
121.578708 86.790 -167.2915
122.459718 86.776 -167.2197
123.347111 86.763 -167.1509
124.240935 86.751 -167.0863
125.141236 86.737 -167.0262
126.048061 86.722 -166.9708
126.961458 86.706 -166.9197
127.881473 86.689 -166.8720
128.808154 86.671 -166.8273
129.741551 86.653 -166.7855
130.681712 86.635 -166.7478
131.628686 86.617 -166.7150
132.582521 86.599 -166.6870
133.543269 86.580 -166.6621
134.510979 86.561 -166.6383
135.485701 86.541 -166.6143
136.467486 86.521 -166.5888
137.456386 86.500 -166.5605
138.452451 86.480 -166.5292
139.455735 86.459 -166.4946
140.466288 86.437 -166.4563
141.484165 86.414 -166.4142
142.509418 86.390 -166.3686
143.542100 86.366 -166.3199
144.582265 86.340 -166.2687
145.629968 86.315 -166.2160
146.685262 86.289 -166.1621
147.748204 86.263 -166.1069
148.818849 86.236 -166.0495
149.897251 86.209 -165.9883
150.983469 86.182 -165.9208
152.077557 86.154 -165.8441
153.179574 86.126 -165.7560
154.289576 86.099 -165.6563
155.407622 86.073 -165.5477
156.533770 86.049 -165.4357
157.668078 86.026 -165.3266
158.810606 86.005 -165.2258
159.961413 85.984 -165.1350
161.120559 85.962 -165.0527
162.288105 85.939 -164.9751
163.464112 85.915 -164.8996
164.648640 85.890 -164.8249
165.841752 85.863 -164.7499
167.043510 85.835 -164.6726
168.253976 85.806 -164.5893
169.473213 85.775 -164.4956
170.701286 85.743 -164.3884
171.938258 85.711 -164.2681
173.184194 85.679 -164.1386
174.439158 85.647 -164.0047
175.703216 85.615 -163.8702
176.976434 85.584 -163.7374
178.258878 85.552 -163.6074
179.550615 85.519 -163.4811
180.851713 85.487 -163.3579
182.162239 85.454 -163.2363
183.482262 85.421 -163.1143
184.811850 85.387 -162.9908
186.151073 85.352 -162.8656
187.500000 85.317 -162.7389
188.858702 85.281 -162.6097
190.227250 85.244 -162.4758
191.605715 85.205 -162.3350
192.994169 85.165 -162.1853
194.392685 85.122 -162.0245
195.801334 85.077 -161.8494
197.220191 85.030 -161.6580
198.649330 84.982 -161.4500
200.088825 84.932 -161.2253
201.538751 84.880 -160.9836
202.999184 84.826 -160.7250
204.470200 84.770 -160.4503
205.951875 84.714 -160.1612
207.444287 84.656 -159.8584
208.947514 84.599 -159.5374
210.461634 84.542 -159.1887
211.986726 84.484 -158.7993
213.522869 84.424 -158.3552
215.070144 84.363 -157.8450
216.628631 84.303 -157.2646
218.198411 84.246 -156.6178
219.779567 84.198 -155.9139
221.372180 84.161 -155.1660
222.976334 84.138 -154.3884
224.592112 84.132 -153.5949
226.219600 84.143 -152.7982
227.858880 84.171 -152.0114
229.510039 84.214 -151.2504
231.173164 84.267 -150.5350
232.848340 84.326 -149.8863
234.535655 84.388 -149.3206
236.235197 84.449 -148.8513
237.947054 84.510 -148.4907
239.671317 84.569 -148.2449
241.408074 84.623 -148.1091
243.157416 84.670 -148.0663
244.919435 84.708 -148.0885
246.694223 84.738 -148.1389
248.481871 84.760 -148.1770
250.282473 84.777 -148.1735
252.096123 84.791 -148.1236
253.922915 84.802 -148.0404
255.762945 84.809 -147.9417
257.616309 84.813 -147.8421
259.483103 84.814 -147.7499
261.363424 84.811 -147.6679
263.257372 84.803 -147.5945
265.165043 84.790 -147.5236
267.086538 84.774 -147.4453
269.021957 84.754 -147.3491
270.971401 84.732 -147.2283
272.934972 84.709 -147.0825
274.912771 84.686 -146.9158
276.904902 84.664 -146.7335
278.911469 84.642 -146.5395
280.932577 84.622 -146.3361
282.968330 84.603 -146.1251
285.018835 84.586 -145.9107
287.084199 84.571 -145.6998
289.164530 84.557 -145.5000
291.259935 84.541 -145.3146
293.370525 84.524 -145.1396
295.496408 84.503 -144.9662
297.637697 84.480 -144.7845
299.794503 84.455 -144.5881
301.966937 84.428 -144.3747
304.155114 84.401 -144.1458
306.359147 84.373 -143.9046
308.579152 84.345 -143.6547
310.815244 84.318 -143.3990
313.067539 84.291 -143.1389
315.336156 84.263 -142.8729
317.621211 84.234 -142.5977
319.922826 84.204 -142.3096
322.241118 84.175 -142.0074
324.576210 84.146 -141.6925
326.928223 84.118 -141.3678
329.297280 84.091 -141.0363
331.683504 84.066 -140.7004
334.087019 84.041 -140.3622
336.507952 84.017 -140.0237
338.946427 83.993 -139.6859
341.402572 83.969 -139.3488
343.876516 83.945 -139.0104
346.368387 83.921 -138.6684
348.878315 83.896 -138.3209
351.406431 83.871 -137.9669
353.952867 83.846 -137.6059
356.517756 83.822 -137.2385
359.101230 83.798 -136.8659
361.703426 83.774 -136.4890
364.324478 83.750 -136.1084
366.964523 83.726 -135.7236
369.623699 83.703 -135.3341
372.302145 83.679 -134.9397
375.000000 83.656 -134.5403
377.717405 83.633 -134.1364
380.454501 83.610 -133.7284
383.211431 83.588 -133.3163
385.988339 83.566 -132.9000
388.785369 83.545 -132.4796
391.602668 83.524 -132.0552
394.440383 83.503 -131.6273
397.298660 83.483 -131.1961
400.177650 83.462 -130.7620
403.077502 83.443 -130.3262
405.998368 83.423 -129.8898
408.940400 83.404 -129.4531
411.903750 83.383 -129.0142
414.888575 83.363 -128.5696
417.895028 83.343 -128.1155
420.923268 83.322 -127.6491
423.973452 83.303 -127.1699
427.045738 83.285 -126.6804
430.140287 83.268 -126.1852
433.257261 83.254 -125.6895
436.396822 83.240 -125.1965
439.559133 83.228 -124.7071
442.744360 83.216 -124.2216
445.952668 83.206 -123.7422
449.184225 83.197 -123.2731
452.439199 83.188 -122.8192
455.717760 83.179 -122.3831
459.020079 83.167 -121.9607
462.346327 83.152 -121.5408
465.696680 83.135 -121.1105
469.071310 83.116 -120.6618
472.470394 83.096 -120.1935
475.894109 83.075 -119.7090
479.342634 83.056 -119.2147
482.816148 83.036 -118.7169
486.314833 83.017 -118.2184
489.838871 82.996 -117.7151
493.388445 82.975 -117.1990
496.963741 82.954 -116.6656
500.564945 82.935 -116.1176
504.192245 82.918 -115.5628
507.845830 82.902 -115.0082
511.525890 82.887 -114.4577
515.232618 82.872 -113.9108
518.966206 82.856 -113.3642
522.726849 82.839 -112.8129
526.514743 82.822 -112.2523
530.330086 82.806 -111.6798
534.173076 82.790 -111.0971
538.043915 82.775 -110.5078
541.942803 82.761 -109.9143
545.869944 82.748 -109.3165
549.825542 82.736 -108.7148
553.809805 82.725 -108.1121
557.822939 82.715 -107.5116
561.865154 82.705 -106.9142
565.936660 82.695 -106.3184
570.037671 82.684 -105.7207
574.168399 82.673 -105.1177
578.329060 82.662 -104.5075
582.519870 82.650 -103.8902
586.741049 82.639 -103.2659
590.992817 82.628 -102.6325
595.275394 82.616 -101.9874
599.589005 82.605 -101.3318
603.933874 82.595 -100.6702
608.310228 82.586 -100.0071
612.718295 82.578 -99.3441
617.158304 82.569 -98.6788
621.630488 82.560 -98.0049
626.135079 82.552 -97.3156
630.672311 82.544 -96.6088
635.242423 82.538 -95.8889
639.845651 82.535 -95.1618
644.482237 82.533 -94.4293
649.152421 82.534 -93.6904
653.856447 82.537 -92.9468
658.594560 82.543 -92.2059
663.367008 82.552 -91.4790
668.174039 82.562 -90.7746
673.015903 82.572 -90.0925
677.892854 82.580 -89.4249
682.805145 82.586 -88.7617
687.753032 82.590 -88.0944
692.736774 82.592 -87.4166
697.756631 82.594 -86.7234
702.812863 82.595 -86.0129
707.905735 82.597 -85.2876
713.035511 82.600 -84.5525
718.202461 82.604 -83.8121
723.406852 82.609 -83.0678
728.648956 82.614 -82.3186
733.929047 82.620 -81.5630
739.247399 82.627 -80.8000
744.604290 82.634 -80.0294
750.000000 82.642 -79.2518
755.434809 82.652 -78.4676
760.909001 82.662 -77.6775
766.422861 82.673 -76.8816
771.976677 82.686 -76.0803
777.570739 82.701 -75.2738
783.205337 82.716 -74.4620
788.880766 82.733 -73.6437
794.597321 82.751 -72.8161
800.355301 82.771 -71.9771
806.155005 82.794 -71.1281
811.996736 82.820 -70.2746
817.880799 82.851 -69.4253
823.807501 82.885 -68.5900
829.777150 82.920 -67.7775
835.790057 82.957 -66.9898
841.846536 82.992 -66.2198
847.946903 83.025 -65.4569
854.091476 83.057 -64.6931
860.280575 83.089 -63.9252
866.514523 83.120 -63.1502
872.793644 83.151 -62.3649
879.118267 83.183 -61.5693
885.488720 83.217 -60.7677
891.905336 83.252 -59.9641
898.368450 83.287 -59.1586
904.878398 83.324 -58.3488
911.435520 83.362 -57.5336
918.040157 83.402 -56.7147
924.692655 83.444 -55.8948
931.393359 83.488 -55.0774
938.142619 83.535 -54.2664
944.940787 83.583 -53.4643
951.788218 83.631 -52.6703
958.685268 83.680 -51.8821
965.632296 83.729 -51.0970
972.629666 83.779 -50.3125
979.677741 83.829 -49.5275
986.776890 83.880 -48.7430
993.927482 83.932 -47.9578
1001.129891 83.985 -47.1685
1008.384491 84.040 -46.3718
1015.691660 84.098 -45.5687
1023.051781 84.160 -44.7639
1030.465236 84.225 -43.9655
1037.932411 84.295 -43.1858
1045.453698 84.367 -42.4374
1053.029486 84.441 -41.7256
1060.660172 84.513 -41.0462
1068.346153 84.584 -40.3901
1076.087829 84.653 -39.7474
1083.885605 84.720 -39.1115
1091.739887 84.785 -38.4802
1099.651084 84.850 -37.8537
1107.619609 84.914 -37.2321
1115.645878 84.977 -36.6147
1123.730308 85.040 -36.0003
1131.873321 85.102 -35.3875
1140.075341 85.163 -34.7747
1148.336797 85.224 -34.1609
1156.658119 85.285 -33.5448
1165.039741 85.346 -32.9252
1173.482099 85.407 -32.3007
1181.985634 85.471 -31.6723
1190.550789 85.536 -31.0466
1199.178011 85.604 -30.4353
1207.867749 85.674 -29.8502
1216.620457 85.743 -29.2964
1225.436590 85.810 -28.7699
1234.316609 85.875 -28.2615
1243.260976 85.936 -27.7622
1252.270157 85.994 -27.2641
1261.344623 86.049 -26.7628
1270.484846 86.102 -26.2567
1279.691303 86.154 -25.7439
1288.964474 86.205 -25.2228
1298.304842 86.255 -24.6940
1307.712894 86.304 -24.1599
1317.189120 86.353 -23.6241
1326.734016 86.402 -23.0887
1336.348077 86.450 -22.5530
1346.031806 86.496 -22.0141
1355.785708 86.541 -21.4678
1365.610290 86.584 -20.9102
1375.506065 86.627 -20.3365
1385.473549 86.670 -19.7416
1395.513261 86.714 -19.1243
1405.625726 86.762 -18.4901
1415.811469 86.813 -17.8512
1426.071023 86.868 -17.2228
1436.404921 86.925 -16.6150
1446.813703 86.982 -16.0285
1457.297912 87.038 -15.4579
1467.858093 87.092 -14.8965
1478.494798 87.146 -14.3396
1489.208581 87.198 -13.7830
1500.000000 87.248 -13.2228
1510.869618 87.298 -12.6550
1521.818002 87.348 -12.0763
1532.845723 87.397 -11.4845
1543.953355 87.448 -10.8780
1555.141477 87.500 -10.2571
1566.410674 87.556 -9.6261
1577.761531 87.615 -8.9959
1589.194642 87.678 -8.3806
1600.710601 87.742 -7.7895
1612.310010 87.807 -7.2233
1623.993473 87.870 -6.6764
1635.761599 87.931 -6.1412
1647.615002 87.990 -5.6113
1659.554299 88.048 -5.0817
1671.580114 88.105 -4.5492
1683.693072 88.162 -4.0130
1695.893807 88.219 -3.4752
1708.182952 88.275 -2.9376
1720.561150 88.330 -2.4000
1733.029045 88.385 -1.8588
1745.587288 88.439 -1.3082
1758.236533 88.492 -0.7411
1770.977440 88.546 -0.1520
1783.810673 88.603 0.4580
1796.736900 88.664 1.0784
1809.756796 88.729 1.6937
1822.871040 88.798 2.2921
1836.080315 88.868 2.8696
1849.385310 88.940 3.4278
1862.786718 89.011 3.9705
1876.285239 89.082 4.5030
1889.881575 89.153 5.0311
1903.576436 89.223 5.5607
1917.370535 89.294 6.0968
1931.264593 89.367 6.6424
1945.259332 89.443 7.1951
1959.355483 89.523 7.7449
1973.553781 89.608 8.2768
1987.854965 89.696 8.7790
2002.259781 89.786 9.2471
2016.768981 89.877 9.6827
2031.383320 89.967 10.0900
2046.103561 90.056 10.4737
2060.930471 90.144 10.8368
2075.864823 90.232 11.1798
2090.907395 90.319 11.5020
2106.058972 90.404 11.8043
2121.320344 90.487 12.0910
2136.692305 90.569 12.3696
2152.175658 90.650 12.6469
2167.771210 90.731 12.9240
2183.479774 90.814 13.1924
2199.302169 90.900 13.4390
2215.239219 90.986 13.6535
2231.291755 91.072 13.8314
2247.460615 91.156 13.9732
2263.746641 91.237 14.0835
2280.150683 91.314 14.1703
2296.673595 91.387 14.2425
2313.316238 91.458 14.3083
2330.079481 91.527 14.3703
2346.964198 91.595 14.4227
2363.971268 91.662 14.4550
2381.101578 91.728 14.4592
2398.356022 91.792 14.4333
2415.735498 91.851 14.3802
2433.240913 91.905 14.3054
2450.873180 91.955 14.2140
2468.633217 91.999 14.1098
2486.521951 92.037 13.9972
2504.540314 92.070 13.8835
2522.689246 92.096 13.7793
2540.969692 92.118 13.6946
2559.382606 92.137 13.6325
2577.928947 92.154 13.5871
2596.609683 92.171 13.5491
2615.425787 92.187 13.5110
2634.378241 92.200 13.4698
2653.468031 92.211 13.4275
2672.696154 92.218 13.3906
2692.063613 92.222 13.3675
2711.571415 92.225 13.3633
2731.220579 92.227 13.3751
2751.012130 92.230 13.3934
2770.947098 92.234 13.4080
2791.026522 92.238 13.4120
2811.251451 92.241 13.4028
2831.622938 92.241 13.3805
2852.142045 92.239 13.3462
2872.809842 92.232 13.3026
2893.627406 92.221 13.2567
2914.595823 92.205 13.2194
2935.716186 92.185 13.2007
2956.989596 92.163 13.2031
2978.417161 92.139 13.2223
3000.000000 92.114 13.2522
3021.739237 92.088 13.2887
3043.636005 92.059 13.3328
3065.691446 92.028 13.3906
3087.906710 91.995 13.4706
3110.282955 91.961 13.5766
3132.821347 91.927 13.7042
3155.523062 91.896 13.8443
3178.389283 91.865 13.9873
3201.421202 91.836 14.1262
3224.620020 91.807 14.2566
3247.986946 91.777 14.3762
3271.523198 91.744 14.4869
3295.230004 91.708 14.5969
3319.108599 91.669 14.7173
3343.160228 91.627 14.8548
3367.386145 91.584 15.0092
3391.787613 91.540 15.1767
3416.365904 91.495 15.3541
3441.122300 91.449 15.5435
3466.058091 91.400 15.7526
3491.174576 91.351 15.9893
3516.473066 91.303 16.2549
3541.954880 91.256 16.5436
3567.621345 91.213 16.8453
3593.473800 91.173 17.1499
3619.513592 91.135 17.4480
3645.742080 91.098 17.7333
3672.160630 91.061 18.0062
3698.770620 91.023 18.2743
3725.573436 90.984 18.5455
3752.570477 90.944 18.8230
3779.763150 90.903 19.1052
3807.152872 90.862 19.3903
3834.741071 90.820 19.6814
3862.529185 90.777 19.9872
3890.518664 90.733 20.3158
3918.710966 90.691 20.6681
3947.107561 90.652 21.0378
3975.709929 90.617 21.4141
4004.519563 90.585 21.7844
4033.537962 90.557 22.1379
4062.766641 90.529 22.4706
4092.207123 90.502 22.7862
4121.860942 90.475 23.0906
4151.729646 90.447 23.3859
4181.814790 90.418 23.6718
4212.117944 90.387 23.9500
4242.640687 90.355 24.2284
4273.384610 90.321 24.5180
4304.351317 90.286 24.8251
4335.542421 90.253 25.1488
4366.959549 90.223 25.4816
4398.604338 90.196 25.8111
4430.478438 90.172 26.1254
4462.583511 90.150 26.4189
4494.921231 90.128 26.6929
4527.493283 90.105 26.9495
4560.301365 90.083 27.1881
4593.347189 90.059 27.4086
4626.632476 90.032 27.6166
4660.158962 90.002 27.8236
4693.928395 89.970 28.0399
4727.942535 89.938 28.2702
4762.203156 89.907 28.5116
4796.712043 89.877 28.7547
4831.470996 89.850 28.9891
4866.481826 89.824 29.2093
4901.746360 89.798 29.4139
4937.266434 89.772 29.6016
4973.043902 89.745 29.7700
5009.080628 89.716 29.9211
5045.378492 89.684 30.0637
5081.939384 89.649 30.2089
5118.765212 89.612 30.3653
5155.857894 89.575 30.5340
5193.219366 89.539 30.7089
5230.851574 89.503 30.8811
5268.756481 89.469 31.0448
5306.936062 89.435 31.1966
5345.392309 89.401 31.3325
5384.127225 89.366 31.4500
5423.142830 89.328 31.5534
5462.441159 89.286 31.6536
5502.024259 89.240 31.7635
5541.894195 89.192 31.8921
5582.053045 89.144 32.0412
5622.502902 89.096 32.2072
5663.245876 89.049 32.3859
5704.284090 89.004 32.5729
5745.619684 88.960 32.7615
5787.254813 88.917 32.9463
5829.191647 88.874 33.1278
5871.432373 88.830 33.3131
5913.979192 88.785 33.5116
5956.834323 88.741 33.7295
6000.000000 88.700 33.9670
6043.478473 88.662 34.2205
6087.272010 88.628 34.4844
6131.382892 88.598 34.7504
6175.813420 88.574 35.0088
6220.565910 88.553 35.2543
6265.642695 88.535 35.4880
6311.046124 88.520 35.7150
6356.778566 88.508 35.9397
6402.842404 88.500 36.1630
6449.240040 88.497 36.3823
6495.973891 88.500 36.5925
6543.046396 88.509 36.7849
6590.460007 88.524 36.9512
6638.217197 88.545 37.0873
6686.320456 88.570 37.1941
6734.772290 88.599 37.2745
6783.575226 88.634 37.3295
6832.731809 88.675 37.3576
6882.244600 88.724 37.3539
6932.116181 88.781 37.3089
6982.349153 88.846 37.2120
7032.946133 88.918 37.0552
7083.909760 88.998 36.8350
7135.242690 89.085 36.5494
7186.947600 89.179 36.1953
7239.027185 89.282 35.7667
7291.484160 89.395 35.2524
7344.321260 89.519 34.6348
7397.541239 89.653 33.8933
7451.146872 89.797 33.0086
7505.140954 89.951 31.9624
7559.526299 90.113 30.7343
7614.305743 90.282 29.2999
7669.482141 90.456 27.6294
7725.058371 90.632 25.6868
7781.037328 90.803 23.4357
7837.421932 90.959 20.8495
7894.215122 91.090 17.9186
7951.419859 91.183 14.6537
8009.039125 91.224 11.0878
8067.075924 91.204 7.2759
8125.533282 91.111 3.2914
8184.414245 90.939 -0.7765
8243.721885 90.683 -4.8242
8303.459292 90.341 -8.7388
8363.629581 89.916 -12.4063
8424.235888 89.415 -15.7204
8485.281374 88.850 -18.5912
8546.769221 88.235 -20.9538
8608.702634 87.586 -22.7691
8671.084842 86.919 -24.0193
8733.919097 86.252 -24.7043
8797.208675 85.601 -24.8395
8860.956876 84.983 -24.4599
8925.167022 84.416 -23.6302
8989.842461 83.917 -22.4528
9054.986566 83.498 -21.0652
9120.602731 83.165 -19.6259
9186.694378 82.916 -18.2930
9253.264952 82.742 -17.2017
9320.317925 82.625 -16.4503
9387.856790 82.546 -16.0940
9455.885071 82.483 -16.1410
9524.406312 82.417 -16.5559
9593.424086 82.330 -17.2680
9662.941992 82.212 -18.1846
9732.963653 82.059 -19.2091
9803.492719 81.870 -20.2573
9874.532869 81.649 -21.2636
9946.087805 81.401 -22.1814
10018.161257 81.132 -22.9763
10090.756983 80.848 -23.6234
10163.878768 80.555 -24.1097
10237.530423 80.261 -24.4363
10311.715789 79.970 -24.6167
10386.438732 79.687 -24.6691
10461.703149 79.414 -24.6078
10537.512962 79.154 -24.4433
10613.872125 78.909 -24.1872
10690.784618 78.680 -23.8558
10768.254450 78.468 -23.4682
10846.285661 78.275 -23.0391
10924.882318 78.098 -22.5764
11004.048518 77.939 -22.0859
11083.788390 77.798 -21.5765
11164.106090 77.677 -21.0609
11245.005805 77.574 -20.5498
11326.491752 77.488 -20.0478
11408.568180 77.421 -19.5573
11491.239368 77.372 -19.0841
11574.509626 77.342 -18.6382
11658.383294 77.331 -18.2282
11742.864745 77.337 -17.8582
11827.958384 77.362 -17.5296
11913.668646 77.406 -17.2472
12000.000000 77.469 -17.0199
12086.956947 77.552 -16.8558
12174.544019 77.655 -16.7601
12262.765784 77.778 -16.7383
12351.626840 77.923 -16.8002
12441.131819 78.090 -16.9583
12531.285389 78.279 -17.2232
12622.092249 78.492 -17.6021
12713.557132 78.728 -18.1045
12805.684808 78.990 -18.7453
12898.480079 79.279 -19.5418
12991.947783 79.594 -20.5099
13086.092792 79.936 -21.6657
13180.920015 80.308 -23.0304
13276.434395 80.709 -24.6297
13372.640911 81.140 -26.4906
13469.544580 81.602 -28.6406
13567.150452 82.097 -31.1122
13665.463617 82.625 -33.9463
13764.489200 83.186 -37.1896
13864.232362 83.778 -40.8945
13964.698305 84.397 -45.1208
14065.892266 85.037 -49.9378
14167.819519 85.685 -55.4175
14270.485380 86.321 -61.6243
14373.895200 86.923 -68.6062
14478.054370 87.461 -76.3830
14582.968320 87.901 -84.9304
14688.642520 88.209 -94.1635
14795.082478 88.357 -103.9300
14902.293745 88.319 -114.0144
15010.281908 88.085 -124.1559
15119.052599 87.654 -134.0804
15228.611486 87.041 -143.5394
15338.964283 86.270 -152.3395
15450.116741 85.371 -160.3536
15562.074656 84.379 -167.5197
15674.843864 83.330 -173.8348
15788.430244 82.257 -179.3436
15902.839718 81.192 175.8757
16018.078250 80.160 171.7249
16134.151848 79.181 168.0944
16251.066563 78.270 164.8705
16368.828491 77.434 161.9431
16487.443769 76.675 159.2115
16606.918584 75.990 156.5863
16727.259161 75.373 153.9927
16848.471777 74.816 151.3726
16970.562748 74.311 148.6818
17093.538442 73.846 145.8865
17217.405268 73.414 142.9660
17342.169684 73.004 139.9111
17467.838194 72.608 136.7207
17594.417350 72.218 133.4019
17721.913751 71.827 129.9713
17850.334044 71.429 126.4530
17979.684923 71.019 122.8763
18109.973131 70.595 119.2747
18241.205462 70.155 115.6819
18373.388756 69.701 112.1302
18506.529905 69.235 108.6500
18640.635849 68.759 105.2662
18775.713581 68.277 101.9973
18911.770141 67.792 98.8571
19048.812624 67.307 95.8562
19186.848172 66.827 93.0048
19325.883983 66.360 90.3203
19465.927305 65.917 87.8356
19606.985439 65.514 85.6092
19749.065738 65.174 83.7367
19892.175609 64.924 82.3527
20036.322514 64.791 81.6069
