* Measurement data measured by REW V5.31.3
* Source: EXCL: Microphone (USB Sound Device        ), MICROPHONE (Master Volume), R, volume: 0.390
* Format: 256k Log Swept Sine, 1 sweep at -15.0 dBFS with no timing reference
* Dated: Apr 5, 2025 3:34:48 PM
* REW Settings:
*  C-weighting compensation: Off
*  Target level: 75.0 dB
* Note: 
* Measurement: L L TANGZU Wan'er S.G
* Smoothing: 1/12 octave
* Frequency Step: 96 ppo
* Start Frequency: 0.36621094 Hz
*
* Freq(Hz) SPL(dB) Phase(degrees)
0.366211 92.747 163.4422
0.368865 92.741 163.4245
0.371538 92.734 163.3980
0.374230 92.724 163.3648
0.376942 92.713 163.3265
0.379673 92.701 163.2844
0.382424 92.689 163.2395
0.385196 92.677 163.1921
0.387987 92.664 163.1426
0.390798 92.651 163.0911
0.393630 92.638 163.0377
0.396483 92.625 162.9825
0.399356 92.612 162.9254
0.402250 92.598 162.8664
0.405165 92.585 162.8056
0.408101 92.572 162.7429
0.411058 92.558 162.6783
0.414037 92.544 162.6117
0.417037 92.530 162.5432
0.420059 92.516 162.4728
0.423103 92.502 162.4004
0.426169 92.488 162.3260
0.429257 92.474 162.2496
0.432368 92.460 162.1712
0.435501 92.445 162.0908
0.438656 92.431 162.0083
0.441835 92.416 161.9237
0.445037 92.401 161.8371
0.448262 92.387 161.7483
0.451510 92.372 161.6574
0.454782 92.357 161.5644
0.458077 92.341 161.4693
0.461397 92.326 161.3720
0.464740 92.311 161.2726
0.468108 92.295 161.1709
0.471500 92.280 161.0671
0.474917 92.264 160.9611
0.478358 92.248 160.8529
0.481825 92.232 160.7425
0.485316 92.216 160.6298
0.488833 92.200 160.5149
0.492375 92.183 160.3978
0.495943 92.167 160.2784
0.499537 92.151 160.1568
0.503157 92.134 160.0329
0.506803 92.117 159.9068
0.510475 92.100 159.7784
0.514175 92.083 159.6478
0.517900 92.066 159.5149
0.521653 92.049 159.3798
0.525434 92.031 159.2424
0.529241 92.014 159.1028
0.533076 91.996 158.9609
0.536939 91.978 158.8168
0.540830 91.960 158.6705
0.544749 91.942 158.5220
0.548696 91.924 158.3714
0.552673 91.906 158.2185
0.556677 91.887 158.0635
0.560711 91.869 157.9064
0.564774 91.850 157.7471
0.568867 91.831 157.5858
0.572989 91.812 157.4224
0.577141 91.793 157.2570
0.581324 91.774 157.0896
0.585536 91.755 156.9202
0.589779 91.735 156.7489
0.594053 91.715 156.5757
0.598358 91.696 156.4008
0.602694 91.676 156.2240
0.607061 91.655 156.0455
0.611460 91.635 155.8653
0.615891 91.615 155.6835
0.620354 91.594 155.5002
0.624849 91.574 155.3154
0.629377 91.553 155.1292
0.633938 91.532 154.9416
0.638532 91.511 154.7528
0.643159 91.489 154.5628
0.647819 91.468 154.3718
0.652514 91.446 154.1798
0.657242 91.424 153.9869
0.662005 91.403 153.7933
0.666802 91.380 153.5990
0.671634 91.358 153.4042
0.676501 91.336 153.2090
0.681403 91.313 153.0136
0.686341 91.290 152.8180
0.691314 91.267 152.6225
0.696324 91.244 152.4271
0.701370 91.221 152.2320
0.706452 91.197 152.0372
0.711571 91.173 151.8429
0.716728 91.148 151.6490
0.721921 91.122 151.4554
0.727153 91.095 151.2616
0.732422 91.066 151.0672
0.737729 91.035 150.8715
0.743075 91.002 150.6737
0.748460 90.968 150.4731
0.753883 90.932 150.2693
0.759346 90.896 150.0619
0.764849 90.859 149.8507
0.770391 90.822 149.6354
0.775974 90.784 149.4161
0.781597 90.745 149.1927
0.787261 90.706 148.9650
0.792966 90.666 148.7330
0.798712 90.626 148.4968
0.804500 90.586 148.2562
0.810329 90.545 148.0113
0.816201 90.503 147.7621
0.822116 90.461 147.5084
0.828073 90.418 147.2504
0.834074 90.374 146.9879
0.840118 90.330 146.7210
0.846206 90.285 146.4497
0.852338 90.239 146.1740
0.858514 90.193 145.8938
0.864735 90.146 145.6093
0.871001 90.097 145.3203
0.877313 90.049 145.0270
0.883670 89.999 144.7294
0.890074 89.948 144.4276
0.896524 89.896 144.1215
0.903020 89.844 143.8112
0.909564 89.790 143.4968
0.916155 89.735 143.1784
0.922794 89.679 142.8560
0.929481 89.622 142.5299
0.936216 89.564 142.2000
0.943000 89.505 141.8666
0.949834 89.444 141.5297
0.956717 89.382 141.1895
0.963649 89.318 140.8462
0.970632 89.254 140.5001
0.977666 89.187 140.1512
0.984750 89.119 139.7999
0.991886 89.050 139.4464
0.999074 88.979 139.0911
1.006314 88.906 138.7341
1.013606 88.831 138.3759
1.020951 88.755 138.0168
1.028349 88.676 137.6572
1.035801 88.596 137.2975
1.043307 88.514 136.9382
1.050867 88.430 136.5798
1.058482 88.343 136.2227
1.066152 88.255 135.8674
1.073878 88.164 135.5143
1.081660 88.072 135.1637
1.089498 87.978 134.8159
1.097393 87.882 134.4708
1.105345 87.785 134.1281
1.113355 87.688 133.7873
1.121423 87.590 133.4482
1.129549 87.493 133.1101
1.137734 87.395 132.7728
1.145979 87.297 132.4360
1.154283 87.200 132.0993
1.162647 87.101 131.7625
1.171072 87.003 131.4255
1.179558 86.903 131.0879
1.188106 86.803 130.7495
1.196715 86.701 130.4100
1.205387 86.598 130.0693
1.214122 86.492 129.7270
1.222920 86.385 129.3828
1.231782 86.275 129.0365
1.240708 86.163 128.6876
1.249699 86.047 128.3359
1.258754 85.928 127.9810
1.267876 85.805 127.6225
1.277063 85.677 127.2599
1.286318 85.545 126.8928
1.295639 85.409 126.5207
1.305027 85.266 126.1432
1.314484 85.118 125.7596
1.324009 84.963 125.3695
1.333604 84.802 124.9720
1.343268 84.633 124.5667
1.353002 84.457 124.1527
1.362806 84.272 123.7294
1.372681 84.079 123.2959
1.382628 83.876 122.8514
1.392647 83.663 122.3949
1.402739 83.439 121.9256
1.412904 83.204 121.4424
1.423142 82.956 120.9446
1.433455 82.696 120.4311
1.443843 82.420 119.9012
1.454305 82.126 119.3544
1.464844 81.813 118.7902
1.475459 81.477 118.2083
1.486150 81.115 117.6080
1.496920 80.726 116.9886
1.507767 80.307 116.3486
1.518693 79.858 115.6862
1.529698 79.381 114.9990
1.540783 78.876 114.2841
1.551948 78.344 113.5379
1.563194 77.789 112.7566
1.574521 77.212 111.9352
1.585931 76.615 111.0681
1.597423 76.002 110.1487
1.608999 75.375 109.1690
1.620658 74.737 108.1195
1.632402 74.091 106.9888
1.644232 73.441 105.7630
1.656146 72.792 104.4251
1.668147 72.145 102.9540
1.680235 71.507 101.3234
1.692411 70.882 99.5004
1.704675 70.274 97.4430
1.717028 69.690 95.0975
1.729470 69.134 92.3944
1.742003 68.613 89.2439
1.754626 68.135 85.5294
1.767341 67.705 81.1012
1.780147 67.332 75.7725
1.793047 67.023 69.3244
1.806040 66.786 61.5351
1.819128 66.628 52.2565
1.832310 66.554 41.5508
1.845587 66.566 29.8342
1.858961 66.666 17.8738
1.872432 66.851 6.5298
1.886001 67.118 -3.5823
1.899667 67.462 -12.2282
1.913433 67.875 -19.4638
1.927299 68.351 -25.4806
1.941265 68.883 -30.4983
1.955332 69.464 -34.7157
1.969501 70.086 -38.2959
1.983773 70.741 -41.3670
1.998148 71.423 -44.0284
2.012627 72.122 -46.3563
2.027212 72.833 -48.4097
2.041902 73.548 -50.2346
2.056698 74.259 -51.8667
2.071602 74.960 -53.3346
2.086614 75.643 -54.6609
2.101734 76.303 -55.8641
2.116964 76.933 -56.9595
2.132304 77.528 -57.9600
2.147756 78.084 -58.8771
2.163320 78.599 -59.7216
2.178996 79.071 -60.5042
2.194786 79.503 -61.2355
2.210690 79.898 -61.9261
2.226710 80.261 -62.5854
2.242845 80.597 -63.2206
2.259098 80.909 -63.8365
2.275468 81.199 -64.4363
2.291957 81.470 -65.0213
2.308566 81.723 -65.5923
2.325295 81.960 -66.1491
2.342145 82.183 -66.6915
2.359117 82.392 -67.2187
2.376212 82.590 -67.7302
2.393431 82.777 -68.2251
2.410775 82.956 -68.7024
2.428244 83.128 -69.1614
2.445840 83.295 -69.6011
2.463564 83.459 -70.0207
2.481416 83.620 -70.4195
2.499397 83.781 -70.7972
2.517509 83.941 -71.1537
2.535752 84.103 -71.4896
2.554127 84.264 -71.8065
2.572635 84.424 -72.1064
2.591277 84.581 -72.3918
2.610055 84.734 -72.6653
2.628968 84.882 -72.9286
2.648019 85.024 -73.1831
2.667208 85.160 -73.4294
2.686535 85.291 -73.6680
2.706003 85.416 -73.8989
2.725612 85.536 -74.1220
2.745363 85.651 -74.3372
2.765257 85.764 -74.5441
2.785295 85.873 -74.7424
2.805478 85.980 -74.9316
2.825808 86.085 -75.1114
2.846285 86.189 -75.2812
2.866910 86.293 -75.4409
2.887685 86.396 -75.5899
2.908611 86.500 -75.7283
2.929688 86.603 -75.8559
2.950917 86.706 -75.9731
2.972301 86.807 -76.0802
2.993839 86.906 -76.1779
3.015534 87.004 -76.2668
3.037386 87.099 -76.3476
3.059396 87.193 -76.4209
3.081565 87.285 -76.4875
3.103896 87.375 -76.5480
3.126388 87.464 -76.6031
3.149043 87.552 -76.6534
3.171862 87.640 -76.6994
3.194847 87.727 -76.7416
3.217998 87.815 -76.7803
3.241317 87.903 -76.8156
3.264805 87.991 -76.8474
3.288463 88.079 -76.8753
3.312293 88.168 -76.8987
3.336295 88.257 -76.9171
3.360471 88.346 -76.9304
3.384822 88.435 -76.9390
3.409350 88.524 -76.9438
3.434056 88.612 -76.9460
3.458940 88.700 -76.9471
3.484005 88.788 -76.9487
3.509252 88.876 -76.9523
3.534681 88.964 -76.9596
3.560295 89.052 -76.9720
3.586094 89.139 -76.9907
3.612081 89.227 -77.0168
3.638255 89.315 -77.0506
3.664620 89.402 -77.0920
3.691175 89.490 -77.1406
3.717923 89.578 -77.1958
3.744864 89.666 -77.2571
3.772001 89.753 -77.3243
3.799335 89.841 -77.3975
3.826866 89.928 -77.4771
3.854597 90.015 -77.5635
3.882529 90.101 -77.6572
3.910664 90.187 -77.7588
3.939002 90.272 -77.8688
3.967546 90.356 -77.9879
3.996296 90.439 -78.1163
4.025255 90.521 -78.2543
4.054423 90.602 -78.4019
4.083804 90.682 -78.5591
4.113396 90.761 -78.7255
4.143204 90.839 -78.9008
4.173227 90.916 -79.0845
4.203468 90.992 -79.2761
4.233928 91.067 -79.4753
4.264609 91.140 -79.6818
4.295512 91.212 -79.8954
4.326639 91.283 -80.1158
4.357992 91.352 -80.3433
4.389572 91.419 -80.5781
4.421380 91.484 -80.8205
4.453419 91.548 -81.0708
4.485691 91.610 -81.3288
4.518196 91.670 -81.5940
4.550936 91.729 -81.8656
4.583914 91.786 -82.1425
4.617131 91.841 -82.4238
4.650589 91.894 -82.7083
4.684289 91.946 -82.9952
4.718233 91.997 -83.2839
4.752424 92.045 -83.5743
4.786862 92.092 -83.8666
4.821549 92.137 -84.1609
4.856488 92.181 -84.4577
4.891680 92.223 -84.7566
4.927127 92.263 -85.0573
4.962831 92.302 -85.3591
4.998794 92.339 -85.6612
5.035017 92.376 -85.9629
5.071503 92.411 -86.2636
5.108253 92.445 -86.5627
5.145270 92.478 -86.8602
5.182555 92.511 -87.1561
5.220110 92.542 -87.4508
5.257937 92.572 -87.7446
5.296038 92.602 -88.0377
5.334415 92.630 -88.3302
5.373071 92.659 -88.6223
5.412006 92.687 -88.9140
5.451224 92.715 -89.2052
5.490725 92.742 -89.4958
5.530514 92.770 -89.7859
5.570590 92.798 -90.0757
5.610957 92.826 -90.3654
5.651616 92.853 -90.6559
5.692570 92.881 -90.9478
5.733821 92.909 -91.2419
5.775370 92.938 -91.5391
5.817221 92.966 -91.8399
5.859375 92.996 -92.1446
5.901834 93.026 -92.4535
5.944602 93.056 -92.7667
5.987679 93.087 -93.0846
6.031068 93.118 -93.4079
6.074771 93.150 -93.7373
6.118792 93.182 -94.0737
6.163131 93.214 -94.4179
6.207792 93.247 -94.7704
6.252776 93.281 -95.1318
6.298086 93.314 -95.5020
6.343725 93.348 -95.8811
6.389694 93.382 -96.2691
6.435996 93.417 -96.6659
6.482634 93.451 -97.0716
6.529610 93.486 -97.4864
6.576926 93.520 -97.9104
6.624585 93.554 -98.3437
6.672590 93.588 -98.7861
6.720942 93.622 -99.2373
6.769645 93.655 -99.6968
6.818700 93.689 -100.1638
6.868111 93.722 -100.6377
6.917881 93.754 -101.1180
6.968010 93.786 -101.6041
7.018504 93.818 -102.0959
7.069362 93.849 -102.5930
7.120590 93.880 -103.0946
7.172189 93.910 -103.5999
7.224161 93.940 -104.1078
7.276511 93.970 -104.6173
7.329239 94.000 -105.1278
7.382350 94.029 -105.6389
7.435845 94.058 -106.1501
7.489729 94.087 -106.6610
7.544002 94.116 -107.1710
7.598669 94.145 -107.6794
7.653732 94.174 -108.1856
7.709194 94.204 -108.6891
7.765058 94.234 -109.1896
7.821327 94.264 -109.6870
7.878004 94.295 -110.1812
7.935091 94.327 -110.6722
7.992592 94.359 -111.1599
8.050510 94.392 -111.6442
8.108847 94.426 -112.1251
8.167607 94.460 -112.6026
8.226793 94.496 -113.0770
8.286408 94.532 -113.5485
8.346454 94.570 -114.0174
8.406936 94.608 -114.4841
8.467856 94.648 -114.9486
8.529218 94.688 -115.4111
8.591024 94.729 -115.8717
8.653278 94.771 -116.3307
8.715983 94.813 -116.7881
8.779143 94.856 -117.2443
8.842760 94.900 -117.6991
8.906839 94.944 -118.1526
8.971381 94.989 -118.6046
9.036392 95.033 -119.0549
9.101873 95.078 -119.5031
9.167829 95.123 -119.9492
9.234263 95.168 -120.3929
9.301178 95.213 -120.8337
9.368578 95.257 -121.2712
9.436467 95.302 -121.7048
9.504847 95.346 -122.1342
9.573723 95.389 -122.5587
9.643099 95.432 -122.9781
9.712976 95.475 -123.3919
9.783361 95.517 -123.7996
9.854255 95.558 -124.2008
9.925663 95.600 -124.5952
9.997588 95.640 -124.9824
10.070035 95.680 -125.3623
10.143007 95.720 -125.7349
10.216507 95.759 -126.1000
10.290540 95.797 -126.4575
10.365109 95.835 -126.8076
10.440219 95.873 -127.1505
10.515873 95.910 -127.4864
10.592076 95.947 -127.8157
10.668830 95.984 -128.1385
10.746141 96.019 -128.4553
10.824012 96.055 -128.7665
10.902447 96.090 -129.0725
10.981451 96.124 -129.3739
11.061027 96.158 -129.6709
11.141180 96.191 -129.9641
11.221913 96.223 -130.2537
11.303232 96.255 -130.5402
11.385140 96.286 -130.8240
11.467641 96.316 -131.1053
11.550741 96.345 -131.3845
11.634442 96.373 -131.6616
11.718750 96.399 -131.9371
11.803669 96.425 -132.2109
11.889203 96.450 -132.4834
11.975357 96.474 -132.7545
12.062136 96.496 -133.0245
12.149543 96.517 -133.2934
12.237583 96.537 -133.5614
12.326262 96.556 -133.8285
12.415583 96.573 -134.0950
12.505552 96.590 -134.3609
12.596172 96.605 -134.6264
12.687449 96.619 -134.8918
12.779387 96.632 -135.1572
12.871992 96.644 -135.4228
12.965268 96.655 -135.6889
13.059220 96.664 -135.9558
13.153852 96.673 -136.2239
13.249170 96.682 -136.4934
13.345179 96.689 -136.7647
13.441884 96.695 -137.0382
13.539289 96.701 -137.3142
13.637401 96.707 -137.5931
13.736223 96.711 -137.8753
13.835761 96.715 -138.1611
13.936021 96.719 -138.4510
14.037007 96.722 -138.7451
14.138725 96.724 -139.0438
14.241180 96.727 -139.3474
14.344377 96.729 -139.6560
14.448323 96.730 -139.9697
14.553021 96.731 -140.2887
14.658478 96.732 -140.6128
14.764700 96.733 -140.9420
14.871691 96.734 -141.2761
14.979457 96.734 -141.6150
15.088005 96.735 -141.9581
15.197339 96.735 -142.3054
15.307465 96.735 -142.6562
15.418389 96.736 -143.0102
15.530117 96.737 -143.3669
15.642655 96.737 -143.7259
15.756008 96.739 -144.0867
15.870182 96.740 -144.4489
15.985184 96.742 -144.8122
16.101019 96.745 -145.1762
16.217694 96.748 -145.5405
16.335214 96.752 -145.9049
16.453586 96.757 -146.2691
16.572815 96.762 -146.6328
16.692909 96.768 -146.9958
16.813872 96.775 -147.3578
16.935713 96.783 -147.7184
17.058436 96.791 -148.0774
17.182048 96.800 -148.4341
17.306556 96.809 -148.7883
17.431967 96.819 -149.1394
17.558286 96.829 -149.4869
17.685521 96.840 -149.8302
17.813677 96.851 -150.1689
17.942762 96.862 -150.5024
18.072783 96.873 -150.8303
18.203746 96.885 -151.1523
18.335658 96.897 -151.4680
18.468526 96.908 -151.7772
18.602356 96.920 -152.0798
18.737156 96.931 -152.3758
18.872934 96.942 -152.6653
19.009695 96.954 -152.9484
19.147447 96.964 -153.2252
19.286197 96.975 -153.4960
19.425953 96.985 -153.7610
19.566721 96.994 -154.0206
19.708510 97.003 -154.2749
19.851326 97.011 -154.5244
19.995177 97.018 -154.7694
20.140070 97.024 -155.0103
20.286013 97.030 -155.2474
20.433014 97.034 -155.4811
20.581080 97.038 -155.7120
20.730219 97.041 -155.9405
20.880439 97.042 -156.1670
21.031747 97.043 -156.3923
21.184152 97.043 -156.6166
21.337661 97.042 -156.8407
21.492282 97.040 -157.0652
21.648024 97.037 -157.2904
21.804895 97.033 -157.5171
21.962902 97.028 -157.7458
22.122054 97.023 -157.9769
22.282360 97.017 -158.2111
22.443827 97.011 -158.4487
22.606464 97.004 -158.6902
22.770280 96.997 -158.9358
22.935283 96.989 -159.1858
23.101481 96.981 -159.4403
23.268884 96.973 -159.6993
23.437500 96.964 -159.9628
23.607338 96.956 -160.2305
23.778406 96.948 -160.5021
23.950714 96.940 -160.7775
24.124271 96.932 -161.0562
24.299086 96.925 -161.3378
24.475167 96.918 -161.6221
24.652524 96.911 -161.9085
24.831166 96.906 -162.1966
25.011103 96.900 -162.4860
25.192344 96.896 -162.7759
25.374898 96.892 -163.0658
25.558775 96.888 -163.3548
25.743984 96.885 -163.6420
25.930536 96.883 -163.9267
26.118439 96.881 -164.2080
26.307704 96.879 -164.4851
26.498341 96.878 -164.7574
26.690359 96.877 -165.0246
26.883768 96.877 -165.2865
27.078579 96.877 -165.5431
27.274801 96.877 -165.7946
27.472446 96.878 -166.0413
27.671522 96.878 -166.2835
27.872042 96.879 -166.5215
28.074014 96.879 -166.7553
28.277450 96.878 -166.9849
28.482360 96.877 -167.2102
28.688755 96.875 -167.4311
28.896645 96.872 -167.6475
29.106042 96.868 -167.8594
29.316957 96.864 -168.0672
29.529400 96.859 -168.2716
29.743382 96.853 -168.4735
29.958915 96.847 -168.6743
30.176009 96.841 -168.8754
30.394677 96.834 -169.0780
30.614929 96.827 -169.2833
30.836778 96.819 -169.4922
31.060234 96.810 -169.7048
31.285309 96.801 -169.9212
31.512015 96.791 -170.1408
31.740364 96.780 -170.3630
31.970368 96.770 -170.5872
32.202039 96.759 -170.8130
32.435388 96.748 -171.0403
32.670428 96.737 -171.2694
32.907171 96.727 -171.5011
33.145630 96.718 -171.7359
33.385817 96.709 -171.9745
33.627745 96.700 -172.2168
33.871425 96.691 -172.4623
34.116871 96.683 -172.7098
34.364096 96.674 -172.9576
34.613113 96.665 -173.2035
34.863934 96.656 -173.4456
35.116572 96.647 -173.6824
35.371041 96.638 -173.9129
35.627354 96.629 -174.1371
35.885525 96.621 -174.3555
36.145566 96.613 -174.5692
36.407492 96.605 -174.7793
36.671316 96.598 -174.9869
36.937051 96.590 -175.1930
37.204712 96.583 -175.3981
37.474313 96.575 -175.6026
37.745867 96.566 -175.8068
38.019389 96.557 -176.0111
38.294893 96.547 -176.2157
38.572394 96.536 -176.4204
38.851905 96.525 -176.6248
39.133442 96.512 -176.8279
39.417019 96.499 -177.0285
39.702651 96.485 -177.2252
39.990353 96.470 -177.4174
40.280140 96.456 -177.6057
40.572026 96.443 -177.7916
40.866028 96.430 -177.9779
41.162160 96.418 -178.1679
41.460438 96.408 -178.3641
41.760877 96.397 -178.5678
42.063494 96.386 -178.7783
42.368303 96.374 -178.9933
42.675322 96.362 -179.2092
42.984565 96.348 -179.4225
43.296048 96.334 -179.6303
43.609789 96.319 -179.8308
43.925804 96.305 179.9761
44.244108 96.291 179.7899
44.564719 96.277 179.6095
44.887654 96.263 179.4337
45.212928 96.250 179.2612
45.540560 96.237 179.0910
45.870565 96.225 178.9218
46.202962 96.212 178.7522
46.537768 96.200 178.5814
46.875000 96.188 178.4089
47.214676 96.175 178.2350
47.556813 96.162 178.0603
47.901429 96.148 177.8853
48.248542 96.135 177.7100
48.598171 96.121 177.5344
48.950334 96.107 177.3582
49.305048 96.093 177.1813
49.662333 96.078 177.0044
50.022206 96.064 176.8283
50.384688 96.049 176.6542
50.749796 96.033 176.4827
51.117550 96.018 176.3141
51.487969 96.003 176.1483
51.861072 95.987 175.9853
52.236879 95.972 175.8250
52.615409 95.957 175.6673
52.996681 95.943 175.5114
53.380717 95.928 175.3566
53.767536 95.914 175.2016
54.157158 95.899 175.0460
54.549603 95.885 174.8897
54.944892 95.871 174.7333
55.343045 95.857 174.5768
55.744084 95.844 174.4196
56.148028 95.831 174.2604
56.554900 95.818 174.0977
56.964720 95.805 173.9308
57.377510 95.793 173.7596
57.793291 95.780 173.5849
58.212085 95.767 173.4076
58.633914 95.753 173.2286
59.058799 95.738 173.0493
59.486764 95.722 172.8712
59.917829 95.706 172.6965
60.352019 95.688 172.5269
60.789354 95.670 172.3629
61.229859 95.652 172.2038
61.673556 95.633 172.0478
62.120468 95.614 171.8936
62.570618 95.595 171.7403
63.024031 95.576 171.5875
63.480729 95.557 171.4349
63.940736 95.537 171.2823
64.404077 95.518 171.1296
64.870776 95.498 170.9771
65.340856 95.478 170.8257
65.814343 95.458 170.6764
66.291261 95.438 170.5300
66.771635 95.418 170.3872
67.255489 95.399 170.2482
67.742850 95.380 170.1128
68.233743 95.361 169.9803
68.728193 95.342 169.8496
69.226226 95.324 169.7196
69.727867 95.305 169.5898
70.233144 95.286 169.4608
70.742083 95.267 169.3331
71.254709 95.247 169.2073
71.771050 95.228 169.0825
72.291132 95.208 168.9574
72.814984 95.189 168.8311
73.342631 95.169 168.7036
73.874102 95.149 168.5756
74.409424 95.129 168.4478
74.948626 95.109 168.3206
75.491734 95.089 168.1943
76.038779 95.069 168.0686
76.589787 95.050 167.9435
77.144788 95.031 167.8184
77.703811 95.012 167.6921
78.266885 94.995 167.5631
78.834039 94.977 167.4300
79.405303 94.959 167.2922
79.980706 94.942 167.1494
80.560280 94.923 167.0018
81.144053 94.904 166.8498
81.732056 94.884 166.6941
82.324320 94.863 166.5357
82.920876 94.841 166.3758
83.521755 94.816 166.2164
84.126988 94.790 166.0601
84.736607 94.762 165.9098
85.350643 94.733 165.7683
85.969129 94.702 165.6371
86.592097 94.672 165.5162
87.219579 94.641 165.4048
87.851608 94.611 165.3017
88.488217 94.581 165.2055
89.129439 94.551 165.1150
89.775308 94.522 165.0290
90.425856 94.494 164.9471
91.081119 94.466 164.8687
91.741131 94.438 164.7924
92.405925 94.411 164.7166
93.075536 94.384 164.6401
93.750000 94.357 164.5627
94.429351 94.330 164.4846
95.113625 94.303 164.4063
95.802858 94.275 164.3286
96.497085 94.248 164.2523
97.196342 94.221 164.1786
97.900667 94.193 164.1085
98.610096 94.166 164.0428
99.324665 94.139 163.9822
100.044413 94.112 163.9267
100.769376 94.085 163.8762
101.499592 94.059 163.8302
102.235100 94.033 163.7873
102.975938 94.008 163.7460
103.722144 93.983 163.7046
104.473757 93.959 163.6613
105.230817 93.935 163.6144
105.993363 93.912 163.5625
106.761435 93.889 163.5051
107.535072 93.866 163.4420
108.314315 93.843 163.3737
109.099206 93.820 163.3007
109.889783 93.796 163.2236
110.686090 93.772 163.1430
111.488167 93.746 163.0592
112.296056 93.718 162.9730
113.109800 93.689 162.8860
113.929440 93.658 162.8016
114.755020 93.624 162.7245
115.586582 93.588 162.6597
116.424170 93.550 162.6116
117.267827 93.513 162.5822
118.117598 93.475 162.5712
118.973527 93.440 162.5755
119.835658 93.406 162.5901
120.704037 93.375 162.6088
121.578708 93.346 162.6257
122.459718 93.319 162.6378
123.347111 93.293 162.6451
124.240935 93.268 162.6483
125.141236 93.243 162.6487
126.048061 93.217 162.6472
126.961458 93.192 162.6440
127.881473 93.166 162.6395
128.808154 93.139 162.6340
129.741551 93.113 162.6279
130.681712 93.086 162.6215
131.628686 93.059 162.6152
132.582521 93.031 162.6093
133.543269 93.003 162.6044
134.510979 92.974 162.6016
135.485701 92.945 162.6020
136.467486 92.915 162.6067
137.456386 92.885 162.6163
138.452451 92.854 162.6311
139.455735 92.824 162.6512
140.466288 92.794 162.6759
141.484165 92.765 162.7039
142.509418 92.736 162.7339
143.542100 92.707 162.7648
144.582265 92.679 162.7969
145.629968 92.651 162.8305
146.685262 92.624 162.8655
147.748204 92.597 162.9015
148.818849 92.570 162.9380
149.897251 92.542 162.9756
150.983469 92.514 163.0154
152.077557 92.485 163.0598
153.179574 92.457 163.1110
154.289576 92.430 163.1707
155.407622 92.403 163.2381
156.533770 92.378 163.3094
157.668078 92.355 163.3786
158.810606 92.333 163.4400
159.961413 92.312 163.4898
161.120559 92.290 163.5271
162.288105 92.267 163.5532
163.464112 92.244 163.5718
164.648640 92.219 163.5875
165.841752 92.192 163.6053
167.043510 92.164 163.6295
168.253976 92.135 163.6632
169.473213 92.105 163.7076
170.701286 92.074 163.7623
171.938258 92.045 163.8253
173.184194 92.015 163.8941
174.439158 91.987 163.9667
175.703216 91.958 164.0425
176.976434 91.931 164.1216
178.258878 91.903 164.2029
179.550615 91.877 164.2819
180.851713 91.851 164.3536
182.162239 91.826 164.4156
183.482262 91.801 164.4697
184.811850 91.777 164.5200
186.151073 91.752 164.5698
187.500000 91.727 164.6215
188.858702 91.701 164.6755
190.227250 91.674 164.7322
191.605715 91.646 164.7923
192.994169 91.618 164.8565
194.392685 91.588 164.9261
195.801334 91.558 165.0026
197.220191 91.528 165.0870
198.649330 91.498 165.1798
200.088825 91.469 165.2808
201.538751 91.440 165.3885
202.999184 91.412 165.5004
204.470200 91.385 165.6124
205.951875 91.360 165.7207
207.444287 91.334 165.8228
208.947514 91.309 165.9184
210.461634 91.283 166.0093
211.986726 91.256 166.0992
213.522869 91.227 166.1928
215.070144 91.197 166.2955
216.628631 91.167 166.4109
218.198411 91.136 166.5404
219.779567 91.107 166.6813
221.372180 91.079 166.8286
222.976334 91.052 166.9769
224.592112 91.027 167.1223
226.219600 91.002 167.2631
227.858880 90.978 167.3996
229.510039 90.953 167.5332
231.173164 90.929 167.6656
232.848340 90.904 167.7975
234.535655 90.880 167.9293
236.235197 90.855 168.0604
237.947054 90.830 168.1903
239.671317 90.804 168.3190
241.408074 90.778 168.4479
243.157416 90.750 168.5791
244.919435 90.721 168.7157
246.694223 90.691 168.8613
248.481871 90.660 169.0193
250.282473 90.628 169.1932
252.096123 90.597 169.3845
253.922915 90.568 169.5919
255.762945 90.541 169.8096
257.616309 90.517 170.0277
259.483103 90.495 170.2371
261.363424 90.474 170.4333
263.257372 90.453 170.6193
265.165043 90.430 170.8029
267.086538 90.405 170.9937
269.021957 90.378 171.1995
270.971401 90.351 171.4247
272.934972 90.324 171.6697
274.912771 90.299 171.9326
276.904902 90.276 172.2109
278.911469 90.256 172.5024
280.932577 90.240 172.8042
282.968330 90.228 173.1114
285.018835 90.220 173.4154
287.084199 90.217 173.7052
289.164530 90.217 173.9704
291.259935 90.219 174.2057
293.370525 90.221 174.4127
295.496408 90.223 174.5980
297.637697 90.223 174.7688
299.794503 90.222 174.9300
301.966937 90.220 175.0836
304.155114 90.217 175.2299
306.359147 90.213 175.3679
308.579152 90.209 175.4966
310.815244 90.204 175.6155
313.067539 90.197 175.7257
315.336156 90.188 175.8304
317.621211 90.177 175.9349
319.922826 90.164 176.0445
322.241118 90.149 176.1625
324.576210 90.133 176.2896
326.928223 90.117 176.4243
329.297280 90.100 176.5646
331.683504 90.084 176.7084
334.087019 90.067 176.8538
336.507952 90.051 176.9993
338.946427 90.034 177.1446
341.402572 90.017 177.2908
343.876516 89.998 177.4406
346.368387 89.979 177.5963
348.878315 89.960 177.7599
351.406431 89.940 177.9316
353.952867 89.921 178.1105
356.517756 89.901 178.2954
359.101230 89.882 178.4849
361.703426 89.863 178.6779
364.324478 89.844 178.8738
366.964523 89.825 179.0727
369.623699 89.807 179.2749
372.302145 89.788 179.4810
375.000000 89.771 179.6913
377.717405 89.753 179.9061
380.454501 89.736 -179.8752
383.211431 89.719 -179.6532
385.988339 89.702 -179.4283
388.785369 89.686 -179.2012
391.602668 89.669 -178.9718
394.440383 89.654 -178.7399
397.298660 89.639 -178.5050
400.177650 89.624 -178.2675
403.077502 89.610 -178.0286
405.998368 89.597 -177.7903
408.940400 89.583 -177.5534
411.903750 89.569 -177.3168
414.888575 89.555 -177.0772
417.895028 89.540 -176.8310
420.923268 89.526 -176.5757
423.973452 89.511 -176.3104
427.045738 89.498 -176.0367
430.140287 89.487 -175.7582
433.257261 89.478 -175.4796
436.396822 89.470 -175.2039
439.559133 89.464 -174.9317
442.744360 89.459 -174.6631
445.952668 89.455 -174.4002
449.184225 89.453 -174.1480
452.439199 89.450 -173.9124
455.717760 89.447 -173.6967
459.020079 89.442 -173.4969
462.346327 89.434 -173.3024
465.696680 89.423 -173.1013
469.071310 89.410 -172.8862
472.470394 89.397 -172.6554
475.894109 89.384 -172.4121
479.342634 89.371 -172.1618
482.816148 89.359 -171.9100
486.314833 89.347 -171.6587
489.838871 89.334 -171.4035
493.388445 89.320 -171.1368
496.963741 89.307 -170.8544
500.564945 89.295 -170.5597
504.192245 89.286 -170.2605
507.845830 89.277 -169.9642
511.525890 89.270 -169.6743
515.232618 89.263 -169.3900
518.966206 89.255 -169.1077
522.726849 89.246 -168.8225
526.514743 89.237 -168.5296
530.330086 89.229 -168.2265
534.173076 89.221 -167.9157
538.043915 89.215 -167.6022
541.942803 89.210 -167.2890
545.869944 89.206 -166.9760
549.825542 89.203 -166.6627
553.809805 89.201 -166.3509
557.822939 89.199 -166.0439
561.865154 89.198 -165.7440
565.936660 89.197 -165.4516
570.037671 89.196 -165.1644
574.168399 89.194 -164.8793
578.329060 89.191 -164.5947
582.519870 89.188 -164.3113
586.741049 89.185 -164.0297
590.992817 89.181 -163.7482
595.275394 89.176 -163.4640
599.589005 89.170 -163.1766
603.933874 89.164 -162.8873
608.310228 89.157 -162.5955
612.718295 89.147 -162.2961
617.158304 89.136 -161.9806
621.630488 89.124 -161.6387
626.135079 89.113 -161.2649
630.672311 89.106 -160.8634
635.242423 89.103 -160.4492
639.845651 89.105 -160.0403
644.482237 89.112 -159.6481
649.152421 89.120 -159.2765
653.856447 89.130 -158.9272
658.594560 89.140 -158.6034
663.367008 89.149 -158.3094
668.174039 89.155 -158.0452
673.015903 89.155 -157.8020
677.892854 89.149 -157.5632
682.805145 89.137 -157.3109
687.753032 89.120 -157.0304
692.736774 89.099 -156.7103
697.756631 89.076 -156.3424
702.812863 89.054 -155.9242
707.905735 89.034 -155.4600
713.035511 89.018 -154.9589
718.202461 89.007 -154.4313
723.406852 88.999 -153.8859
728.648956 88.996 -153.3292
733.929047 88.998 -152.7667
739.247399 89.003 -152.2029
744.604290 89.011 -151.6410
750.000000 89.023 -151.0827
755.434809 89.037 -150.5284
760.909001 89.055 -149.9786
766.422861 89.074 -149.4333
771.976677 89.095 -148.8930
777.570739 89.119 -148.3583
783.205337 89.144 -147.8291
788.880766 89.170 -147.3036
794.597321 89.198 -146.7780
800.355301 89.228 -146.2491
806.155005 89.260 -145.7174
811.996736 89.296 -145.1882
817.880799 89.336 -144.6699
823.807501 89.379 -144.1716
829.777150 89.424 -143.7012
835.790057 89.469 -143.2601
841.846536 89.512 -142.8411
847.946903 89.554 -142.4332
854.091476 89.594 -142.0280
860.280575 89.633 -141.6214
866.514523 89.671 -141.2103
872.793644 89.709 -140.7916
879.118267 89.748 -140.3653
885.488720 89.789 -139.9354
891.905336 89.830 -139.5052
898.368450 89.873 -139.0749
904.878398 89.916 -138.6423
911.435520 89.960 -138.2063
918.040157 90.007 -137.7689
924.692655 90.055 -137.3329
931.393359 90.105 -136.9021
938.142619 90.156 -136.4801
944.940787 90.209 -136.0688
951.788218 90.262 -135.6673
958.685268 90.316 -135.2734
965.632296 90.370 -134.8848
972.629666 90.424 -134.4993
979.677741 90.478 -134.1157
986.776890 90.533 -133.7344
993.927482 90.589 -133.3533
1001.129891 90.646 -132.9674
1008.384491 90.705 -132.5728
1015.691660 90.767 -132.1713
1023.051781 90.833 -131.7687
1030.465236 90.902 -131.3737
1037.932411 90.975 -130.9981
1045.453698 91.051 -130.6537
1053.029486 91.129 -130.3459
1060.660172 91.205 -130.0709
1068.346153 91.279 -129.8203
1076.087829 91.351 -129.5848
1083.885605 91.422 -129.3578
1091.739887 91.491 -129.1374
1099.651084 91.560 -128.9232
1107.619609 91.627 -128.7151
1115.645878 91.694 -128.5118
1123.730308 91.761 -128.3122
1131.873321 91.827 -128.1147
1140.075341 91.892 -127.9181
1148.336797 91.958 -127.7219
1156.658119 92.023 -127.5255
1165.039741 92.089 -127.3282
1173.482099 92.155 -127.1288
1181.985634 92.224 -126.9283
1190.550789 92.295 -126.7326
1199.178011 92.368 -126.5525
1207.867749 92.443 -126.3993
1216.620457 92.518 -126.2781
1225.436590 92.591 -126.1855
1234.316609 92.662 -126.1131
1243.260976 92.729 -126.0522
1252.270157 92.793 -125.9955
1261.344623 92.855 -125.9386
1270.484846 92.915 -125.8798
1279.691303 92.974 -125.8175
1288.964474 93.032 -125.7501
1298.304842 93.090 -125.6778
1307.712894 93.147 -125.6028
1317.189120 93.204 -125.5286
1326.734016 93.261 -125.4572
1336.348077 93.317 -125.3878
1346.031806 93.371 -125.3181
1355.785708 93.425 -125.2445
1365.610290 93.477 -125.1632
1375.506065 93.529 -125.0697
1385.473549 93.580 -124.9591
1395.513261 93.634 -124.8305
1405.625726 93.691 -124.6891
1415.811469 93.751 -124.5469
1426.071023 93.816 -124.4183
1436.404921 93.882 -124.3127
1446.813703 93.948 -124.2306
1457.297912 94.014 -124.1666
1467.858093 94.078 -124.1145
1478.494798 94.141 -124.0699
1489.208581 94.203 -124.0293
1500.000000 94.263 -123.9898
1510.869618 94.324 -123.9482
1521.818002 94.383 -123.9019
1532.845723 94.443 -123.8487
1543.953355 94.503 -123.7872
1555.141477 94.566 -123.7172
1566.410674 94.631 -123.6429
1577.761531 94.700 -123.5746
1589.194642 94.772 -123.5258
1600.710601 94.845 -123.5054
1612.310010 94.919 -123.5147
1623.993473 94.991 -123.5488
1635.761599 95.061 -123.6009
1647.615002 95.130 -123.6651
1659.554299 95.197 -123.7366
1671.580114 95.263 -123.8120
1683.693072 95.328 -123.8903
1695.893807 95.392 -123.9732
1708.182952 95.457 -124.0631
1720.561150 95.520 -124.1599
1733.029045 95.581 -124.2608
1745.587288 95.642 -124.3606
1758.236533 95.701 -124.4531
1770.977440 95.761 -124.5331
1783.810673 95.822 -124.6016
1796.736900 95.887 -124.6675
1809.756796 95.955 -124.7450
1822.871040 96.026 -124.8451
1836.080315 96.097 -124.9721
1849.385310 96.168 -125.1252
1862.786718 96.238 -125.3011
1876.285239 96.307 -125.4954
1889.881575 96.374 -125.7029
1903.576436 96.439 -125.9182
1917.370535 96.503 -126.1363
1931.264593 96.567 -126.3539
1945.259332 96.633 -126.5720
1959.355483 96.700 -126.7989
1973.553781 96.771 -127.0480
1987.854965 96.842 -127.3306
2002.259781 96.912 -127.6510
2016.768981 96.981 -128.0071
2031.383320 97.047 -128.3940
2046.103561 97.110 -128.8060
2060.930471 97.171 -129.2392
2075.864823 97.228 -129.6917
2090.907395 97.282 -130.1626
2106.058972 97.332 -130.6489
2121.320344 97.378 -131.1445
2136.692305 97.420 -131.6413
2152.175658 97.459 -132.1321
2167.771210 97.497 -132.6147
2183.479774 97.534 -133.0948
2199.302169 97.572 -133.5827
2215.239219 97.609 -134.0863
2231.291755 97.645 -134.6097
2247.460615 97.678 -135.1529
2263.746641 97.707 -135.7125
2280.150683 97.733 -136.2818
2296.673595 97.755 -136.8525
2313.316238 97.774 -137.4174
2330.079481 97.791 -137.9741
2346.964198 97.809 -138.5281
2363.971268 97.826 -139.0899
2381.101578 97.843 -139.6686
2398.356022 97.858 -140.2685
2415.735498 97.870 -140.8893
2433.240913 97.878 -141.5272
2450.873180 97.881 -142.1776
2468.633217 97.880 -142.8366
2486.521951 97.874 -143.5002
2504.540314 97.863 -144.1623
2522.689246 97.846 -144.8130
2540.969692 97.825 -145.4420
2559.382606 97.801 -146.0443
2577.928947 97.775 -146.6231
2596.609683 97.749 -147.1861
2615.425787 97.721 -147.7399
2634.378241 97.691 -148.2875
2653.468031 97.658 -148.8269
2672.696154 97.622 -149.3513
2692.063613 97.583 -149.8519
2711.571415 97.543 -150.3231
2731.220579 97.503 -150.7667
2751.012130 97.464 -151.1914
2770.947098 97.427 -151.6066
2791.026522 97.390 -152.0193
2811.251451 97.352 -152.4331
2831.622938 97.314 -152.8491
2852.142045 97.274 -153.2670
2872.809842 97.232 -153.6844
2893.627406 97.187 -154.0951
2914.595823 97.138 -154.4890
2935.716186 97.087 -154.8568
2956.989596 97.036 -155.1956
2978.417161 96.984 -155.5092
3000.000000 96.933 -155.8037
3021.739237 96.883 -156.0837
3043.636005 96.832 -156.3499
3065.691446 96.780 -156.5975
3087.906710 96.728 -156.8193
3110.282955 96.677 -157.0118
3132.821347 96.629 -157.1792
3155.523062 96.584 -157.3313
3178.389283 96.543 -157.4784
3201.421202 96.505 -157.6287
3224.620020 96.468 -157.7879
3247.986946 96.433 -157.9597
3271.523198 96.398 -158.1435
3295.230004 96.361 -158.3332
3319.108599 96.324 -158.5193
3343.160228 96.286 -158.6962
3367.386145 96.249 -158.8648
3391.787613 96.212 -159.0298
3416.365904 96.176 -159.1958
3441.122300 96.140 -159.3629
3466.058091 96.103 -159.5256
3491.174576 96.067 -159.6783
3516.473066 96.031 -159.8215
3541.954880 95.998 -159.9627
3567.621345 95.967 -160.1132
3593.473800 95.937 -160.2837
3619.513592 95.906 -160.4818
3645.742080 95.871 -160.7080
3672.160630 95.829 -160.9490
3698.770620 95.777 -161.1743
3725.573436 95.715 -161.3398
3752.570477 95.648 -161.3983
3779.763150 95.582 -161.3150
3807.152872 95.529 -161.0915
3834.741071 95.499 -160.7818
3862.529185 95.494 -160.4774
3890.518664 95.511 -160.2643
3918.710966 95.540 -160.1887
3947.107561 95.572 -160.2527
3975.709929 95.601 -160.4323
4004.519563 95.625 -160.6981
4033.537962 95.643 -161.0258
4062.766641 95.655 -161.3965
4092.207123 95.660 -161.7940
4121.860942 95.661 -162.2082
4151.729646 95.657 -162.6365
4181.814790 95.649 -163.0816
4212.117944 95.638 -163.5449
4242.640687 95.621 -164.0217
4273.384610 95.600 -164.5030
4304.351317 95.575 -164.9824
4335.542421 95.548 -165.4592
4366.959549 95.519 -165.9382
4398.604338 95.489 -166.4281
4430.478438 95.456 -166.9373
4462.583511 95.420 -167.4683
4494.921231 95.380 -168.0175
4527.493283 95.334 -168.5799
4560.301365 95.283 -169.1521
4593.347189 95.225 -169.7308
4626.632476 95.160 -170.3073
4660.158962 95.087 -170.8683
4693.928395 95.008 -171.4009
4727.942535 94.924 -171.8980
4762.203156 94.836 -172.3598
4796.712043 94.748 -172.7934
4831.470996 94.657 -173.2072
4866.481826 94.565 -173.6053
4901.746360 94.470 -173.9882
4937.266434 94.374 -174.3571
4973.043902 94.274 -174.7146
5009.080628 94.172 -175.0606
5045.378492 94.066 -175.3897
5081.939384 93.956 -175.6940
5118.765212 93.844 -175.9676
5155.857894 93.729 -176.2098
5193.219366 93.614 -176.4262
5230.851574 93.499 -176.6255
5268.756481 93.384 -176.8145
5306.936062 93.268 -176.9986
5345.392309 93.150 -177.1841
5384.127225 93.029 -177.3762
5423.142830 92.903 -177.5732
5462.441159 92.771 -177.7653
5502.024259 92.630 -177.9387
5541.894195 92.482 -178.0801
5582.053045 92.326 -178.1808
5622.502902 92.163 -178.2344
5663.245876 91.994 -178.2335
5704.284090 91.818 -178.1692
5745.619684 91.635 -178.0340
5787.254813 91.447 -177.8201
5829.191647 91.254 -177.5156
5871.432373 91.057 -177.1046
5913.979192 90.858 -176.5718
5956.834323 90.659 -175.9077
6000.000000 90.466 -175.1122
6043.478473 90.280 -174.1920
6087.272010 90.104 -173.1575
6131.382892 89.941 -172.0227
6175.813420 89.792 -170.8037
6220.565910 89.657 -169.5130
6265.642695 89.536 -168.1571
6311.046124 89.431 -166.7381
6356.778566 89.342 -165.2589
6402.842404 89.270 -163.7264
6449.240040 89.218 -162.1510
6495.973891 89.187 -160.5460
6543.046396 89.176 -158.9284
6590.460007 89.186 -157.3147
6638.217197 89.216 -155.7163
6686.320456 89.266 -154.1384
6734.772290 89.335 -152.5830
6783.575226 89.425 -151.0536
6832.731809 89.535 -149.5567
6882.244600 89.668 -148.1024
6932.116181 89.823 -146.7051
6982.349153 90.001 -145.3806
7032.946133 90.202 -144.1414
7083.909760 90.425 -142.9962
7135.242690 90.673 -141.9538
7186.947600 90.946 -141.0268
7239.027185 91.247 -140.2349
7291.484160 91.577 -139.6076
7344.321260 91.936 -139.1860
7397.541239 92.325 -139.0176
7451.146872 92.740 -139.1516
7505.140954 93.179 -139.6369
7559.526299 93.636 -140.5249
7614.305743 94.103 -141.8680
7669.482141 94.573 -143.7184
7725.058371 95.031 -146.1234
7781.037328 95.462 -149.1167
7837.421932 95.848 -152.7052
7894.215122 96.170 -156.8601
7951.419859 96.409 -161.5141
8009.039125 96.549 -166.5613
8067.075924 96.581 -171.8629
8125.533282 96.498 -177.2589
8184.414245 96.298 177.4179
8243.721885 95.987 172.3288
8303.459292 95.574 167.6172
8363.629581 95.071 163.3973
8424.235888 94.495 159.7495
8485.281374 93.863 156.7177
8546.769221 93.194 154.3082
8608.702634 92.505 152.4973
8671.084842 91.810 151.2413
8733.919097 91.122 150.4878
8797.208675 90.449 150.1836
8860.956876 89.798 150.2788
8925.167022 89.175 150.7239
8989.842461 88.584 151.4676
9054.986566 88.027 152.4592
9120.602731 87.504 153.6541
9186.694378 87.016 155.0172
9253.264952 86.560 156.5251
9320.317925 86.137 158.1603
9387.856790 85.745 159.9036
9455.885071 85.385 161.7338
9524.406312 85.054 163.6306
9593.424086 84.753 165.5811
9662.941992 84.478 167.5819
9732.963653 84.230 169.6331
9803.492719 84.009 171.7289
9874.532869 83.816 173.8552
9946.087805 83.651 175.9931
10018.161257 83.513 178.1276
10090.756983 83.401 -179.7475
10163.878768 83.313 -177.6343
10237.530423 83.250 -175.5360
10311.715789 83.210 -173.4570
10386.438732 83.194 -171.3982
10461.703149 83.201 -169.3505
10537.512962 83.233 -167.2983
10613.872125 83.294 -165.2317
10690.784618 83.390 -163.1598
10768.254450 83.525 -161.1144
10846.285661 83.703 -159.1373
10924.882318 83.925 -157.2688
11004.048518 84.194 -155.5507
11083.788390 84.511 -154.0323
11164.106090 84.875 -152.7716
11245.005805 85.284 -151.8292
11326.491752 85.734 -151.2658
11408.568180 86.221 -151.1452
11491.239368 86.737 -151.5377
11574.509626 87.270 -152.5153
11658.383294 87.804 -154.1382
11742.864745 88.320 -156.4451
11827.958384 88.796 -159.4463
11913.668646 89.209 -163.1198
12000.000000 89.535 -167.4033
12086.956947 89.751 -172.1871
12174.544019 89.839 -177.3145
12262.765784 89.790 177.4050
12351.626840 89.601 172.1754
12441.131819 89.278 167.1932
12531.285389 88.833 162.6313
12622.092249 88.285 158.6264
12713.557132 87.657 155.2703
12805.684808 86.973 152.6071
12898.480079 86.256 150.6394
12991.947783 85.529 149.3392
13086.092792 84.808 148.6566
13180.920015 84.112 148.5244
13276.434395 83.451 148.8643
13372.640911 82.834 149.5972
13469.544580 82.267 150.6516
13567.150452 81.754 151.9620
13665.463617 81.295 153.4668
13764.489200 80.890 155.1110
13864.232362 80.541 156.8497
13964.698305 80.246 158.6438
14065.892266 80.006 160.4528
14167.819519 79.821 162.2322
14270.485380 79.693 163.9351
14373.895200 79.621 165.5065
14478.054370 79.606 166.8782
14582.968320 79.645 167.9695
14688.642520 79.733 168.6943
14795.082478 79.857 168.9695
14902.293745 79.997 168.7336
15010.281908 80.125 167.9856
15119.052599 80.207 166.8381
15228.611486 80.218 165.5528
15338.964283 80.163 164.4979
15450.116741 80.092 163.9265
15562.074656 80.081 163.6742
15674.843864 80.173 163.2165
15788.430244 80.351 162.0593
15902.839718 80.558 159.9792
16018.078250 80.735 156.9995
16134.151848 80.832 153.2800
16251.066563 80.817 149.0416
16368.828491 80.666 144.5349
16487.443769 80.372 140.0231
16606.918584 79.936 135.7637
16727.259161 79.371 131.9883
16848.471777 78.700 128.8863
16970.562748 77.953 126.5891
17093.538442 77.163 125.1609
17217.405268 76.368 124.5982
17342.169684 75.603 124.8304
17467.838194 74.904 125.7224
17594.417350 74.297 127.0853
17721.913751 73.802 128.6937
17850.334044 73.428 130.3095
17979.684923 73.171 131.7105
18109.973131 73.016 132.7147
18241.205462 72.945 133.1876
18373.388756 72.933 133.0383
18506.529905 72.958 132.2096
18640.635849 72.995 130.6661
18775.713581 73.018 128.3892
18911.770141 72.999 125.3885
19048.812624 72.907 121.7204
19186.848172 72.712 117.5062
19325.883983 72.395 112.9393
19465.927305 71.951 108.2788
19606.985439 71.408 103.8339
19749.065738 70.830 99.9553
19892.175609 70.326 97.0291
20036.322514 70.026 95.4373
