* Measurement data measured by REW V5.31.3
* Source: EXCL: Microphone (USB Sound Device        ), no input selected, R, volume: 0.390
* Format: 256k Log Swept Sine, 1 sweep at -15.0 dBFS with no timing reference
* Dated: Jul 8, 2025 12:06:01 AM
* REW Settings:
*  C-weighting compensation: Off
*  Target level: 75.0 dB
* Note: TANGZU Wu Zetian Legend  L
* Measurement: L TANGZU Wu Zetian Legen
* Smoothing: 1/12 octave
* Frequency Step: 96 ppo
* Start Frequency: 0.36621094 Hz
*
* Freq(Hz) SPL(dB) Phase(degrees)
0.366211 92.186 157.7664
0.368865 92.178 157.7441
0.371538 92.167 157.7107
0.374230 92.154 157.6686
0.376942 92.138 157.6201
0.379673 92.122 157.5667
0.382424 92.104 157.5095
0.385196 92.086 157.4490
0.387987 92.068 157.3857
0.390798 92.050 157.3196
0.393630 92.032 157.2510
0.396483 92.013 157.1798
0.399356 91.994 157.1060
0.402250 91.975 157.0297
0.405165 91.956 156.9508
0.408101 91.937 156.8693
0.411058 91.917 156.7852
0.414037 91.898 156.6984
0.417037 91.878 156.6089
0.420059 91.858 156.5167
0.423103 91.838 156.4218
0.426169 91.818 156.3241
0.429257 91.798 156.2236
0.432368 91.778 156.1203
0.435501 91.757 156.0142
0.438656 91.737 155.9051
0.441835 91.716 155.7932
0.445037 91.695 155.6784
0.448262 91.674 155.5606
0.451510 91.652 155.4399
0.454782 91.631 155.3161
0.458077 91.609 155.1894
0.461397 91.588 155.0596
0.464740 91.566 154.9267
0.468108 91.544 154.7908
0.471500 91.521 154.6518
0.474917 91.499 154.5097
0.478358 91.476 154.3644
0.481825 91.454 154.2160
0.485316 91.431 154.0644
0.488833 91.408 153.9097
0.492375 91.385 153.7517
0.495943 91.361 153.5905
0.499537 91.338 153.4261
0.503157 91.314 153.2585
0.506803 91.290 153.0877
0.510475 91.266 152.9136
0.514175 91.242 152.7362
0.517900 91.217 152.5556
0.521653 91.193 152.3718
0.525434 91.168 152.1847
0.529241 91.143 151.9944
0.533076 91.118 151.8008
0.536939 91.093 151.6040
0.540830 91.067 151.4040
0.544749 91.041 151.2008
0.548696 91.016 150.9944
0.552673 90.990 150.7849
0.556677 90.963 150.5721
0.560711 90.937 150.3563
0.564774 90.910 150.1374
0.568867 90.883 149.9155
0.572989 90.856 149.6905
0.577141 90.829 149.4626
0.581324 90.802 149.2317
0.585536 90.774 148.9980
0.589779 90.746 148.7615
0.594053 90.718 148.5222
0.598358 90.690 148.2802
0.602694 90.662 148.0356
0.607061 90.633 147.7885
0.611460 90.604 147.5390
0.615891 90.575 147.2871
0.620354 90.546 147.0329
0.624849 90.517 146.7766
0.629377 90.487 146.5183
0.633938 90.457 146.2581
0.638532 90.427 145.9960
0.643159 90.397 145.7323
0.647819 90.366 145.4672
0.652514 90.335 145.2007
0.657242 90.305 144.9330
0.662005 90.273 144.6643
0.666802 90.242 144.3947
0.671634 90.210 144.1246
0.676501 90.178 143.8541
0.681403 90.146 143.5833
0.686341 90.114 143.3127
0.691314 90.081 143.0422
0.696324 90.048 142.7723
0.701370 90.015 142.5031
0.706452 89.981 142.2347
0.711571 89.946 141.9674
0.716728 89.911 141.7010
0.721921 89.873 141.4354
0.727153 89.834 141.1699
0.732422 89.792 140.9038
0.737729 89.747 140.6360
0.743075 89.699 140.3652
0.748460 89.649 140.0905
0.753883 89.597 139.8110
0.759346 89.544 139.5261
0.764849 89.491 139.2354
0.770391 89.437 138.9386
0.775974 89.383 138.6354
0.781597 89.328 138.3257
0.787261 89.272 138.0094
0.792966 89.217 137.6864
0.798712 89.161 137.3564
0.804500 89.104 137.0194
0.810329 89.046 136.6753
0.816201 88.988 136.3239
0.822116 88.930 135.9652
0.828073 88.870 135.5991
0.834074 88.810 135.2254
0.840118 88.748 134.8441
0.846206 88.686 134.4550
0.852338 88.622 134.0581
0.858514 88.558 133.6532
0.864735 88.492 133.2404
0.871001 88.425 132.8195
0.877313 88.356 132.3904
0.883670 88.286 131.9532
0.890074 88.214 131.5078
0.896524 88.140 131.0542
0.903020 88.065 130.5923
0.909564 87.987 130.1221
0.916155 87.908 129.6437
0.922794 87.826 129.1571
0.929481 87.742 128.6623
0.936216 87.656 128.1595
0.943000 87.567 127.6488
0.949834 87.475 127.1302
0.956717 87.381 126.6039
0.963649 87.284 126.0702
0.970632 87.183 125.5293
0.977666 87.079 124.9815
0.984750 86.972 124.4269
0.991886 86.861 123.8662
0.999074 86.747 123.2995
1.006314 86.628 122.7275
1.013606 86.506 122.1506
1.020951 86.379 121.5695
1.028349 86.248 120.9847
1.035801 86.112 120.3970
1.043307 85.971 119.8073
1.050867 85.825 119.2162
1.058482 85.673 118.6248
1.066152 85.516 118.0339
1.073878 85.353 117.4443
1.081660 85.182 116.8566
1.089498 85.004 116.2712
1.097393 84.817 115.6878
1.105345 84.620 115.1059
1.113355 84.411 114.5244
1.121423 84.190 113.9420
1.129549 83.956 113.3576
1.137734 83.708 112.7698
1.145979 83.447 112.1776
1.154283 83.172 111.5798
1.162647 82.885 110.9752
1.171072 82.585 110.3625
1.179558 82.274 109.7405
1.188106 81.952 109.1077
1.196715 81.619 108.4626
1.205387 81.277 107.8034
1.214122 80.926 107.1283
1.222920 80.567 106.4351
1.231782 80.201 105.7216
1.240708 79.829 104.9850
1.249699 79.452 104.2227
1.258754 79.071 103.4311
1.267876 78.687 102.6067
1.277063 78.301 101.7453
1.286318 77.915 100.8422
1.295639 77.530 99.8920
1.305027 77.147 98.8885
1.314484 76.767 97.8247
1.324009 76.393 96.6926
1.333604 76.025 95.4828
1.343268 75.666 94.1847
1.353002 75.316 92.7858
1.362806 74.979 91.2718
1.372681 74.656 89.6261
1.382628 74.348 87.8294
1.392647 74.059 85.8594
1.402739 73.790 83.6907
1.412904 73.544 81.2938
1.423142 73.322 78.6355
1.433455 73.128 75.6780
1.443843 72.963 72.3789
1.454305 72.829 68.6903
1.464844 72.727 64.5583
1.475459 72.658 59.9230
1.486150 72.621 54.7220
1.496920 72.617 48.8988
1.507767 72.645 42.4196
1.518693 72.703 35.2955
1.529698 72.790 27.6061
1.540783 72.906 19.5143
1.551948 73.047 11.2564
1.563194 73.214 3.1046
1.574521 73.404 -4.6883
1.585931 73.616 -11.9336
1.597423 73.848 -18.5259
1.608999 74.099 -24.4357
1.620658 74.365 -29.6866
1.632402 74.646 -34.3332
1.644232 74.940 -38.4428
1.656146 75.244 -42.0840
1.668147 75.556 -45.3210
1.680235 75.874 -48.2108
1.692411 76.196 -50.8026
1.704675 76.519 -53.1382
1.717028 76.842 -55.2527
1.729470 77.161 -57.1758
1.742003 77.474 -58.9324
1.754626 77.779 -60.5437
1.767341 78.075 -62.0282
1.780147 78.358 -63.4021
1.793047 78.629 -64.6805
1.806040 78.885 -65.8781
1.819128 79.129 -67.0098
1.832310 79.362 -68.0903
1.845587 79.586 -69.1343
1.858961 79.803 -70.1535
1.872432 80.017 -71.1567
1.886001 80.228 -72.1490
1.899667 80.437 -73.1329
1.913433 80.645 -74.1089
1.927299 80.852 -75.0765
1.941265 81.057 -76.0344
1.955332 81.261 -76.9809
1.969501 81.463 -77.9140
1.983773 81.663 -78.8319
1.998148 81.860 -79.7325
2.012627 82.054 -80.6138
2.027212 82.245 -81.4736
2.041902 82.433 -82.3099
2.056698 82.616 -83.1207
2.071602 82.795 -83.9040
2.086614 82.970 -84.6579
2.101734 83.138 -85.3807
2.116964 83.301 -86.0708
2.132304 83.458 -86.7273
2.147756 83.608 -87.3501
2.163320 83.751 -87.9402
2.178996 83.886 -88.5004
2.194786 84.013 -89.0351
2.210690 84.131 -89.5503
2.226710 84.241 -90.0523
2.242845 84.342 -90.5462
2.259098 84.434 -91.0353
2.275468 84.518 -91.5213
2.291957 84.594 -92.0045
2.308566 84.662 -92.4841
2.325295 84.723 -92.9589
2.342145 84.777 -93.4270
2.359117 84.825 -93.8862
2.376212 84.867 -94.3341
2.393431 84.905 -94.7681
2.410775 84.938 -95.1852
2.428244 84.967 -95.5825
2.445840 84.993 -95.9567
2.463564 85.017 -96.3048
2.481416 85.039 -96.6236
2.499397 85.060 -96.9100
2.517509 85.079 -97.1616
2.535752 85.098 -97.3767
2.554127 85.114 -97.5545
2.572635 85.129 -97.6958
2.591277 85.140 -97.8020
2.610055 85.148 -97.8749
2.628968 85.151 -97.9160
2.648019 85.150 -97.9267
2.667208 85.145 -97.9076
2.686535 85.136 -97.8593
2.706003 85.124 -97.7818
2.725612 85.110 -97.6753
2.745363 85.095 -97.5397
2.765257 85.079 -97.3749
2.785295 85.063 -97.1809
2.805478 85.049 -96.9575
2.825808 85.037 -96.7046
2.846285 85.028 -96.4220
2.866910 85.024 -96.1092
2.887685 85.024 -95.7651
2.908611 85.029 -95.3882
2.929688 85.039 -94.9762
2.950917 85.054 -94.5268
2.972301 85.074 -94.0380
2.993839 85.097 -93.5096
3.015534 85.124 -92.9433
3.037386 85.154 -92.3421
3.059396 85.188 -91.7107
3.081565 85.225 -91.0547
3.103896 85.267 -90.3803
3.126388 85.313 -89.6945
3.149043 85.363 -89.0042
3.171862 85.418 -88.3166
3.194847 85.479 -87.6382
3.217998 85.546 -86.9749
3.241317 85.618 -86.3314
3.264805 85.698 -85.7102
3.288463 85.785 -85.1115
3.312293 85.879 -84.5337
3.336295 85.982 -83.9744
3.360471 86.092 -83.4323
3.384822 86.211 -82.9080
3.409350 86.336 -82.4037
3.434056 86.467 -81.9232
3.458940 86.603 -81.4709
3.484005 86.743 -81.0518
3.509252 86.886 -80.6704
3.534681 87.030 -80.3313
3.560295 87.175 -80.0386
3.586094 87.319 -79.7955
3.612081 87.463 -79.6042
3.638255 87.604 -79.4659
3.664620 87.745 -79.3801
3.691175 87.885 -79.3449
3.717923 88.024 -79.3576
3.744864 88.163 -79.4149
3.772001 88.301 -79.5139
3.799335 88.439 -79.6513
3.826866 88.576 -79.8247
3.854597 88.710 -80.0315
3.882529 88.843 -80.2697
3.910664 88.972 -80.5379
3.939002 89.098 -80.8352
3.967546 89.219 -81.1612
3.996296 89.335 -81.5166
4.025255 89.446 -81.9024
4.054423 89.552 -82.3200
4.083804 89.653 -82.7700
4.113396 89.750 -83.2517
4.143204 89.841 -83.7629
4.173227 89.927 -84.3003
4.203468 90.009 -84.8597
4.233928 90.086 -85.4370
4.264609 90.157 -86.0281
4.295512 90.224 -86.6295
4.326639 90.285 -87.2390
4.357992 90.341 -87.8559
4.389572 90.392 -88.4812
4.421380 90.436 -89.1171
4.453419 90.475 -89.7658
4.485691 90.508 -90.4284
4.518196 90.535 -91.1042
4.550936 90.556 -91.7904
4.583914 90.572 -92.4832
4.617131 90.582 -93.1782
4.650589 90.588 -93.8706
4.684289 90.588 -94.5565
4.718233 90.583 -95.2330
4.752424 90.573 -95.8989
4.786862 90.557 -96.5550
4.821549 90.537 -97.2029
4.856488 90.511 -97.8439
4.891680 90.479 -98.4783
4.927127 90.443 -99.1050
4.962831 90.403 -99.7220
4.998794 90.358 -100.3263
5.035017 90.309 -100.9146
5.071503 90.258 -101.4836
5.108253 90.203 -102.0306
5.145270 90.145 -102.5541
5.182555 90.083 -103.0536
5.220110 90.019 -103.5295
5.257937 89.952 -103.9827
5.296038 89.882 -104.4140
5.334415 89.810 -104.8241
5.373071 89.737 -105.2133
5.412006 89.664 -105.5816
5.451224 89.590 -105.9280
5.490725 89.517 -106.2516
5.530514 89.445 -106.5510
5.570590 89.373 -106.8257
5.610957 89.301 -107.0765
5.651616 89.230 -107.3052
5.692570 89.161 -107.5150
5.733821 89.093 -107.7093
5.775370 89.028 -107.8916
5.817221 88.965 -108.0645
5.859375 88.905 -108.2294
5.901834 88.848 -108.3870
5.944602 88.794 -108.5374
5.987679 88.743 -108.6816
6.031068 88.695 -108.8214
6.074771 88.650 -108.9597
6.118792 88.607 -109.0998
6.163131 88.567 -109.2447
6.207792 88.529 -109.3969
6.252776 88.493 -109.5579
6.298086 88.460 -109.7281
6.343725 88.430 -109.9071
6.389694 88.401 -110.0943
6.435996 88.375 -110.2893
6.482634 88.350 -110.4915
6.529610 88.326 -110.7006
6.576926 88.304 -110.9164
6.624585 88.283 -111.1388
6.672590 88.262 -111.3672
6.720942 88.244 -111.6006
6.769645 88.227 -111.8375
6.818700 88.211 -112.0760
6.868111 88.198 -112.3142
6.917881 88.186 -112.5500
6.968010 88.177 -112.7823
7.018504 88.171 -113.0103
7.069362 88.168 -113.2342
7.120590 88.168 -113.4545
7.172189 88.172 -113.6721
7.224161 88.180 -113.8880
7.276511 88.194 -114.1028
7.329239 88.213 -114.3171
7.382350 88.238 -114.5321
7.435845 88.270 -114.7498
7.489729 88.307 -114.9738
7.544002 88.351 -115.2087
7.598669 88.401 -115.4594
7.653732 88.459 -115.7300
7.709194 88.522 -116.0239
7.765058 88.592 -116.3433
7.821327 88.669 -116.6906
7.878004 88.750 -117.0689
7.935091 88.836 -117.4818
7.992592 88.926 -117.9329
8.050510 89.020 -118.4247
8.108847 89.115 -118.9582
8.167607 89.212 -119.5329
8.226793 89.311 -120.1472
8.286408 89.409 -120.7992
8.346454 89.506 -121.4871
8.406936 89.600 -122.2092
8.467856 89.692 -122.9635
8.529218 89.780 -123.7467
8.591024 89.864 -124.5537
8.653278 89.943 -125.3781
8.715983 90.016 -126.2132
8.779143 90.084 -127.0534
8.842760 90.145 -127.8939
8.906839 90.200 -128.7297
8.971381 90.248 -129.5542
9.036392 90.290 -130.3596
9.101873 90.326 -131.1380
9.167829 90.356 -131.8823
9.234263 90.380 -132.5875
9.301178 90.400 -133.2492
9.368578 90.416 -133.8626
9.436467 90.429 -134.4227
9.504847 90.441 -134.9250
9.573723 90.452 -135.3668
9.643099 90.464 -135.7474
9.712976 90.477 -136.0686
9.783361 90.494 -136.3333
9.854255 90.516 -136.5453
9.925663 90.544 -136.7095
9.997588 90.579 -136.8320
10.070035 90.621 -136.9217
10.143007 90.671 -136.9896
10.216507 90.729 -137.0470
10.290540 90.796 -137.1046
10.365109 90.871 -137.1722
10.440219 90.952 -137.2594
10.515873 91.039 -137.3761
10.592076 91.131 -137.5314
10.668830 91.225 -137.7320
10.746141 91.321 -137.9817
10.824012 91.416 -138.2826
10.902447 91.509 -138.6354
10.981451 91.598 -139.0395
11.061027 91.682 -139.4928
11.141180 91.758 -139.9907
11.221913 91.825 -140.5268
11.303232 91.884 -141.0938
11.385140 91.931 -141.6838
11.467641 91.967 -142.2891
11.550741 91.991 -142.9002
11.634442 92.003 -143.5069
11.718750 92.004 -144.0986
11.803669 91.992 -144.6660
11.889203 91.969 -145.1999
11.975357 91.936 -145.6912
12.062136 91.893 -146.1308
12.149543 91.842 -146.5110
12.237583 91.784 -146.8260
12.326262 91.721 -147.0714
12.415583 91.654 -147.2442
12.505552 91.586 -147.3434
12.596172 91.519 -147.3698
12.687449 91.454 -147.3275
12.779387 91.393 -147.2226
12.871992 91.338 -147.0629
12.965268 91.290 -146.8576
13.059220 91.249 -146.6179
13.153852 91.218 -146.3561
13.249170 91.195 -146.0847
13.345179 91.181 -145.8152
13.441884 91.176 -145.5588
13.539289 91.178 -145.3258
13.637401 91.188 -145.1247
13.736223 91.203 -144.9622
13.835761 91.223 -144.8433
13.936021 91.247 -144.7716
14.037007 91.274 -144.7495
14.138725 91.303 -144.7780
14.241180 91.333 -144.8575
14.344377 91.364 -144.9879
14.448323 91.396 -145.1691
14.553021 91.427 -145.4007
14.658478 91.457 -145.6828
14.764700 91.487 -146.0154
14.871691 91.516 -146.3985
14.979457 91.542 -146.8322
15.088005 91.566 -147.3162
15.197339 91.587 -147.8496
15.307465 91.603 -148.4306
15.418389 91.614 -149.0561
15.530117 91.620 -149.7218
15.642655 91.618 -150.4211
15.756008 91.607 -151.1461
15.870182 91.589 -151.8870
15.985184 91.560 -152.6319
16.101019 91.522 -153.3675
16.217694 91.474 -154.0792
16.335214 91.418 -154.7522
16.453586 91.354 -155.3711
16.572815 91.283 -155.9219
16.692909 91.209 -156.3925
16.813872 91.135 -156.7738
16.935713 91.063 -157.0609
17.058436 90.997 -157.2543
17.182048 90.940 -157.3605
17.306556 90.897 -157.3922
17.431967 90.869 -157.3673
17.558286 90.859 -157.3089
17.685521 90.865 -157.2420
17.813677 90.889 -157.1919
17.942762 90.927 -157.1818
18.072783 90.977 -157.2300
18.203746 91.035 -157.3487
18.335658 91.097 -157.5431
18.468526 91.159 -157.8114
18.602356 91.218 -158.1449
18.737156 91.270 -158.5301
18.872934 91.313 -158.9496
19.009695 91.347 -159.3841
19.147447 91.372 -159.8143
19.286197 91.388 -160.2227
19.425953 91.397 -160.5952
19.566721 91.401 -160.9223
19.708510 91.404 -161.2003
19.851326 91.406 -161.4314
19.995177 91.412 -161.6233
20.140070 91.421 -161.7880
20.286013 91.435 -161.9404
20.433014 91.453 -162.0957
20.581080 91.475 -162.2675
20.730219 91.498 -162.4655
20.880439 91.519 -162.6948
21.031747 91.538 -162.9549
21.184152 91.551 -163.2400
21.337661 91.558 -163.5400
21.492282 91.558 -163.8424
21.648024 91.550 -164.1337
21.804895 91.537 -164.4016
21.962902 91.520 -164.6371
22.122054 91.502 -164.8358
22.282360 91.485 -164.9991
22.443827 91.472 -165.1342
22.606464 91.464 -165.2534
22.770280 91.464 -165.3728
22.935283 91.470 -165.5096
23.101481 91.483 -165.6801
23.268884 91.500 -165.8974
23.437500 91.519 -166.1693
23.607338 91.538 -166.4977
23.778406 91.554 -166.8783
23.950714 91.565 -167.3014
24.124271 91.569 -167.7535
24.299086 91.566 -168.2184
24.475167 91.556 -168.6800
24.652524 91.541 -169.1235
24.831166 91.522 -169.5375
25.011103 91.501 -169.9149
25.192344 91.481 -170.2542
25.374898 91.464 -170.5585
25.558775 91.450 -170.8355
25.743984 91.442 -171.0959
25.930536 91.438 -171.3511
26.118439 91.439 -171.6113
26.307704 91.442 -171.8841
26.498341 91.446 -172.1726
26.690359 91.449 -172.4754
26.883768 91.449 -172.7865
27.078579 91.444 -173.0964
27.274801 91.434 -173.3934
27.472446 91.419 -173.6655
27.671522 91.401 -173.9018
27.872042 91.380 -174.0942
28.074014 91.358 -174.2387
28.277450 91.338 -174.3362
28.482360 91.321 -174.3923
28.688755 91.309 -174.4178
28.896645 91.303 -174.4272
29.106042 91.304 -174.4377
29.316957 91.311 -174.4672
29.529400 91.324 -174.5324
29.743382 91.339 -174.6464
29.958915 91.354 -174.8166
30.176009 91.367 -175.0438
30.394677 91.374 -175.3216
30.614929 91.374 -175.6369
30.836778 91.365 -175.9724
31.060234 91.348 -176.3094
31.285309 91.324 -176.6312
31.512015 91.295 -176.9261
31.740364 91.265 -177.1900
31.970368 91.235 -177.4261
32.202039 91.209 -177.6428
32.435388 91.185 -177.8503
32.670428 91.165 -178.0564
32.907171 91.147 -178.2630
33.145630 91.130 -178.4660
33.385817 91.114 -178.6574
33.627745 91.101 -178.8297
33.871425 91.093 -178.9816
34.116871 91.092 -179.1209
34.364096 91.100 -179.2656
34.613113 91.116 -179.4392
34.863934 91.138 -179.6633
35.116572 91.162 -179.9502
35.371041 91.181 179.7028
35.627354 91.191 179.3136
35.885525 91.190 178.9114
36.145566 91.177 178.5288
36.407492 91.156 178.1924
36.671316 91.129 177.9161
36.937051 91.101 177.6989
37.204712 91.075 177.5273
37.474313 91.052 177.3830
37.745867 91.031 177.2501
38.019389 91.011 177.1210
38.294893 90.990 176.9969
38.572394 90.968 176.8831
38.851905 90.947 176.7831
39.133442 90.928 176.6937
39.417019 90.914 176.6038
39.702651 90.904 176.4978
39.990353 90.898 176.3624
40.280140 90.893 176.1909
40.572026 90.887 175.9859
40.866028 90.880 175.7558
41.162160 90.871 175.5103
41.460438 90.861 175.2549
41.760877 90.851 174.9906
42.063494 90.841 174.7156
42.368303 90.829 174.4312
42.675322 90.814 174.1462
42.984565 90.795 173.8770
43.296048 90.772 173.6433
43.609789 90.750 173.4601
43.925804 90.730 173.3301
44.244108 90.718 173.2394
44.564719 90.714 173.1601
44.887654 90.718 173.0599
45.212928 90.726 172.9132
45.540560 90.732 172.7110
45.870565 90.731 172.4642
46.202962 90.719 172.2000
46.537768 90.695 171.9525
46.875000 90.662 171.7511
47.214676 90.624 171.6106
47.556813 90.587 171.5272
47.901429 90.553 171.4824
48.248542 90.524 171.4520
48.598171 90.500 171.4157
48.950334 90.479 171.3619
49.305048 90.461 171.2855
49.662333 90.446 171.1816
50.022206 90.433 171.0423
50.384688 90.421 170.8592
50.749796 90.408 170.6315
51.117550 90.389 170.3731
51.487969 90.365 170.1120
51.861072 90.337 169.8789
52.236879 90.309 169.6912
52.615409 90.286 169.5435
52.996681 90.273 169.4102
53.380717 90.267 169.2621
53.767536 90.265 169.0835
54.157158 90.263 168.8793
54.549603 90.259 168.6674
54.944892 90.253 168.4635
55.343045 90.248 168.2705
55.744084 90.242 168.0801
56.148028 90.235 167.8837
56.554900 90.225 167.6823
56.964720 90.209 167.4866
57.377510 90.189 167.3089
57.793291 90.165 167.1533
58.212085 90.140 167.0143
58.633914 90.113 166.8834
59.058799 90.083 166.7568
59.486764 90.050 166.6384
59.917829 90.016 166.5343
60.352019 89.981 166.4464
60.789354 89.948 166.3682
61.229859 89.918 166.2882
61.673556 89.891 166.1956
62.120468 89.866 166.0858
62.570618 89.841 165.9614
63.024031 89.817 165.8305
63.480729 89.793 165.7018
63.940736 89.771 165.5794
64.404077 89.752 165.4616
64.870776 89.735 165.3429
65.340856 89.720 165.2195
65.814343 89.705 165.0930
66.291261 89.688 164.9695
66.771635 89.671 164.8553
67.255489 89.653 164.7521
67.742850 89.635 164.6562
68.233743 89.616 164.5605
68.728193 89.597 164.4577
69.226226 89.577 164.3430
69.727867 89.554 164.2159
70.233144 89.529 164.0784
70.742083 89.502 163.9333
71.254709 89.473 163.7840
71.771050 89.443 163.6354
72.291132 89.412 163.4938
72.814984 89.383 163.3618
73.342631 89.357 163.2337
73.874102 89.334 163.0977
74.409424 89.313 162.9440
74.948626 89.293 162.7726
75.491734 89.270 162.5924
76.038779 89.244 162.4160
76.589787 89.215 162.2554
77.144788 89.185 162.1192
77.703811 89.155 162.0089
78.266885 89.126 161.9175
78.834039 89.099 161.8326
79.405303 89.075 161.7422
79.980706 89.052 161.6386
80.560280 89.028 161.5186
81.144053 89.003 161.3849
81.732056 88.975 161.2469
82.324320 88.946 161.1158
82.920876 88.914 160.9973
83.521755 88.883 160.8892
84.126988 88.852 160.7863
84.736607 88.821 160.6857
85.350643 88.789 160.5856
85.969129 88.757 160.4834
86.592097 88.725 160.3766
87.219579 88.691 160.2657
87.851608 88.657 160.1520
88.488217 88.624 160.0328
89.129439 88.591 159.9033
89.775308 88.557 159.7638
90.425856 88.521 159.6253
91.081119 88.483 159.5053
91.741131 88.445 159.4170
92.405925 88.409 159.3618
93.075536 88.376 159.3320
93.750000 88.344 159.3187
94.429351 88.314 159.3168
95.113625 88.285 159.3237
95.802858 88.257 159.3333
96.497085 88.229 159.3354
97.196342 88.200 159.3203
97.900667 88.169 159.2864
98.610096 88.135 159.2415
99.324665 88.099 159.1956
100.044413 88.062 159.1546
100.769376 88.026 159.1196
101.499592 87.991 159.0906
102.235100 87.958 159.0671
102.975938 87.928 159.0466
103.722144 87.901 159.0235
104.473757 87.876 158.9906
105.230817 87.852 158.9414
105.993363 87.827 158.8737
106.761435 87.800 158.7912
107.535072 87.769 158.7021
108.314315 87.736 158.6157
109.099206 87.701 158.5393
109.889783 87.665 158.4755
110.686090 87.632 158.4207
111.488167 87.599 158.3679
112.296056 87.568 158.3123
113.109800 87.536 158.2553
113.929440 87.502 158.2048
114.755020 87.465 158.1716
115.586582 87.425 158.1656
116.424170 87.384 158.1916
117.267827 87.343 158.2465
118.117598 87.303 158.3210
118.973527 87.267 158.4001
119.835658 87.234 158.4657
120.704037 87.203 158.5056
121.578708 87.172 158.5214
122.459718 87.140 158.5237
123.347111 87.108 158.5223
124.240935 87.076 158.5219
125.141236 87.044 158.5233
126.048061 87.014 158.5248
126.961458 86.985 158.5239
127.881473 86.957 158.5182
128.808154 86.929 158.5079
129.741551 86.902 158.4965
130.681712 86.874 158.4902
131.628686 86.845 158.4939
132.582521 86.816 158.5080
133.543269 86.786 158.5285
134.510979 86.756 158.5504
135.485701 86.724 158.5712
136.467486 86.690 158.5905
137.456386 86.655 158.6086
138.452451 86.620 158.6267
139.455735 86.583 158.6468
140.466288 86.546 158.6700
141.484165 86.509 158.6970
142.509418 86.471 158.7289
143.542100 86.434 158.7654
144.582265 86.396 158.8046
145.629968 86.358 158.8439
146.685262 86.320 158.8815
147.748204 86.282 158.9175
148.818849 86.244 158.9534
149.897251 86.206 158.9922
150.983469 86.169 159.0372
152.077557 86.131 159.0920
153.179574 86.094 159.1607
154.289576 86.057 159.2464
155.407622 86.022 159.3488
156.533770 85.988 159.4622
157.668078 85.957 159.5763
158.810606 85.928 159.6802
159.961413 85.901 159.7663
161.120559 85.874 159.8319
162.288105 85.847 159.8790
163.464112 85.819 159.9130
164.648640 85.790 159.9402
165.841752 85.761 159.9670
167.043510 85.731 159.9988
168.253976 85.702 160.0407
169.473213 85.671 160.0976
170.701286 85.641 160.1721
171.938258 85.610 160.2630
173.184194 85.580 160.3654
174.439158 85.549 160.4739
175.703216 85.519 160.5851
176.976434 85.489 160.6974
178.258878 85.459 160.8098
179.550615 85.430 160.9200
180.851713 85.400 161.0255
182.162239 85.371 161.1249
183.482262 85.341 161.2173
184.811850 85.312 161.3024
186.151073 85.282 161.3836
187.500000 85.253 161.4655
188.858702 85.224 161.5513
190.227250 85.195 161.6421
191.605715 85.166 161.7373
192.994169 85.136 161.8362
194.392685 85.106 161.9382
195.801334 85.076 162.0433
197.220191 85.045 162.1523
198.649330 85.014 162.2676
200.088825 84.982 162.3917
201.538751 84.951 162.5251
202.999184 84.922 162.6646
204.470200 84.893 162.8036
205.951875 84.866 162.9358
207.444287 84.839 163.0564
208.947514 84.811 163.1637
210.461634 84.782 163.2611
211.986726 84.750 163.3574
213.522869 84.717 163.4630
215.070144 84.682 163.5865
216.628631 84.648 163.7319
218.198411 84.615 163.8983
219.779567 84.583 164.0790
221.372180 84.553 164.2641
222.976334 84.524 164.4443
224.592112 84.498 164.6145
226.219600 84.472 164.7743
227.858880 84.448 164.9264
229.510039 84.424 165.0740
231.173164 84.400 165.2193
232.848340 84.376 165.3632
234.535655 84.353 165.5052
236.235197 84.329 165.6450
237.947054 84.306 165.7824
239.671317 84.281 165.9186
241.408074 84.255 166.0552
243.157416 84.227 166.1943
244.919435 84.197 166.3382
246.694223 84.167 166.4896
248.481871 84.136 166.6521
250.282473 84.104 166.8293
252.096123 84.074 167.0235
253.922915 84.046 167.2336
255.762945 84.020 167.4540
257.616309 83.997 167.6741
259.483103 83.976 167.8828
261.363424 83.956 168.0734
263.257372 83.935 168.2477
265.165043 83.913 168.4130
267.086538 83.889 168.5788
269.021957 83.863 168.7528
270.971401 83.837 168.9392
272.934972 83.811 169.1378
274.912771 83.785 169.3460
276.904902 83.762 169.5607
278.911469 83.740 169.7794
280.932577 83.720 169.9996
282.968330 83.702 170.2174
285.018835 83.687 170.4269
287.084199 83.674 170.6216
289.164530 83.662 170.7961
291.259935 83.648 170.9496
293.370525 83.634 171.0866
295.496408 83.616 171.2169
297.637697 83.596 171.3507
299.794503 83.575 171.4961
301.966937 83.553 171.6561
304.155114 83.531 171.8295
306.359147 83.508 172.0121
308.579152 83.486 172.1992
310.815244 83.464 172.3875
313.067539 83.442 172.5755
315.336156 83.419 172.7646
317.621211 83.396 172.9582
319.922826 83.373 173.1602
322.241118 83.349 173.3722
324.576210 83.326 173.5929
326.928223 83.305 173.8196
329.297280 83.284 174.0496
331.683504 83.265 174.2806
334.087019 83.247 174.5103
336.507952 83.230 174.7366
338.946427 83.212 174.9586
341.402572 83.195 175.1768
343.876516 83.176 175.3934
346.368387 83.158 175.6109
348.878315 83.139 175.8315
351.406431 83.121 176.0555
353.952867 83.102 176.2823
356.517756 83.084 176.5106
359.101230 83.065 176.7397
361.703426 83.047 176.9694
364.324478 83.028 177.2001
366.964523 83.010 177.4328
369.623699 82.992 177.6685
372.302145 82.974 177.9077
375.000000 82.956 178.1508
377.717405 82.938 178.3976
380.454501 82.920 178.6472
383.211431 82.902 178.8985
385.988339 82.884 179.1507
388.785369 82.867 179.4037
391.602668 82.851 179.6580
394.440383 82.835 179.9136
397.298660 82.821 -179.8305
400.177650 82.807 -179.5763
403.077502 82.794 -179.3263
405.998368 82.781 -179.0814
408.940400 82.769 -178.8406
411.903750 82.757 -178.6005
414.888575 82.744 -178.3565
417.895028 82.731 -178.1043
420.923268 82.719 -177.8410
423.973452 82.707 -177.5656
427.045738 82.696 -177.2798
430.140287 82.687 -176.9879
433.257261 82.679 -176.6955
436.396822 82.673 -176.4066
439.559133 82.668 -176.1225
442.744360 82.663 -175.8433
445.952668 82.660 -175.5712
449.184225 82.659 -175.3111
452.439199 82.657 -175.0688
455.717760 82.655 -174.8468
459.020079 82.651 -174.6408
462.346327 82.644 -174.4398
465.696680 82.634 -174.2325
469.071310 82.623 -174.0122
472.470394 82.610 -173.7777
475.894109 82.598 -173.5314
479.342634 82.586 -173.2782
482.816148 82.575 -173.0236
486.314833 82.564 -172.7703
489.838871 82.553 -172.5149
493.388445 82.540 -172.2498
496.963741 82.528 -171.9705
500.564945 82.517 -171.6797
504.192245 82.507 -171.3850
507.845830 82.498 -171.0926
511.525890 82.490 -170.8052
515.232618 82.481 -170.5217
518.966206 82.471 -170.2386
522.726849 82.459 -169.9515
526.514743 82.447 -169.6561
530.330086 82.434 -169.3501
534.173076 82.421 -169.0350
538.043915 82.409 -168.7146
541.942803 82.397 -168.3907
545.869944 82.386 -168.0625
549.825542 82.376 -167.7304
553.809805 82.368 -167.3981
557.822939 82.361 -167.0708
561.865154 82.355 -166.7522
565.936660 82.351 -166.4423
570.037671 82.346 -166.1377
574.168399 82.342 -165.8336
578.329060 82.338 -165.5267
582.519870 82.335 -165.2161
586.741049 82.332 -164.9008
590.992817 82.329 -164.5773
595.275394 82.327 -164.2415
599.589005 82.326 -163.8935
603.933874 82.326 -163.5380
608.310228 82.326 -163.1801
612.718295 82.325 -162.8231
617.158304 82.324 -162.4666
621.630488 82.322 -162.1058
626.135079 82.320 -161.7343
630.672311 82.319 -161.3494
635.242423 82.320 -160.9543
639.845651 82.323 -160.5548
644.482237 82.328 -160.1525
649.152421 82.335 -159.7463
653.856447 82.345 -159.3370
658.594560 82.358 -158.9310
663.367008 82.374 -158.5385
668.174039 82.392 -158.1682
673.015903 82.409 -157.8206
677.892854 82.424 -157.4888
682.805145 82.438 -157.1642
687.753032 82.449 -156.8396
692.736774 82.459 -156.5099
697.756631 82.469 -156.1707
702.812863 82.478 -155.8202
707.905735 82.489 -155.4602
713.035511 82.501 -155.0944
718.202461 82.513 -154.7260
723.406852 82.527 -154.3562
728.648956 82.540 -153.9845
733.929047 82.554 -153.6101
739.247399 82.568 -153.2322
744.604290 82.582 -152.8502
750.000000 82.597 -152.4636
755.434809 82.612 -152.0722
760.909001 82.628 -151.6759
766.422861 82.645 -151.2747
771.976677 82.663 -150.8684
777.570739 82.681 -150.4577
783.205337 82.701 -150.0431
788.880766 82.721 -149.6243
794.597321 82.742 -149.1994
800.355301 82.766 -148.7670
806.155005 82.792 -148.3285
811.996736 82.821 -147.8902
817.880799 82.854 -147.4602
823.807501 82.889 -147.0468
829.777150 82.926 -146.6565
835.790057 82.962 -146.2904
841.846536 82.997 -145.9423
847.946903 83.030 -145.6033
854.091476 83.062 -145.2663
860.280575 83.093 -144.9281
866.514523 83.124 -144.5855
872.793644 83.155 -144.2356
879.118267 83.188 -143.8781
885.488720 83.223 -143.5161
891.905336 83.259 -143.1519
898.368450 83.296 -142.7850
904.878398 83.334 -142.4130
911.435520 83.373 -142.0352
918.040157 83.413 -141.6544
924.692655 83.454 -141.2740
931.393359 83.497 -140.8979
938.142619 83.542 -140.5299
944.940787 83.587 -140.1717
951.788218 83.633 -139.8221
958.685268 83.680 -139.4786
965.632296 83.726 -139.1385
972.629666 83.773 -138.7996
979.677741 83.820 -138.4611
986.776890 83.868 -138.1233
993.927482 83.916 -137.7846
1001.129891 83.965 -137.4405
1008.384491 84.016 -137.0866
1015.691660 84.070 -136.7241
1023.051781 84.127 -136.3588
1030.465236 84.189 -135.9997
1037.932411 84.255 -135.6591
1045.453698 84.323 -135.3493
1053.029486 84.393 -135.0750
1060.660172 84.462 -134.8319
1068.346153 84.529 -134.6106
1076.087829 84.593 -134.4010
1083.885605 84.656 -134.1964
1091.739887 84.719 -133.9952
1099.651084 84.780 -133.7978
1107.619609 84.841 -133.6049
1115.645878 84.902 -133.4159
1123.730308 84.962 -133.2297
1131.873321 85.021 -133.0442
1140.075341 85.080 -132.8577
1148.336797 85.139 -132.6696
1156.658119 85.198 -132.4794
1165.039741 85.257 -132.2862
1173.482099 85.317 -132.0886
1181.985634 85.379 -131.8872
1190.550789 85.443 -131.6881
1199.178011 85.510 -131.5026
1207.867749 85.578 -131.3425
1216.620457 85.647 -131.2134
1225.436590 85.714 -131.1117
1234.316609 85.778 -131.0286
1243.260976 85.839 -130.9554
1252.270157 85.898 -130.8847
1261.344623 85.956 -130.8126
1270.484846 86.012 -130.7385
1279.691303 86.068 -130.6610
1288.964474 86.124 -130.5784
1298.304842 86.180 -130.4904
1307.712894 86.236 -130.3989
1317.189120 86.293 -130.3073
1326.734016 86.349 -130.2176
1336.348077 86.404 -130.1296
1346.031806 86.459 -130.0411
1355.785708 86.512 -129.9487
1365.610290 86.564 -129.8493
1375.506065 86.616 -129.7382
1385.473549 86.669 -129.6103
1395.513261 86.725 -129.4648
1405.625726 86.783 -129.3076
1415.811469 86.847 -129.1506
1426.071023 86.915 -129.0085
1436.404921 86.985 -128.8904
1446.813703 87.056 -128.7969
1457.297912 87.126 -128.7227
1467.858093 87.196 -128.6615
1478.494798 87.265 -128.6085
1489.208581 87.332 -128.5601
1500.000000 87.399 -128.5131
1510.869618 87.465 -128.4647
1521.818002 87.531 -128.4121
1532.845723 87.598 -128.3533
1543.953355 87.666 -128.2869
1555.141477 87.736 -128.2132
1566.410674 87.811 -128.1372
1577.761531 87.889 -128.0706
1589.194642 87.972 -128.0276
1600.710601 88.057 -128.0177
1612.310010 88.143 -128.0414
1623.993473 88.228 -128.0934
1635.761599 88.312 -128.1661
1647.615002 88.394 -128.2531
1659.554299 88.475 -128.3496
1671.580114 88.554 -128.4522
1683.693072 88.634 -128.5604
1695.893807 88.713 -128.6767
1708.182952 88.792 -128.8036
1720.561150 88.870 -128.9416
1733.029045 88.947 -129.0880
1745.587288 89.023 -129.2379
1758.236533 89.099 -129.3844
1770.977440 89.175 -129.5226
1783.810673 89.254 -129.6538
1796.736900 89.336 -129.7883
1809.756796 89.422 -129.9419
1822.871040 89.510 -130.1268
1836.080315 89.599 -130.3479
1849.385310 89.689 -130.6045
1862.786718 89.777 -130.8935
1876.285239 89.865 -131.2109
1889.881575 89.950 -131.5520
1903.576436 90.035 -131.9119
1917.370535 90.119 -132.2863
1931.264593 90.203 -132.6727
1945.259332 90.289 -133.0728
1959.355483 90.376 -133.4952
1973.553781 90.466 -133.9534
1987.854965 90.555 -134.4580
2002.259781 90.644 -135.0130
2016.768981 90.728 -135.6158
2031.383320 90.808 -136.2604
2046.103561 90.883 -136.9388
2060.930471 90.951 -137.6434
2075.864823 91.013 -138.3688
2090.907395 91.069 -139.1116
2106.058972 91.118 -139.8674
2121.320344 91.160 -140.6292
2136.692305 91.195 -141.3881
2152.175658 91.225 -142.1358
2167.771210 91.253 -142.8704
2183.479774 91.279 -143.5999
2199.302169 91.303 -144.3384
2215.239219 91.326 -145.0976
2231.291755 91.345 -145.8837
2247.460615 91.358 -146.6963
2263.746641 91.364 -147.5296
2280.150683 91.360 -148.3724
2296.673595 91.346 -149.2101
2313.316238 91.323 -150.0266
2330.079481 91.291 -150.8090
2346.964198 91.252 -151.5514
2363.971268 91.209 -152.2527
2381.101578 91.160 -152.9114
2398.356022 91.108 -153.5237
2415.735498 91.053 -154.0845
2433.240913 90.997 -154.5910
2450.873180 90.943 -155.0450
2468.633217 90.892 -155.4544
2486.521951 90.845 -155.8311
2504.540314 90.802 -156.1863
2522.689246 90.763 -156.5280
2540.969692 90.728 -156.8620
2559.382606 90.697 -157.1967
2577.928947 90.670 -157.5445
2596.609683 90.645 -157.9163
2615.425787 90.619 -158.3170
2634.378241 90.592 -158.7446
2653.468031 90.562 -159.1909
2672.696154 90.526 -159.6429
2692.063613 90.487 -160.0863
2711.571415 90.445 -160.5110
2731.220579 90.403 -160.9166
2751.012130 90.362 -161.3122
2770.947098 90.323 -161.7097
2791.026522 90.284 -162.1185
2811.251451 90.245 -162.5439
2831.622938 90.204 -162.9878
2852.142045 90.160 -163.4496
2872.809842 90.112 -163.9250
2893.627406 90.057 -164.4039
2914.595823 89.995 -164.8705
2935.716186 89.927 -165.3088
2956.989596 89.855 -165.7101
2978.417161 89.780 -166.0736
3000.000000 89.703 -166.4021
3021.739237 89.624 -166.6982
3043.636005 89.544 -166.9611
3065.691446 89.463 -167.1870
3087.906710 89.382 -167.3716
3110.282955 89.303 -167.5167
3132.821347 89.227 -167.6325
3155.523062 89.154 -167.7323
3178.389283 89.085 -167.8269
3201.421202 89.019 -167.9214
3224.620020 88.953 -168.0173
3247.986946 88.888 -168.1142
3271.523198 88.822 -168.2088
3295.230004 88.754 -168.2926
3319.108599 88.686 -168.3549
3343.160228 88.618 -168.3901
3367.386145 88.551 -168.3992
3391.787613 88.488 -168.3875
3416.365904 88.426 -168.3596
3441.122300 88.367 -168.3165
3466.058091 88.309 -168.2548
3491.174576 88.254 -168.1718
3516.473066 88.204 -168.0710
3541.954880 88.158 -167.9622
3567.621345 88.118 -167.8573
3593.473800 88.082 -167.7672
3619.513592 88.050 -167.6997
3645.742080 88.020 -167.6588
3672.160630 87.991 -167.6407
3698.770620 87.960 -167.6344
3725.573436 87.928 -167.6282
3752.570477 87.896 -167.6162
3779.763150 87.865 -167.5986
3807.152872 87.835 -167.5770
3834.741071 87.806 -167.5496
3862.529185 87.779 -167.5101
3890.518664 87.754 -167.4540
3918.710966 87.734 -167.3855
3947.107561 87.720 -167.3168
3975.709929 87.714 -167.2659
4004.519563 87.714 -167.2529
4033.537962 87.720 -167.2962
4062.766641 87.729 -167.4075
4092.207123 87.738 -167.5900
4121.860942 87.745 -167.8443
4151.729646 87.747 -168.1727
4181.814790 87.742 -168.5782
4212.117944 87.725 -169.0563
4242.640687 87.691 -169.5891
4273.384610 87.637 -170.1443
4304.351317 87.560 -170.6802
4335.542421 87.460 -171.1488
4366.959549 87.338 -171.4992
4398.604338 87.199 -171.6820
4430.478438 87.050 -171.6555
4462.583511 86.901 -171.3893
4494.921231 86.762 -170.8736
4527.493283 86.646 -170.1293
4560.301365 86.563 -169.2114
4593.347189 86.520 -168.1982
4626.632476 86.517 -167.1704
4660.158962 86.553 -166.1960
4693.928395 86.622 -165.3254
4727.942535 86.719 -164.5932
4762.203156 86.838 -164.0215
4796.712043 86.973 -163.6241
4831.470996 87.121 -163.4073
4866.481826 87.275 -163.3693
4901.746360 87.432 -163.5042
4937.266434 87.590 -163.8085
4973.043902 87.744 -164.2813
5009.080628 87.892 -164.9188
5045.378492 88.030 -165.7096
5081.939384 88.154 -166.6363
5118.765212 88.261 -167.6780
5155.857894 88.350 -168.8115
5193.219366 88.419 -170.0114
5230.851574 88.467 -171.2462
5268.756481 88.493 -172.4756
5306.936062 88.502 -173.6570
5345.392309 88.498 -174.7554
5384.127225 88.490 -175.7505
5423.142830 88.486 -176.6415
5462.441159 88.496 -177.4519
5502.024259 88.526 -178.2306
5541.894195 88.581 -179.0451
5582.053045 88.659 -179.9669
5622.502902 88.754 178.9457
5663.245876 88.857 177.6602
5704.284090 88.962 176.1686
5745.619684 89.062 174.4799
5787.254813 89.151 172.6146
5829.191647 89.227 170.6016
5871.432373 89.290 168.4724
5913.979192 89.343 166.2535
5956.834323 89.393 163.9586
6000.000000 89.444 161.5846
6043.478473 89.503 159.1132
6087.272010 89.575 156.5125
6131.382892 89.665 153.7372
6175.813420 89.773 150.7328
6220.565910 89.900 147.4415
6265.642695 90.043 143.8079
6311.046124 90.196 139.7815
6356.778566 90.355 135.3184
6402.842404 90.509 130.3841
6449.240040 90.650 124.9569
6495.973891 90.767 119.0306
6543.046396 90.848 112.6160
6590.460007 90.882 105.7446
6638.217197 90.858 98.4712
6686.320456 90.773 90.8711
6734.772290 90.627 83.0291
6783.575226 90.430 75.0259
6832.731809 90.195 66.9280
6882.244600 89.939 58.7855
6932.116181 89.678 50.6355
6982.349153 89.426 42.5112
7032.946133 89.193 34.4485
7083.909760 88.988 26.4891
7135.242690 88.819 18.6765
7186.947600 88.690 11.0504
7239.027185 88.608 3.6426
7291.484160 88.576 -3.5286
7344.321260 88.595 -10.4610
7397.541239 88.663 -17.1669
7451.146872 88.778 -23.6706
7505.140954 88.932 -30.0063
7559.526299 89.118 -36.2192
7614.305743 89.325 -42.3614
7669.482141 89.540 -48.4866
7725.058371 89.744 -54.6400
7781.037328 89.916 -60.8423
7837.421932 90.033 -67.0719
7894.215122 90.075 -73.2549
7951.419859 90.027 -79.2684
8009.039125 89.886 -84.9542
8067.075924 89.660 -90.1453
8125.533282 89.372 -94.7028
8184.414245 89.055 -98.5553
8243.721885 88.751 -101.7330
8303.459292 88.496 -104.3792
8363.629581 88.311 -106.7235
8424.235888 88.193 -109.0081
8485.281374 88.115 -111.4044
8546.769221 88.046 -113.9686
8608.702634 87.953 -116.6526
8671.084842 87.819 -119.3480
8733.919097 87.638 -121.9327
8797.208675 87.411 -124.2993
8860.956876 87.150 -126.3696
8925.167022 86.866 -128.1012
8989.842461 86.573 -129.4854
9054.986566 86.282 -130.5383
9120.602731 86.003 -131.2892
9186.694378 85.740 -131.7712
9253.264952 85.497 -132.0127
9320.317925 85.277 -132.0372
9387.856790 85.082 -131.8643
9455.885071 84.914 -131.5095
9524.406312 84.776 -130.9863
9593.424086 84.672 -130.3109
9662.941992 84.607 -129.5087
9732.963653 84.586 -128.6229
9803.492719 84.612 -127.7144
9874.532869 84.685 -126.8514
9946.087805 84.801 -126.0945
10018.161257 84.954 -125.4845
10090.756983 85.141 -125.0442
10163.878768 85.357 -124.7907
10237.530423 85.599 -124.7458
10311.715789 85.863 -124.9370
10386.438732 86.146 -125.3910
10461.703149 86.441 -126.1284
10537.512962 86.743 -127.1661
10613.872125 87.048 -128.5232
10690.784618 87.347 -130.2230
10768.254450 87.630 -132.2850
10846.285661 87.886 -134.7123
10924.882318 88.101 -137.4833
11004.048518 88.262 -140.5528
11083.788390 88.360 -143.8556
11164.106090 88.385 -147.3102
11245.005805 88.331 -150.8187
11326.491752 88.196 -154.2720
11408.568180 87.983 -157.5591
11491.239368 87.698 -160.5782
11574.509626 87.351 -163.2444
11658.383294 86.954 -165.4923
11742.864745 86.522 -167.2789
11827.958384 86.069 -168.5876
11913.668646 85.610 -169.4297
12000.000000 85.157 -169.8364
12086.956947 84.718 -169.8423
12174.544019 84.298 -169.4705
12262.765784 83.904 -168.7292
12351.626840 83.540 -167.6179
12441.131819 83.217 -166.1345
12531.285389 82.947 -164.2869
12622.092249 82.744 -162.1100
12713.557132 82.625 -159.6907
12805.684808 82.603 -157.1779
12898.480079 82.681 -154.7670
12991.947783 82.850 -152.6592
13086.092792 83.091 -151.0171
13180.920015 83.375 -149.9327
13276.434395 83.675 -149.4120
13372.640911 83.965 -149.3823
13469.544580 84.232 -149.7198
13567.150452 84.470 -150.2907
13665.463617 84.684 -150.9822
13764.489200 84.882 -151.7194
13864.232362 85.078 -152.4680
13964.698305 85.281 -153.2328
14065.892266 85.500 -154.0480
14167.819519 85.738 -154.9612
14270.485380 85.995 -156.0194
14373.895200 86.270 -157.2616
14478.054370 86.557 -158.7142
14582.968320 86.853 -160.3826
14688.642520 87.157 -162.2455
14795.082478 87.473 -164.2679
14902.293745 87.814 -166.4293
15010.281908 88.198 -168.7603
15119.052599 88.637 -171.3744
15228.611486 89.131 -174.4675
15338.964283 89.655 -178.2656
15450.116741 90.166 177.0585
15562.074656 90.614 171.4471
15674.843864 90.948 164.9721
15788.430244 91.130 157.8196
15902.839718 91.134 150.2570
16018.078250 90.952 142.5873
16134.151848 90.591 135.0988
16251.066563 90.070 128.0230
16368.828491 89.414 121.5192
16487.443769 88.651 115.6789
16606.918584 87.808 110.5404
16727.259161 86.908 106.1089
16848.471777 85.970 102.3726
16970.562748 85.010 99.3099
17093.538442 84.042 96.8909
17217.405268 83.080 95.0790
17342.169684 82.132 93.8338
17467.838194 81.206 93.1178
17594.417350 80.307 92.9126
17721.913751 79.439 93.2331
17850.334044 78.609 94.1245
17979.684923 77.832 95.6360
18109.973131 77.134 97.7664
18241.205462 76.550 100.3954
18373.388756 76.116 103.2473
18506.529905 75.850 105.9291
18640.635849 75.746 108.0339
18775.713581 75.771 109.2474
18911.770141 75.874 109.4050
19048.812624 76.003 108.4857
19186.848172 76.112 106.5775
19325.883983 76.166 103.8503
19465.927305 76.147 100.5454
19606.985439 76.057 96.9828
19749.065738 75.921 93.5773
19892.175609 75.785 90.8357
20036.322514 75.700 89.2834
