* Measurement data measured by REW V5.31.3
* Source: EXCL: Microphone (USB Sound Device        ), MICROPHONE (Master Volume), R, volume: 0.390
* Format: 256k Log Swept Sine, 1 sweep at -15.0 dBFS with no timing reference
* Dated: Apr 5, 2025 3:07:48 PM
* REW Settings:
*  C-weighting compensation: Off
*  Target level: 75.0 dB
* Note: 
* Measurement: R TANGZU Wan'er S.G II
* Smoothing: 1/12 octave
* Frequency Step: 96 ppo
* Start Frequency: 0.36621094 Hz
*
* Freq(Hz) SPL(dB) Phase(degrees)
0.366211 93.191 161.3766
0.368865 93.186 161.3568
0.371538 93.178 161.3272
0.374230 93.168 161.2899
0.376942 93.157 161.2470
0.379673 93.145 161.1999
0.382424 93.132 161.1495
0.385196 93.119 161.0963
0.387987 93.106 161.0408
0.390798 93.093 160.9831
0.393630 93.080 160.9232
0.396483 93.066 160.8612
0.399356 93.052 160.7971
0.402250 93.039 160.7309
0.405165 93.025 160.6626
0.408101 93.011 160.5922
0.411058 92.997 160.5196
0.414037 92.983 160.4449
0.417037 92.969 160.3680
0.420059 92.954 160.2888
0.423103 92.940 160.2074
0.426169 92.925 160.1238
0.429257 92.910 160.0379
0.432368 92.896 159.9497
0.435501 92.881 159.8592
0.438656 92.866 159.7664
0.441835 92.851 159.6713
0.445037 92.836 159.5737
0.448262 92.820 159.4739
0.451510 92.805 159.3716
0.454782 92.789 159.2669
0.458077 92.774 159.1598
0.461397 92.758 159.0502
0.464740 92.742 158.9382
0.468108 92.726 158.8237
0.471500 92.710 158.7067
0.474917 92.694 158.5873
0.478358 92.677 158.4653
0.481825 92.661 158.3408
0.485316 92.644 158.2138
0.488833 92.628 158.0843
0.492375 92.611 157.9522
0.495943 92.594 157.8176
0.499537 92.577 157.6804
0.503157 92.560 157.5406
0.506803 92.542 157.3983
0.510475 92.525 157.2534
0.514175 92.507 157.1060
0.517900 92.490 156.9560
0.521653 92.472 156.8035
0.525434 92.454 156.6483
0.529241 92.436 156.4907
0.533076 92.418 156.3305
0.536939 92.399 156.1677
0.540830 92.381 156.0025
0.544749 92.362 155.8347
0.548696 92.343 155.6644
0.552673 92.325 155.4917
0.556677 92.306 155.3165
0.560711 92.286 155.1389
0.564774 92.267 154.9588
0.568867 92.248 154.7764
0.572989 92.228 154.5917
0.577141 92.208 154.4046
0.581324 92.189 154.2153
0.585536 92.169 154.0238
0.589779 92.148 153.8300
0.594053 92.128 153.6341
0.598358 92.108 153.4361
0.602694 92.087 153.2361
0.607061 92.066 153.0342
0.611460 92.045 152.8303
0.615891 92.024 152.6245
0.620354 92.003 152.4171
0.624849 91.982 152.2079
0.629377 91.960 151.9971
0.633938 91.939 151.7848
0.638532 91.917 151.5710
0.643159 91.895 151.3560
0.647819 91.873 151.1397
0.652514 91.851 150.9223
0.657242 91.828 150.7039
0.662005 91.805 150.4847
0.666802 91.783 150.2647
0.671634 91.760 150.0441
0.676501 91.737 149.8231
0.681403 91.713 149.6017
0.686341 91.690 149.3802
0.691314 91.666 149.1588
0.696324 91.642 148.9375
0.701370 91.618 148.7165
0.706452 91.594 148.4960
0.711571 91.569 148.2759
0.716728 91.543 148.0563
0.721921 91.516 147.8370
0.727153 91.488 147.6176
0.732422 91.458 147.3974
0.737729 91.426 147.1757
0.743075 91.393 146.9516
0.748460 91.358 146.7244
0.753883 91.321 146.4935
0.759346 91.284 146.2586
0.764849 91.246 146.0192
0.770391 91.207 145.7753
0.775974 91.168 145.5268
0.781597 91.128 145.2735
0.787261 91.088 145.0153
0.792966 91.047 144.7523
0.798712 91.006 144.4844
0.804500 90.964 144.2115
0.810329 90.921 143.9336
0.816201 90.878 143.6507
0.822116 90.835 143.3628
0.828073 90.790 143.0698
0.834074 90.745 142.7717
0.840118 90.700 142.4685
0.846206 90.653 142.1602
0.852338 90.606 141.8467
0.858514 90.558 141.5282
0.864735 90.509 141.2046
0.871001 90.460 140.8759
0.877313 90.409 140.5421
0.883670 90.358 140.2033
0.890074 90.306 139.8595
0.896524 90.253 139.5108
0.903020 90.198 139.1572
0.909564 90.143 138.7989
0.916155 90.087 138.4359
0.922794 90.029 138.0682
0.929481 89.971 137.6961
0.936216 89.911 137.3196
0.943000 89.850 136.9389
0.949834 89.787 136.5541
0.956717 89.724 136.1655
0.963649 89.659 135.7732
0.970632 89.592 135.3775
0.977666 89.524 134.9787
0.984750 89.455 134.5769
0.991886 89.384 134.1724
0.999074 89.311 133.7657
1.006314 89.237 133.3571
1.013606 89.161 132.9469
1.020951 89.083 132.5356
1.028349 89.003 132.1236
1.035801 88.921 131.7114
1.043307 88.838 131.2995
1.050867 88.752 130.8885
1.058482 88.664 130.4789
1.066152 88.574 130.0712
1.073878 88.483 129.6660
1.081660 88.389 129.2635
1.089498 88.293 128.8641
1.097393 88.195 128.4676
1.105345 88.097 128.0737
1.113355 87.997 127.6820
1.121423 87.896 127.2919
1.129549 87.795 126.9028
1.137734 87.693 126.5143
1.145979 87.590 126.1261
1.154283 87.486 125.7377
1.162647 87.382 125.3489
1.171072 87.276 124.9593
1.179558 87.170 124.5686
1.188106 87.062 124.1766
1.196715 86.952 123.7828
1.205387 86.840 123.3869
1.214122 86.727 122.9887
1.222920 86.611 122.5876
1.231782 86.493 122.1833
1.240708 86.372 121.7754
1.249699 86.248 121.3634
1.258754 86.121 120.9468
1.267876 85.990 120.5251
1.277063 85.856 120.0979
1.286318 85.718 119.6644
1.295639 85.575 119.2242
1.305027 85.427 118.7765
1.314484 85.275 118.3208
1.324009 85.117 117.8563
1.333604 84.954 117.3821
1.343268 84.785 116.8977
1.353002 84.609 116.4020
1.362806 84.427 115.8942
1.372681 84.237 115.3734
1.382628 84.040 114.8386
1.392647 83.835 114.2888
1.402739 83.621 113.7231
1.412904 83.399 113.1403
1.423142 83.166 112.5396
1.433455 82.923 111.9202
1.443843 82.668 111.2812
1.454305 82.399 110.6223
1.464844 82.114 109.9430
1.475459 81.811 109.2432
1.486150 81.486 108.5223
1.496920 81.139 107.7793
1.507767 80.768 107.0128
1.518693 80.373 106.2205
1.529698 79.955 105.3999
1.540783 79.514 104.5476
1.551948 79.052 103.6598
1.563194 78.571 102.7320
1.574521 78.073 101.7590
1.585931 77.559 100.7347
1.597423 77.031 99.6521
1.608999 76.493 98.5029
1.620658 75.947 97.2775
1.632402 75.395 95.9645
1.644232 74.841 94.5502
1.656146 74.287 93.0186
1.668147 73.736 91.3504
1.680235 73.193 89.5224
1.692411 72.661 87.5067
1.704675 72.144 85.2697
1.717028 71.646 82.7707
1.729470 71.172 79.9609
1.742003 70.727 76.7822
1.754626 70.315 73.1663
1.767341 69.943 69.0359
1.780147 69.616 64.3072
1.793047 69.340 58.8979
1.806040 69.121 52.7414
1.819128 68.963 45.8083
1.832310 68.870 38.1346
1.845587 68.845 29.8452
1.858961 68.887 21.1633
1.872432 68.996 12.3864
1.886001 69.169 3.8311
1.899667 69.401 -4.2330
1.913433 69.689 -11.6275
1.927299 70.028 -18.2731
1.941265 70.413 -24.1689
1.955332 70.838 -29.3635
1.969501 71.297 -33.9292
1.983773 71.786 -37.9446
1.998148 72.299 -41.4846
2.012627 72.829 -44.6165
2.027212 73.372 -47.3982
2.041902 73.920 -49.8785
2.056698 74.470 -52.0983
2.071602 75.014 -54.0916
2.086614 75.548 -55.8865
2.101734 76.066 -57.5066
2.116964 76.563 -58.9721
2.132304 77.034 -60.3003
2.147756 77.477 -61.5068
2.163320 77.889 -62.6066
2.178996 78.269 -63.6144
2.194786 78.619 -64.5454
2.210690 78.942 -65.4145
2.226710 79.242 -66.2352
2.242845 79.523 -67.0182
2.259098 79.787 -67.7711
2.275468 80.037 -68.4984
2.291957 80.274 -69.2029
2.308566 80.499 -69.8858
2.325295 80.713 -70.5473
2.342145 80.918 -71.1873
2.359117 81.113 -71.8049
2.376212 81.301 -72.3994
2.393431 81.481 -72.9695
2.410775 81.654 -73.5140
2.428244 81.821 -74.0315
2.445840 81.984 -74.5205
2.463564 82.143 -74.9797
2.481416 82.299 -75.4078
2.499397 82.451 -75.8040
2.517509 82.602 -76.1678
2.535752 82.750 -76.4996
2.554127 82.896 -76.8010
2.572635 83.038 -77.0745
2.591277 83.175 -77.3233
2.610055 83.306 -77.5504
2.628968 83.432 -77.7584
2.648019 83.550 -77.9492
2.667208 83.662 -78.1241
2.686535 83.769 -78.2837
2.706003 83.870 -78.4285
2.725612 83.966 -78.5587
2.745363 84.058 -78.6743
2.765257 84.146 -78.7750
2.785295 84.232 -78.8609
2.805478 84.317 -78.9315
2.825808 84.400 -78.9865
2.846285 84.484 -79.0255
2.866910 84.568 -79.0481
2.887685 84.653 -79.0538
2.908611 84.739 -79.0419
2.929688 84.825 -79.0120
2.950917 84.912 -78.9637
2.972301 84.999 -78.8968
2.993839 85.086 -78.8120
3.015534 85.171 -78.7102
3.037386 85.256 -78.5925
3.059396 85.339 -78.4607
3.081565 85.422 -78.3165
3.103896 85.505 -78.1617
3.126388 85.587 -77.9982
3.149043 85.670 -77.8281
3.171862 85.754 -77.6530
3.194847 85.838 -77.4746
3.217998 85.924 -77.2943
3.241317 86.012 -77.1130
3.264805 86.102 -76.9307
3.288463 86.194 -76.7469
3.312293 86.288 -76.5605
3.336295 86.384 -76.3702
3.360471 86.482 -76.1756
3.384822 86.582 -75.9772
3.409350 86.683 -75.7763
3.434056 86.785 -75.5750
3.458940 86.889 -75.3761
3.484005 86.993 -75.1824
3.509252 87.099 -74.9967
3.534681 87.205 -74.8219
3.560295 87.311 -74.6608
3.586094 87.418 -74.5155
3.612081 87.525 -74.3877
3.638255 87.633 -74.2781
3.664620 87.740 -74.1867
3.691175 87.849 -74.1127
3.717923 87.957 -74.0547
3.744864 88.067 -74.0118
3.772001 88.176 -73.9832
3.799335 88.286 -73.9684
3.826866 88.396 -73.9675
3.854597 88.505 -73.9804
3.882529 88.614 -74.0073
3.910664 88.721 -74.0487
3.939002 88.828 -74.1049
3.967546 88.932 -74.1762
3.996296 89.035 -74.2631
4.025255 89.137 -74.3658
4.054423 89.236 -74.4845
4.083804 89.333 -74.6190
4.113396 89.429 -74.7686
4.143204 89.523 -74.9324
4.173227 89.615 -75.1092
4.203468 89.705 -75.2976
4.233928 89.793 -75.4963
4.264609 89.879 -75.7040
4.295512 89.963 -75.9196
4.326639 90.044 -76.1424
4.357992 90.123 -76.3722
4.389572 90.199 -76.6092
4.421380 90.273 -76.8538
4.453419 90.344 -77.1065
4.485691 90.412 -77.3672
4.518196 90.477 -77.6352
4.550936 90.540 -77.9090
4.583914 90.600 -78.1869
4.617131 90.658 -78.4669
4.650589 90.713 -78.7473
4.684289 90.767 -79.0263
4.718233 90.818 -79.3027
4.752424 90.868 -79.5761
4.786862 90.915 -79.8465
4.821549 90.960 -80.1144
4.856488 91.002 -80.3802
4.891680 91.043 -80.6437
4.927127 91.081 -80.9048
4.962831 91.118 -81.1626
4.998794 91.153 -81.4164
5.035017 91.188 -81.6651
5.071503 91.221 -81.9079
5.108253 91.254 -82.1440
5.145270 91.286 -82.3732
5.182555 91.318 -82.5954
5.220110 91.348 -82.8112
5.257937 91.378 -83.0212
5.296038 91.408 -83.2263
5.334415 91.437 -83.4273
5.373071 91.467 -83.6253
5.412006 91.496 -83.8206
5.451224 91.527 -84.0139
5.490725 91.558 -84.2051
5.530514 91.590 -84.3945
5.570590 91.622 -84.5822
5.610957 91.656 -84.7689
5.651616 91.690 -84.9559
5.692570 91.725 -85.1447
5.733821 91.761 -85.3372
5.775370 91.798 -85.5349
5.817221 91.836 -85.7392
5.859375 91.875 -85.9509
5.901834 91.915 -86.1704
5.944602 91.956 -86.3979
5.987679 91.998 -86.6340
6.031068 92.040 -86.8793
6.074771 92.084 -87.1348
6.118792 92.128 -87.4018
6.163131 92.172 -87.6813
6.207792 92.217 -87.9742
6.252776 92.261 -88.2810
6.298086 92.306 -88.6018
6.343725 92.351 -88.9363
6.389694 92.396 -89.2840
6.435996 92.441 -89.6444
6.482634 92.485 -90.0171
6.529610 92.528 -90.4018
6.576926 92.571 -90.7982
6.624585 92.613 -91.2064
6.672590 92.655 -91.6259
6.720942 92.695 -92.0562
6.769645 92.734 -92.4962
6.818700 92.773 -92.9444
6.868111 92.810 -93.3996
6.917881 92.847 -93.8605
6.968010 92.882 -94.3264
7.018504 92.916 -94.7969
7.069362 92.950 -95.2714
7.120590 92.982 -95.7490
7.172189 93.014 -96.2286
7.224161 93.045 -96.7089
7.276511 93.076 -97.1886
7.329239 93.106 -97.6669
7.382350 93.136 -98.1433
7.435845 93.166 -98.6174
7.489729 93.195 -99.0891
7.544002 93.225 -99.5582
7.598669 93.255 -100.0242
7.653732 93.286 -100.4868
7.709194 93.317 -100.9458
7.765058 93.350 -101.4012
7.821327 93.383 -101.8532
7.878004 93.417 -102.3023
7.935091 93.452 -102.7490
7.992592 93.488 -103.1939
8.050510 93.525 -103.6375
8.108847 93.564 -104.0800
8.167607 93.604 -104.5219
8.226793 93.646 -104.9636
8.286408 93.689 -105.4058
8.346454 93.733 -105.8492
8.406936 93.778 -106.2944
8.467856 93.824 -106.7417
8.529218 93.871 -107.1913
8.591024 93.919 -107.6433
8.653278 93.968 -108.0976
8.715983 94.017 -108.5543
8.779143 94.067 -109.0134
8.842760 94.117 -109.4747
8.906839 94.168 -109.9379
8.971381 94.218 -110.4025
9.036392 94.269 -110.8677
9.101873 94.319 -111.3329
9.167829 94.369 -111.7974
9.234263 94.419 -112.2606
9.301178 94.469 -112.7219
9.368578 94.518 -113.1804
9.436467 94.567 -113.6353
9.504847 94.615 -114.0857
9.573723 94.663 -114.5310
9.643099 94.710 -114.9707
9.712976 94.757 -115.4043
9.783361 94.803 -115.8313
9.854255 94.849 -116.2513
9.925663 94.895 -116.6641
9.997588 94.941 -117.0694
10.070035 94.986 -117.4673
10.143007 95.031 -117.8579
10.216507 95.076 -118.2413
10.290540 95.121 -118.6178
10.365109 95.165 -118.9876
10.440219 95.210 -119.3510
10.515873 95.254 -119.7085
10.592076 95.298 -120.0605
10.668830 95.342 -120.4075
10.746141 95.385 -120.7497
10.824012 95.428 -121.0876
10.902447 95.471 -121.4216
10.981451 95.513 -121.7519
11.061027 95.555 -122.0788
11.141180 95.596 -122.4027
11.221913 95.636 -122.7236
11.303232 95.675 -123.0416
11.385140 95.713 -123.3570
11.467641 95.751 -123.6698
11.550741 95.788 -123.9800
11.634442 95.823 -124.2879
11.718750 95.858 -124.5933
11.803669 95.891 -124.8964
11.889203 95.924 -125.1973
11.975357 95.955 -125.4961
12.062136 95.985 -125.7930
12.149543 96.014 -126.0882
12.237583 96.043 -126.3818
12.326262 96.070 -126.6741
12.415583 96.096 -126.9654
12.505552 96.120 -127.2558
12.596172 96.144 -127.5458
12.687449 96.167 -127.8354
12.779387 96.189 -128.1251
12.871992 96.209 -128.4150
12.965268 96.229 -128.7055
13.059220 96.248 -128.9967
13.153852 96.265 -129.2889
13.249170 96.282 -129.5823
13.345179 96.298 -129.8772
13.441884 96.313 -130.1738
13.539289 96.327 -130.4724
13.637401 96.340 -130.7733
13.736223 96.353 -131.0768
13.835761 96.365 -131.3831
13.936021 96.377 -131.6926
14.037007 96.387 -132.0057
14.138725 96.398 -132.3226
14.241180 96.408 -132.6437
14.344377 96.417 -132.9692
14.448323 96.426 -133.2994
14.553021 96.435 -133.6343
14.658478 96.443 -133.9741
14.764700 96.451 -134.3187
14.871691 96.459 -134.6681
14.979457 96.466 -135.0220
15.088005 96.473 -135.3802
15.197339 96.480 -135.7423
15.307465 96.487 -136.1079
15.418389 96.493 -136.4767
15.530117 96.500 -136.8481
15.642655 96.506 -137.2219
15.756008 96.513 -137.5975
15.870182 96.520 -137.9748
15.985184 96.528 -138.3534
16.101019 96.535 -138.7330
16.217694 96.544 -139.1136
16.335214 96.552 -139.4949
16.453586 96.562 -139.8769
16.572815 96.572 -140.2594
16.692909 96.582 -140.6422
16.813872 96.593 -141.0252
16.935713 96.605 -141.4079
17.058436 96.617 -141.7901
17.182048 96.629 -142.1712
17.306556 96.642 -142.5508
17.431967 96.655 -142.9283
17.558286 96.668 -143.3030
17.685521 96.682 -143.6745
17.813677 96.696 -144.0419
17.942762 96.709 -144.4050
18.072783 96.723 -144.7631
18.203746 96.737 -145.1160
18.335658 96.752 -145.4633
18.468526 96.766 -145.8050
18.602356 96.780 -146.1409
18.737156 96.794 -146.4711
18.872934 96.808 -146.7956
19.009695 96.822 -147.1145
19.147447 96.835 -147.4281
19.286197 96.848 -147.7363
19.425953 96.861 -148.0395
19.566721 96.873 -148.3377
19.708510 96.885 -148.6311
19.851326 96.896 -148.9200
19.995177 96.906 -149.2046
20.140070 96.916 -149.4852
20.286013 96.924 -149.7620
20.433014 96.932 -150.0355
20.581080 96.939 -150.3060
20.730219 96.945 -150.5739
20.880439 96.950 -150.8398
21.031747 96.954 -151.1039
21.184152 96.958 -151.3669
21.337661 96.960 -151.6292
21.492282 96.962 -151.8912
21.648024 96.962 -152.1534
21.804895 96.962 -152.4164
21.962902 96.961 -152.6807
22.122054 96.960 -152.9468
22.282360 96.958 -153.2151
22.443827 96.955 -153.4863
22.606464 96.952 -153.7607
22.770280 96.948 -154.0387
22.935283 96.944 -154.3206
23.101481 96.940 -154.6065
23.268884 96.935 -154.8964
23.437500 96.930 -155.1904
23.607338 96.925 -155.4882
23.778406 96.920 -155.7895
23.950714 96.915 -156.0941
24.124271 96.910 -156.4016
24.299086 96.905 -156.7116
24.475167 96.900 -157.0237
24.652524 96.896 -157.3376
24.831166 96.892 -157.6527
25.011103 96.889 -157.9687
25.192344 96.886 -158.2851
25.374898 96.884 -158.6014
25.558775 96.882 -158.9169
25.743984 96.880 -159.2312
25.930536 96.879 -159.5436
26.118439 96.879 -159.8535
26.307704 96.878 -160.1605
26.498341 96.879 -160.4641
26.690359 96.879 -160.7637
26.883768 96.880 -161.0592
27.078579 96.881 -161.3503
27.274801 96.882 -161.6367
27.472446 96.883 -161.9184
27.671522 96.884 -162.1953
27.872042 96.884 -162.4674
28.074014 96.885 -162.7348
28.277450 96.885 -162.9976
28.482360 96.884 -163.2560
28.688755 96.883 -163.5102
28.896645 96.882 -163.7606
29.106042 96.880 -164.0076
29.316957 96.877 -164.2514
29.529400 96.873 -164.4928
29.743382 96.869 -164.7323
29.958915 96.865 -164.9705
30.176009 96.860 -165.2083
30.394677 96.854 -165.4464
30.614929 96.848 -165.6856
30.836778 96.841 -165.9266
31.060234 96.834 -166.1700
31.285309 96.826 -166.4162
31.512015 96.818 -166.6656
31.740364 96.810 -166.9184
31.970368 96.802 -167.1744
32.202039 96.793 -167.4336
32.435388 96.784 -167.6957
32.670428 96.775 -167.9604
32.907171 96.766 -168.2273
33.145630 96.757 -168.4960
33.385817 96.748 -168.7661
33.627745 96.739 -169.0373
33.871425 96.731 -169.3092
34.116871 96.722 -169.5814
34.364096 96.714 -169.8536
34.613113 96.707 -170.1252
34.863934 96.699 -170.3955
35.116572 96.691 -170.6637
35.371041 96.683 -170.9289
35.627354 96.675 -171.1902
35.885525 96.667 -171.4470
36.145566 96.659 -171.6990
36.407492 96.651 -171.9463
36.671316 96.643 -172.1894
36.937051 96.635 -172.4291
37.204712 96.627 -172.6661
37.474313 96.619 -172.9011
37.745867 96.610 -173.1344
38.019389 96.601 -173.3661
38.294893 96.591 -173.5959
38.572394 96.581 -173.8234
38.851905 96.570 -174.0487
39.133442 96.559 -174.2721
39.417019 96.548 -174.4943
39.702651 96.536 -174.7165
39.990353 96.525 -174.9398
40.280140 96.514 -175.1652
40.572026 96.502 -175.3931
40.866028 96.491 -175.6234
41.162160 96.479 -175.8553
41.460438 96.466 -176.0879
41.760877 96.454 -176.3201
42.063494 96.441 -176.5512
42.368303 96.428 -176.7807
42.675322 96.415 -177.0086
42.984565 96.402 -177.2349
43.296048 96.390 -177.4599
43.609789 96.377 -177.6836
43.925804 96.364 -177.9060
44.244108 96.352 -178.1268
44.564719 96.339 -178.3460
44.887654 96.326 -178.5632
45.212928 96.312 -178.7782
45.540560 96.299 -178.9912
45.870565 96.285 -179.2023
46.202962 96.272 -179.4121
46.537768 96.258 -179.6212
46.875000 96.244 -179.8304
47.214676 96.231 179.9599
47.556813 96.216 179.7495
47.901429 96.202 179.5386
48.248542 96.187 179.3276
48.598171 96.172 179.1172
48.950334 96.157 178.9081
49.305048 96.142 178.7007
49.662333 96.126 178.4953
50.022206 96.111 178.2922
50.384688 96.095 178.0913
50.749796 96.080 177.8926
51.117550 96.065 177.6964
51.487969 96.049 177.5025
51.861072 96.034 177.3115
52.236879 96.018 177.1232
52.615409 96.003 176.9373
52.996681 95.988 176.7533
53.380717 95.973 176.5702
53.767536 95.958 176.3871
54.157158 95.943 176.2037
54.549603 95.928 176.0201
54.944892 95.913 175.8362
55.343045 95.898 175.6520
55.744084 95.883 175.4667
56.148028 95.869 175.2793
56.554900 95.855 175.0891
56.964720 95.840 174.8956
57.377510 95.826 174.6995
57.793291 95.811 174.5016
58.212085 95.796 174.3032
58.633914 95.780 174.1048
59.058799 95.764 173.9067
59.486764 95.748 173.7090
59.917829 95.731 173.5121
60.352019 95.714 173.3167
60.789354 95.696 173.1235
61.229859 95.677 172.9334
61.673556 95.658 172.7467
62.120468 95.638 172.5630
62.570618 95.618 172.3820
63.024031 95.598 172.2032
63.480729 95.578 172.0265
63.940736 95.557 171.8520
64.404077 95.536 171.6796
64.870776 95.516 171.5090
65.340856 95.495 171.3397
65.814343 95.475 171.1711
66.291261 95.455 171.0031
66.771635 95.434 170.8359
67.255489 95.414 170.6702
67.742850 95.393 170.5063
68.233743 95.373 170.3442
68.728193 95.352 170.1837
69.226226 95.332 170.0243
69.727867 95.311 169.8658
70.233144 95.290 169.7081
70.742083 95.270 169.5510
71.254709 95.249 169.3948
71.771050 95.228 169.2396
72.291132 95.206 169.0855
72.814984 95.185 168.9331
73.342631 95.164 168.7825
73.874102 95.143 168.6339
74.409424 95.122 168.4874
74.948626 95.102 168.3426
75.491734 95.081 168.1991
76.038779 95.061 168.0562
76.589787 95.041 167.9126
77.144788 95.022 167.7675
77.703811 95.002 167.6202
78.266885 94.982 167.4698
78.834039 94.962 167.3157
79.405303 94.942 167.1574
79.980706 94.922 166.9944
80.560280 94.901 166.8265
81.144053 94.880 166.6537
81.732056 94.858 166.4763
82.324320 94.834 166.2952
82.920876 94.810 166.1122
83.521755 94.783 165.9299
84.126988 94.756 165.7514
84.736607 94.726 165.5793
85.350643 94.696 165.4154
85.969129 94.665 165.2603
86.592097 94.633 165.1142
87.219579 94.601 164.9771
87.851608 94.569 164.8485
88.488217 94.538 164.7274
89.129439 94.507 164.6125
89.775308 94.476 164.5024
90.425856 94.446 164.3965
91.081119 94.416 164.2940
91.741131 94.387 164.1942
92.405925 94.358 164.0960
93.075536 94.329 163.9984
93.750000 94.300 163.9005
94.429351 94.270 163.8017
95.113625 94.241 163.7019
95.802858 94.212 163.6013
96.497085 94.182 163.5004
97.196342 94.152 163.4000
97.900667 94.122 163.3015
98.610096 94.092 163.2066
99.324665 94.062 163.1168
100.044413 94.032 163.0329
100.769376 94.002 162.9551
101.499592 93.972 162.8830
102.235100 93.942 162.8154
102.975938 93.913 162.7505
103.722144 93.884 162.6862
104.473757 93.856 162.6207
105.230817 93.828 162.5532
105.993363 93.800 162.4833
106.761435 93.773 162.4110
107.535072 93.746 162.3363
108.314315 93.719 162.2590
109.099206 93.691 162.1790
109.889783 93.663 162.0964
110.686090 93.632 162.0109
111.488167 93.601 161.9218
112.296056 93.567 161.8279
113.109800 93.531 161.7289
113.929440 93.493 161.6262
114.755020 93.453 161.5231
115.586582 93.413 161.4238
116.424170 93.372 161.3325
117.267827 93.331 161.2545
118.117598 93.290 161.1962
118.973527 93.251 161.1656
119.835658 93.213 161.1706
120.704037 93.177 161.2122
121.578708 93.145 161.2795
122.459718 93.116 161.3558
123.347111 93.088 161.4281
124.240935 93.062 161.4896
125.141236 93.035 161.5370
126.048061 93.007 161.5695
126.961458 92.980 161.5875
127.881473 92.952 161.5928
128.808154 92.925 161.5889
129.741551 92.898 161.5798
130.681712 92.872 161.5694
131.628686 92.846 161.5596
132.582521 92.821 161.5493
133.543269 92.796 161.5352
134.510979 92.770 161.5155
135.485701 92.744 161.4906
136.467486 92.715 161.4626
137.456386 92.685 161.4340
138.452451 92.654 161.4072
139.455735 92.622 161.3835
140.466288 92.588 161.3634
141.484165 92.554 161.3465
142.509418 92.519 161.3321
143.542100 92.484 161.3194
144.582265 92.448 161.3082
145.629968 92.412 161.2991
146.685262 92.375 161.2927
147.748204 92.337 161.2901
148.818849 92.298 161.2929
149.897251 92.258 161.3038
150.983469 92.217 161.3259
152.077557 92.174 161.3617
153.179574 92.131 161.4132
154.289576 92.087 161.4803
155.407622 92.044 161.5610
156.533770 92.001 161.6514
157.668078 91.960 161.7471
158.810606 91.918 161.8456
159.961413 91.876 161.9479
161.120559 91.833 162.0590
162.288105 91.788 162.1864
163.464112 91.743 162.3385
164.648640 91.696 162.5236
165.841752 91.650 162.7489
167.043510 91.605 163.0212
168.253976 91.564 163.3450
169.473213 91.530 163.7196
170.701286 91.506 164.1362
171.938258 91.493 164.5757
173.184194 91.495 165.0090
174.439158 91.510 165.4025
175.703216 91.536 165.7258
176.976434 91.570 165.9566
178.258878 91.607 166.0849
179.550615 91.643 166.1135
180.851713 91.673 166.0564
182.162239 91.696 165.9346
183.482262 91.708 165.7712
184.811850 91.711 165.5872
186.151073 91.704 165.3992
187.500000 91.689 165.2188
188.858702 91.668 165.0535
190.227250 91.642 164.9077
191.605715 91.611 164.7844
192.994169 91.577 164.6847
194.392685 91.542 164.6082
195.801334 91.504 164.5532
197.220191 91.466 164.5175
198.649330 91.428 164.5002
200.088825 91.390 164.5009
201.538751 91.352 164.5186
202.999184 91.317 164.5512
204.470200 91.282 164.5944
205.951875 91.249 164.6434
207.444287 91.217 164.6943
208.947514 91.185 164.7450
210.461634 91.153 164.7964
211.986726 91.119 164.8518
213.522869 91.084 164.9154
215.070144 91.048 164.9918
216.628631 91.011 165.0843
218.198411 90.975 165.1931
219.779567 90.939 165.3149
221.372180 90.906 165.4437
222.976334 90.874 165.5728
224.592112 90.844 165.6982
226.219600 90.815 165.8186
227.858880 90.787 165.9351
229.510039 90.758 166.0496
231.173164 90.730 166.1641
232.848340 90.702 166.2795
234.535655 90.673 166.3961
236.235197 90.645 166.5131
237.947054 90.616 166.6294
239.671317 90.587 166.7446
241.408074 90.557 166.8596
243.157416 90.526 166.9770
244.919435 90.494 167.0997
246.694223 90.461 167.2311
248.481871 90.428 167.3744
250.282473 90.394 167.5323
252.096123 90.361 167.7063
253.922915 90.330 167.8950
255.762945 90.302 168.0926
257.616309 90.276 168.2897
259.483103 90.252 168.4765
261.363424 90.230 168.6478
263.257372 90.207 168.8054
265.165043 90.182 168.9560
267.086538 90.156 169.1082
269.021957 90.129 169.2687
270.971401 90.101 169.4412
272.934972 90.072 169.6255
274.912771 90.045 169.8197
276.904902 90.019 170.0216
278.911469 89.994 170.2298
280.932577 89.971 170.4427
282.968330 89.949 170.6574
285.018835 89.930 170.8683
287.084199 89.912 171.0681
289.164530 89.894 171.2509
291.259935 89.876 171.4157
293.370525 89.855 171.5692
295.496408 89.832 171.7222
297.637697 89.806 171.8857
299.794503 89.779 172.0668
301.966937 89.751 172.2679
304.155114 89.725 172.4877
306.359147 89.699 172.7222
308.579152 89.676 172.9660
310.815244 89.655 173.2134
313.067539 89.637 173.4592
315.336156 89.620 173.7004
317.621211 89.604 173.9363
319.922826 89.590 174.1672
322.241118 89.577 174.3924
324.576210 89.565 174.6099
326.928223 89.553 174.8178
329.297280 89.541 175.0157
331.683504 89.529 175.2040
334.087019 89.515 175.3839
336.507952 89.501 175.5569
338.946427 89.485 175.7253
341.402572 89.467 175.8926
343.876516 89.447 176.0631
346.368387 89.427 176.2407
348.878315 89.406 176.4272
351.406431 89.384 176.6226
353.952867 89.362 176.8254
356.517756 89.340 177.0338
359.101230 89.319 177.2468
361.703426 89.297 177.4646
364.324478 89.276 177.6876
366.964523 89.256 177.9160
369.623699 89.236 178.1496
372.302145 89.216 178.3874
375.000000 89.197 178.6285
377.717405 89.178 178.8721
380.454501 89.159 179.1179
383.211431 89.141 179.3656
385.988339 89.122 179.6155
388.785369 89.104 179.8678
391.602668 89.087 -179.8775
394.440383 89.070 -179.6205
397.298660 89.053 -179.3615
400.177650 89.037 -179.1011
403.077502 89.022 -178.8403
405.998368 89.007 -178.5805
408.940400 88.992 -178.3218
411.903750 88.976 -178.0626
414.888575 88.960 -177.7999
417.895028 88.944 -177.5305
420.923268 88.928 -177.2519
423.973452 88.912 -176.9631
427.045738 88.897 -176.6657
430.140287 88.884 -176.3635
433.257261 88.873 -176.0612
436.396822 88.863 -175.7618
439.559133 88.855 -175.4654
442.744360 88.847 -175.1720
445.952668 88.841 -174.8840
449.184225 88.836 -174.6067
452.439199 88.831 -174.3461
455.717760 88.826 -174.1054
459.020079 88.818 -173.8810
462.346327 88.808 -173.6624
465.696680 88.795 -173.4376
469.071310 88.779 -173.1990
472.470394 88.763 -172.9443
475.894109 88.748 -172.6760
479.342634 88.732 -172.3991
482.816148 88.718 -172.1192
486.314833 88.703 -171.8380
489.838871 88.687 -171.5511
493.388445 88.671 -171.2513
496.963741 88.655 -170.9355
500.564945 88.641 -170.6079
504.192245 88.629 -170.2765
507.845830 88.618 -169.9485
511.525890 88.607 -169.6265
515.232618 88.597 -169.3093
518.966206 88.586 -168.9927
522.726849 88.575 -168.6720
526.514743 88.564 -168.3425
530.330086 88.553 -168.0024
534.173076 88.543 -167.6541
538.043915 88.534 -167.3023
541.942803 88.526 -166.9495
545.869944 88.519 -166.5952
549.825542 88.513 -166.2383
553.809805 88.507 -165.8801
557.822939 88.503 -165.5234
561.865154 88.499 -165.1701
565.936660 88.495 -164.8201
570.037671 88.491 -164.4708
574.168399 88.486 -164.1188
578.329060 88.481 -163.7622
582.519870 88.476 -163.4016
586.741049 88.472 -163.0372
590.992817 88.467 -162.6669
595.275394 88.463 -162.2881
599.589005 88.460 -161.9022
603.933874 88.459 -161.5138
608.310228 88.459 -161.1280
612.718295 88.459 -160.7464
617.158304 88.459 -160.3669
621.630488 88.459 -159.9835
626.135079 88.458 -159.5906
630.672311 88.458 -159.1870
635.242423 88.460 -158.7776
639.845651 88.463 -158.3682
644.482237 88.466 -157.9591
649.152421 88.471 -157.5467
653.856447 88.476 -157.1288
658.594560 88.484 -156.7086
663.367008 88.494 -156.2944
668.174039 88.505 -155.8935
673.015903 88.515 -155.5065
677.892854 88.525 -155.1276
682.805145 88.533 -154.7494
687.753032 88.539 -154.3669
692.736774 88.545 -153.9764
697.756631 88.550 -153.5747
702.812863 88.555 -153.1612
707.905735 88.562 -152.7390
713.035511 88.569 -152.3127
718.202461 88.577 -151.8854
723.406852 88.586 -151.4576
728.648956 88.595 -151.0284
733.929047 88.604 -150.5970
739.247399 88.613 -150.1627
744.604290 88.622 -149.7246
750.000000 88.631 -149.2808
755.434809 88.641 -148.8294
760.909001 88.651 -148.3687
766.422861 88.661 -147.8970
771.976677 88.672 -147.4123
777.570739 88.683 -146.9127
783.205337 88.696 -146.3958
788.880766 88.710 -145.8590
794.597321 88.727 -145.2993
800.355301 88.747 -144.7170
806.155005 88.774 -144.1183
811.996736 88.806 -143.5157
817.880799 88.846 -142.9246
823.807501 88.891 -142.3597
829.777150 88.939 -141.8321
835.790057 88.989 -141.3447
841.846536 89.037 -140.8904
847.946903 89.084 -140.4568
854.091476 89.128 -140.0339
860.280575 89.170 -139.6155
866.514523 89.211 -139.1964
872.793644 89.251 -138.7715
879.118267 89.291 -138.3392
885.488720 89.332 -137.9026
891.905336 89.374 -137.4650
898.368450 89.416 -137.0270
904.878398 89.458 -136.5864
911.435520 89.502 -136.1422
918.040157 89.547 -135.6955
924.692655 89.593 -135.2490
931.393359 89.642 -134.8060
938.142619 89.692 -134.3701
944.940787 89.743 -133.9434
951.788218 89.795 -133.5244
958.685268 89.847 -133.1106
965.632296 89.899 -132.6994
972.629666 89.951 -132.2884
979.677741 90.004 -131.8768
986.776890 90.057 -131.4655
993.927482 90.111 -131.0541
1001.129891 90.166 -130.6392
1008.384491 90.223 -130.2174
1015.691660 90.283 -129.7890
1023.051781 90.346 -129.3586
1030.465236 90.414 -128.9335
1037.932411 90.485 -128.5248
1045.453698 90.559 -128.1447
1053.029486 90.634 -127.7983
1060.660172 90.709 -127.4824
1068.346153 90.781 -127.1886
1076.087829 90.852 -126.9076
1083.885605 90.921 -126.6332
1091.739887 90.990 -126.3635
1099.651084 91.058 -126.0984
1107.619609 91.125 -125.8376
1115.645878 91.191 -125.5799
1123.730308 91.258 -125.3240
1131.873321 91.323 -125.0683
1140.075341 91.389 -124.8119
1148.336797 91.455 -124.5540
1156.658119 91.521 -124.2945
1165.039741 91.588 -124.0323
1173.482099 91.656 -123.7661
1181.985634 91.726 -123.4968
1190.550789 91.799 -123.2305
1199.178011 91.875 -122.9784
1207.867749 91.953 -122.7522
1216.620457 92.031 -122.5580
1225.436590 92.108 -122.3922
1234.316609 92.183 -122.2467
1243.260976 92.255 -122.1128
1252.270157 92.324 -121.9829
1261.344623 92.391 -121.8529
1270.484846 92.458 -121.7212
1279.691303 92.523 -121.5861
1288.964474 92.588 -121.4461
1298.304842 92.653 -121.3017
1307.712894 92.718 -121.1555
1317.189120 92.784 -121.0116
1326.734016 92.850 -120.8726
1336.348077 92.915 -120.7383
1346.031806 92.979 -120.6062
1355.785708 93.042 -120.4723
1365.610290 93.105 -120.3328
1375.506065 93.167 -120.1831
1385.473549 93.229 -120.0187
1395.513261 93.293 -119.8387
1405.625726 93.361 -119.6487
1415.811469 93.433 -119.4603
1426.071023 93.508 -119.2880
1436.404921 93.585 -119.1405
1446.813703 93.663 -119.0186
1457.297912 93.740 -118.9170
1467.858093 93.816 -118.8298
1478.494798 93.890 -118.7527
1489.208581 93.964 -118.6824
1500.000000 94.036 -118.6155
1510.869618 94.108 -118.5484
1521.818002 94.179 -118.4780
1532.845723 94.251 -118.4017
1543.953355 94.323 -118.3178
1555.141477 94.397 -118.2261
1566.410674 94.474 -118.1311
1577.761531 94.555 -118.0432
1589.194642 94.639 -117.9762
1600.710601 94.725 -117.9393
1612.310010 94.810 -117.9333
1623.993473 94.894 -117.9538
1635.761599 94.977 -117.9938
1647.615002 95.058 -118.0476
1659.554299 95.137 -118.1102
1671.580114 95.215 -118.1783
1683.693072 95.293 -118.2508
1695.893807 95.370 -118.3297
1708.182952 95.447 -118.4172
1720.561150 95.523 -118.5136
1733.029045 95.597 -118.6160
1745.587288 95.671 -118.7195
1758.236533 95.744 -118.8178
1770.977440 95.817 -118.9058
1783.810673 95.893 -118.9846
1796.736900 95.972 -119.0637
1809.756796 96.054 -119.1574
1822.871040 96.139 -119.2772
1836.080315 96.225 -119.4281
1849.385310 96.311 -119.6102
1862.786718 96.396 -119.8215
1876.285239 96.479 -120.0582
1889.881575 96.561 -120.3151
1903.576436 96.640 -120.5863
1917.370535 96.719 -120.8662
1931.264593 96.797 -121.1516
1945.259332 96.877 -121.4436
1959.355483 96.958 -121.7506
1973.553781 97.041 -122.0858
1987.854965 97.124 -122.4597
2002.259781 97.206 -122.8765
2016.768981 97.285 -123.3347
2031.383320 97.361 -123.8296
2046.103561 97.433 -124.3557
2060.930471 97.502 -124.9082
2075.864823 97.567 -125.4847
2090.907395 97.628 -126.0842
2106.058972 97.684 -126.7043
2121.320344 97.736 -127.3402
2136.692305 97.783 -127.9836
2152.175658 97.825 -128.6266
2167.771210 97.866 -129.2657
2183.479774 97.904 -129.9061
2199.302169 97.942 -130.5576
2215.239219 97.979 -131.2283
2231.291755 98.012 -131.9219
2247.460615 98.041 -132.6378
2263.746641 98.066 -133.3718
2280.150683 98.085 -134.1164
2296.673595 98.099 -134.8626
2313.316238 98.109 -135.6024
2330.079481 98.117 -136.3324
2346.964198 98.122 -137.0574
2363.971268 98.126 -137.7870
2381.101578 98.128 -138.5293
2398.356022 98.127 -139.2875
2415.735498 98.121 -140.0606
2433.240913 98.111 -140.8443
2450.873180 98.095 -141.6339
2468.633217 98.074 -142.4248
2486.521951 98.047 -143.2123
2504.540314 98.013 -143.9889
2522.689246 97.974 -144.7442
2540.969692 97.928 -145.4678
2559.382606 97.880 -146.1552
2577.928947 97.830 -146.8098
2596.609683 97.778 -147.4384
2615.425787 97.724 -148.0470
2634.378241 97.669 -148.6382
2653.468031 97.610 -149.2100
2672.696154 97.548 -149.7563
2692.063613 97.483 -150.2687
2711.571415 97.417 -150.7412
2731.220579 97.351 -151.1756
2751.012130 97.286 -151.5803
2770.947098 97.223 -151.9653
2791.026522 97.161 -152.3382
2811.251451 97.099 -152.7026
2831.622938 97.036 -153.0595
2852.142045 96.973 -153.4085
2872.809842 96.907 -153.7475
2893.627406 96.839 -154.0703
2914.595823 96.768 -154.3666
2935.716186 96.695 -154.6268
2956.989596 96.622 -154.8483
2978.417161 96.550 -155.0350
3000.000000 96.479 -155.1935
3021.739237 96.411 -155.3286
3043.636005 96.343 -155.4409
3065.691446 96.276 -155.5260
3087.906710 96.210 -155.5777
3110.282955 96.147 -155.5939
3132.821347 96.089 -155.5811
3155.523062 96.037 -155.5513
3178.389283 95.990 -155.5172
3201.421202 95.947 -155.4893
3224.620020 95.909 -155.4750
3247.986946 95.872 -155.4787
3271.523198 95.837 -155.4999
3295.230004 95.801 -155.5313
3319.108599 95.764 -155.5621
3343.160228 95.727 -155.5852
3367.386145 95.691 -155.5997
3391.787613 95.657 -155.6086
3416.365904 95.623 -155.6147
3441.122300 95.590 -155.6161
3466.058091 95.557 -155.6058
3491.174576 95.525 -155.5762
3516.473066 95.497 -155.5261
3541.954880 95.472 -155.4613
3567.621345 95.453 -155.3921
3593.473800 95.439 -155.3296
3619.513592 95.429 -155.2844
3645.742080 95.422 -155.2647
3672.160630 95.418 -155.2721
3698.770620 95.414 -155.3016
3725.573436 95.412 -155.3479
3752.570477 95.410 -155.4103
3779.763150 95.410 -155.4933
3807.152872 95.411 -155.6013
3834.741071 95.410 -155.7336
3862.529185 95.408 -155.8820
3890.518664 95.403 -156.0350
3918.710966 95.396 -156.1821
3947.107561 95.390 -156.3143
3975.709929 95.384 -156.4244
4004.519563 95.384 -156.5125
4033.537962 95.392 -156.5924
4062.766641 95.409 -156.6918
4092.207123 95.435 -156.8443
4121.860942 95.468 -157.0794
4151.729646 95.503 -157.4148
4181.814790 95.535 -157.8528
4212.117944 95.560 -158.3809
4242.640687 95.575 -158.9752
4273.384610 95.580 -159.6087
4304.351317 95.575 -160.2604
4335.542421 95.564 -160.9189
4366.959549 95.546 -161.5822
4398.604338 95.524 -162.2553
4430.478438 95.497 -162.9459
4462.583511 95.464 -163.6572
4494.921231 95.425 -164.3868
4527.493283 95.378 -165.1319
4560.301365 95.323 -165.8908
4593.347189 95.260 -166.6616
4626.632476 95.186 -167.4362
4660.158962 95.102 -168.2005
4693.928395 95.007 -168.9394
4727.942535 94.902 -169.6416
4762.203156 94.790 -170.3021
4796.712043 94.671 -170.9213
4831.470996 94.545 -171.5011
4866.481826 94.412 -172.0394
4901.746360 94.273 -172.5311
4937.266434 94.128 -172.9720
4973.043902 93.977 -173.3607
5009.080628 93.820 -173.6933
5045.378492 93.657 -173.9612
5081.939384 93.490 -174.1537
5118.765212 93.321 -174.2637
5155.857894 93.151 -174.2913
5193.219366 92.983 -174.2448
5230.851574 92.819 -174.1367
5268.756481 92.658 -173.9770
5306.936062 92.500 -173.7735
5345.392309 92.346 -173.5347
5384.127225 92.194 -173.2671
5423.142830 92.042 -172.9707
5462.441159 91.891 -172.6378
5502.024259 91.740 -172.2575
5541.894195 91.589 -171.8217
5582.053045 91.441 -171.3291
5622.502902 91.296 -170.7838
5663.245876 91.155 -170.1901
5704.284090 91.019 -169.5523
5745.619684 90.888 -168.8767
5787.254813 90.762 -168.1684
5829.191647 90.639 -167.4263
5871.432373 90.519 -166.6428
5913.979192 90.403 -165.8075
5956.834323 90.291 -164.9132
6000.000000 90.187 -163.9598
6043.478473 90.091 -162.9514
6087.272010 90.006 -161.8947
6131.382892 89.931 -160.8000
6175.813420 89.867 -159.6791
6220.565910 89.815 -158.5402
6265.642695 89.773 -157.3855
6311.046124 89.741 -156.2126
6356.778566 89.720 -155.0201
6402.842404 89.711 -153.8098
6449.240040 89.714 -152.5860
6495.973891 89.732 -151.3556
6543.046396 89.763 -150.1285
6590.460007 89.809 -148.9142
6638.217197 89.869 -147.7180
6686.320456 89.942 -146.5391
6734.772290 90.029 -145.3751
6783.575226 90.131 -144.2258
6832.731809 90.251 -143.0951
6882.244600 90.390 -141.9924
6932.116181 90.549 -140.9339
6982.349153 90.730 -139.9395
7032.946133 90.934 -139.0275
7083.909760 91.160 -138.2131
7135.242690 91.409 -137.5119
7186.947600 91.683 -136.9444
7239.027185 91.983 -136.5389
7291.484160 92.308 -136.3337
7344.321260 92.658 -136.3765
7397.541239 93.030 -136.7177
7451.146872 93.419 -137.4041
7505.140954 93.816 -138.4769
7559.526299 94.215 -139.9726
7614.305743 94.605 -141.9221
7669.482141 94.977 -144.3472
7725.058371 95.316 -147.2580
7781.037328 95.608 -150.6443
7837.421932 95.837 -154.4675
7894.215122 95.990 -158.6564
7951.419859 96.054 -163.1100
8009.039125 96.022 -167.7041
8067.075924 95.892 -172.3020
8125.533282 95.665 -176.7683
8184.414245 95.349 179.0189
8243.721885 94.953 175.1614
8303.459292 94.487 171.7381
8363.629581 93.966 168.8017
8424.235888 93.403 166.3807
8485.281374 92.813 164.4785
8546.769221 92.210 163.0746
8608.702634 91.606 162.1300
8671.084842 91.010 161.5977
8733.919097 90.428 161.4313
8797.208675 89.865 161.5905
8860.956876 89.323 162.0424
8925.167022 88.805 162.7563
8989.842461 88.315 163.6994
9054.986566 87.853 164.8383
9120.602731 87.419 166.1437
9186.694378 87.013 167.5937
9253.264952 86.635 169.1755
9320.317925 86.284 170.8794
9387.856790 85.962 172.6926
9455.885071 85.668 174.5981
9524.406312 85.403 176.5792
9593.424086 85.165 178.6241
9662.941992 84.955 -179.2712
9732.963653 84.773 -177.1090
9803.492719 84.619 -174.8963
9874.532869 84.495 -172.6463
9946.087805 84.400 -170.3737
10018.161257 84.336 -168.0873
10090.756983 84.300 -165.7883
10163.878768 84.295 -163.4767
10237.530423 84.323 -161.1583
10311.715789 84.384 -158.8444
10386.438732 84.482 -156.5454
10461.703149 84.617 -154.2652
10537.512962 84.794 -152.0056
10613.872125 85.017 -149.7759
10690.784618 85.293 -147.6002
10768.254450 85.629 -145.5190
10846.285661 86.031 -143.5878
10924.882318 86.503 -141.8799
11004.048518 87.049 -140.4929
11083.788390 87.665 -139.5465
11164.106090 88.344 -139.1678
11245.005805 89.071 -139.4735
11326.491752 89.829 -140.5623
11408.568180 90.595 -142.5164
11491.239368 91.342 -145.3990
11574.509626 92.038 -149.2433
11658.383294 92.650 -154.0330
11742.864745 93.143 -159.6871
11827.958384 93.485 -166.0510
11913.668646 93.653 -172.8988
12000.000000 93.631 -179.9460
12086.956947 93.417 173.1208
12174.544019 93.021 166.6044
12262.765784 92.467 160.7563
12351.626840 91.785 155.7520
12441.131819 91.008 151.6878
12531.285389 90.173 148.5919
12622.092249 89.312 146.4401
12713.557132 88.457 145.1669
12805.684808 87.632 144.6753
12898.480079 86.858 144.8503
12991.947783 86.149 145.5745
13086.092792 85.516 146.7378
13180.920015 84.962 148.2386
13276.434395 84.491 149.9852
13372.640911 84.102 151.8991
13469.544580 83.795 153.9160
13567.150452 83.567 155.9791
13665.463617 83.420 158.0333
13764.489200 83.354 160.0258
13864.232362 83.368 161.9067
13964.698305 83.466 163.6214
14065.892266 83.649 165.1028
14167.819519 83.920 166.2711
14270.485380 84.279 167.0362
14373.895200 84.723 167.2957
14478.054370 85.246 166.9359
14582.968320 85.835 165.8401
14688.642520 86.472 163.9013
14795.082478 87.132 161.0299
14902.293745 87.786 157.1624
15010.281908 88.400 152.2751
15119.052599 88.940 146.3955
15228.611486 89.371 139.6079
15338.964283 89.666 132.0541
15450.116741 89.804 123.9283
15562.074656 89.774 115.4570
15674.843864 89.580 106.8644
15788.430244 89.238 98.3345
15902.839718 88.769 89.9828
16018.078250 88.202 81.8462
16134.151848 87.559 73.8929
16251.066563 86.854 66.0534
16368.828491 86.090 58.2651
16487.443769 85.253 50.5155
16606.918584 84.323 42.8660
16727.259161 83.280 35.4528
16848.471777 82.107 28.4629
16970.562748 80.799 22.0953
17093.538442 79.361 16.5272
17217.405268 77.806 11.8953
17342.169684 76.152 8.2891
17467.838194 74.421 5.7502
17594.417350 72.635 4.2766
17721.913751 70.816 3.8268
17850.334044 68.989 4.3257
17979.684923 67.175 5.6714
18109.973131 65.392 7.7479
18241.205462 63.658 10.4362
18373.388756 61.986 13.6227
18506.529905 60.384 17.2081
18640.635849 58.857 21.1076
18775.713581 57.406 25.2464
18911.770141 56.030 29.5584
19048.812624 54.725 33.9855
19186.848172 53.493 38.4763
19325.883983 52.337 42.9883
19465.927305 51.273 47.4719
19606.985439 50.334 51.8247
19749.065738 49.569 55.8238
19892.175609 49.034 59.0497
20036.322514 48.763 60.9078
