* Measurement data measured by REW V5.31.3
* Source: EXCL: Microphone (USB Sound Device        ), MICROPHONE (Master Volume), R, volume: 0.390
* Format: 256k Log Swept Sine, 1 sweep at -17.0 dBFS with no timing reference
* Dated: Jun 28, 2025 11:41:18 PM
* REW Settings:
*  C-weighting compensation: Off
*  Target level: 75.0 dB
* Note: Tigerism Zebra L
* Measurement: L Tigerism Zebra
* Smoothing: 1/12 octave
* Frequency Step: 96 ppo
* Start Frequency: 0.36621094 Hz
*
* Freq(Hz) SPL(dB) Phase(degrees)
0.366211 88.362 -170.7224
0.368865 88.364 -170.7217
0.371538 88.367 -170.7206
0.374230 88.370 -170.7191
0.376942 88.374 -170.7173
0.379673 88.379 -170.7152
0.382424 88.383 -170.7128
0.385196 88.388 -170.7103
0.387987 88.393 -170.7074
0.390798 88.397 -170.7043
0.393630 88.402 -170.7010
0.396483 88.407 -170.6975
0.399356 88.412 -170.6938
0.402250 88.417 -170.6898
0.405165 88.422 -170.6856
0.408101 88.427 -170.6811
0.411058 88.432 -170.6765
0.414037 88.437 -170.6716
0.417037 88.442 -170.6665
0.420059 88.447 -170.6612
0.423103 88.453 -170.6557
0.426169 88.458 -170.6500
0.429257 88.463 -170.6441
0.432368 88.468 -170.6380
0.435501 88.474 -170.6317
0.438656 88.479 -170.6252
0.441835 88.485 -170.6186
0.445037 88.490 -170.6117
0.448262 88.496 -170.6047
0.451510 88.501 -170.5975
0.454782 88.507 -170.5902
0.458077 88.512 -170.5827
0.461397 88.518 -170.5750
0.464740 88.524 -170.5672
0.468108 88.529 -170.5593
0.471500 88.535 -170.5513
0.474917 88.541 -170.5431
0.478358 88.547 -170.5348
0.481825 88.553 -170.5264
0.485316 88.559 -170.5180
0.488833 88.565 -170.5094
0.492375 88.571 -170.5008
0.495943 88.577 -170.4921
0.499537 88.583 -170.4834
0.503157 88.589 -170.4746
0.506803 88.596 -170.4658
0.510475 88.602 -170.4570
0.514175 88.608 -170.4481
0.517900 88.614 -170.4393
0.521653 88.621 -170.4305
0.525434 88.627 -170.4218
0.529241 88.634 -170.4131
0.533076 88.640 -170.4044
0.536939 88.647 -170.3959
0.540830 88.654 -170.3874
0.544749 88.660 -170.3791
0.548696 88.667 -170.3708
0.552673 88.674 -170.3628
0.556677 88.681 -170.3549
0.560711 88.688 -170.3472
0.564774 88.695 -170.3397
0.568867 88.702 -170.3324
0.572989 88.709 -170.3254
0.577141 88.716 -170.3187
0.581324 88.723 -170.3123
0.585536 88.730 -170.3061
0.589779 88.737 -170.3003
0.594053 88.745 -170.2949
0.598358 88.752 -170.2899
0.602694 88.759 -170.2853
0.607061 88.767 -170.2812
0.611460 88.774 -170.2775
0.615891 88.782 -170.2743
0.620354 88.789 -170.2717
0.624849 88.797 -170.2696
0.629377 88.805 -170.2682
0.633938 88.813 -170.2674
0.638532 88.821 -170.2672
0.643159 88.828 -170.2678
0.647819 88.836 -170.2691
0.652514 88.844 -170.2712
0.657242 88.853 -170.2741
0.662005 88.861 -170.2779
0.666802 88.869 -170.2825
0.671634 88.877 -170.2882
0.676501 88.885 -170.2948
0.681403 88.894 -170.3025
0.686341 88.902 -170.3113
0.691314 88.911 -170.3212
0.696324 88.919 -170.3323
0.701370 88.928 -170.3447
0.706452 88.936 -170.3584
0.711571 88.944 -170.3735
0.716728 88.952 -170.3900
0.721921 88.959 -170.4081
0.727153 88.966 -170.4278
0.732422 88.971 -170.4492
0.737729 88.975 -170.4725
0.743075 88.978 -170.4976
0.748460 88.980 -170.5246
0.753883 88.981 -170.5536
0.759346 88.982 -170.5847
0.764849 88.982 -170.6177
0.770391 88.982 -170.6528
0.775974 88.982 -170.6898
0.781597 88.982 -170.7288
0.787261 88.982 -170.7698
0.792966 88.981 -170.8127
0.798712 88.981 -170.8575
0.804500 88.980 -170.9042
0.810329 88.979 -170.9528
0.816201 88.978 -171.0031
0.822116 88.976 -171.0553
0.828073 88.975 -171.1092
0.834074 88.973 -171.1648
0.840118 88.970 -171.2221
0.846206 88.968 -171.2811
0.852338 88.965 -171.3416
0.858514 88.962 -171.4037
0.864735 88.958 -171.4672
0.871001 88.954 -171.5322
0.877313 88.950 -171.5986
0.883670 88.945 -171.6664
0.890074 88.939 -171.7354
0.896524 88.933 -171.8056
0.903020 88.927 -171.8770
0.909564 88.920 -171.9495
0.916155 88.913 -172.0229
0.922794 88.904 -172.0974
0.929481 88.896 -172.1726
0.936216 88.886 -172.2487
0.943000 88.876 -172.3254
0.949834 88.865 -172.4028
0.956717 88.853 -172.4806
0.963649 88.841 -172.5589
0.970632 88.828 -172.6375
0.977666 88.813 -172.7163
0.984750 88.798 -172.7952
0.991886 88.782 -172.8741
0.999074 88.765 -172.9529
1.006314 88.747 -173.0314
1.013606 88.727 -173.1095
1.020951 88.707 -173.1871
1.028349 88.685 -173.2640
1.035801 88.662 -173.3401
1.043307 88.638 -173.4154
1.050867 88.613 -173.4895
1.058482 88.586 -173.5625
1.066152 88.557 -173.6343
1.073878 88.528 -173.7050
1.081660 88.497 -173.7748
1.089498 88.464 -173.8441
1.097393 88.430 -173.9136
1.105345 88.395 -173.9840
1.113355 88.359 -174.0563
1.121423 88.322 -174.1312
1.129549 88.284 -174.2092
1.137734 88.245 -174.2907
1.145979 88.206 -174.3757
1.154283 88.165 -174.4642
1.162647 88.123 -174.5561
1.171072 88.080 -174.6513
1.179558 88.036 -174.7495
1.188106 87.991 -174.8506
1.196715 87.945 -174.9543
1.205387 87.897 -175.0602
1.214122 87.847 -175.1680
1.222920 87.796 -175.2775
1.231782 87.744 -175.3883
1.240708 87.689 -175.4999
1.249699 87.633 -175.6120
1.258754 87.575 -175.7241
1.267876 87.514 -175.8356
1.277063 87.452 -175.9461
1.286318 87.387 -176.0550
1.295639 87.320 -176.1616
1.305027 87.250 -176.2652
1.314484 87.177 -176.3652
1.324009 87.102 -176.4607
1.333604 87.024 -176.5509
1.343268 86.942 -176.6348
1.353002 86.858 -176.7115
1.362806 86.770 -176.7798
1.372681 86.679 -176.8386
1.382628 86.583 -176.8866
1.392647 86.484 -176.9226
1.402739 86.381 -176.9451
1.412904 86.274 -176.9527
1.423142 86.161 -176.9440
1.433455 86.044 -176.9179
1.443843 85.920 -176.8732
1.454305 85.790 -176.8095
1.464844 85.653 -176.7266
1.475459 85.506 -176.6249
1.486150 85.349 -176.5047
1.496920 85.180 -176.3663
1.507767 85.001 -176.2092
1.518693 84.810 -176.0326
1.529698 84.607 -175.8352
1.540783 84.395 -175.6153
1.551948 84.172 -175.3709
1.563194 83.940 -175.0997
1.574521 83.701 -174.7990
1.585931 83.454 -174.4659
1.597423 83.201 -174.0971
1.608999 82.944 -173.6889
1.620658 82.683 -173.2375
1.632402 82.420 -172.7382
1.644232 82.156 -172.1863
1.656146 81.892 -171.5763
1.668147 81.631 -170.9023
1.680235 81.374 -170.1576
1.692411 81.121 -169.3352
1.704675 80.877 -168.4271
1.717028 80.641 -167.4250
1.729470 80.416 -166.3197
1.742003 80.204 -165.1015
1.754626 80.007 -163.7601
1.767341 79.828 -162.2849
1.780147 79.668 -160.6647
1.793047 79.529 -158.8885
1.806040 79.414 -156.9451
1.819128 79.323 -154.8232
1.832310 79.257 -152.5120
1.845587 79.216 -150.0017
1.858961 79.200 -147.2851
1.872432 79.207 -144.3596
1.886001 79.237 -141.2294
1.899667 79.289 -137.9069
1.913433 79.361 -134.4133
1.927299 79.453 -130.7793
1.941265 79.563 -127.0442
1.955332 79.691 -123.2543
1.969501 79.835 -119.4594
1.983773 79.994 -115.7105
1.998148 80.167 -112.0557
2.012627 80.353 -108.5375
2.027212 80.549 -105.1905
2.041902 80.756 -102.0407
2.056698 80.970 -99.1052
2.071602 81.192 -96.3931
2.086614 81.418 -93.9068
2.101734 81.649 -91.6433
2.116964 81.883 -89.5954
2.132304 82.118 -87.7530
2.147756 82.354 -86.1040
2.163320 82.592 -84.6347
2.178996 82.831 -83.3305
2.194786 83.073 -82.1758
2.210690 83.321 -81.1554
2.226710 83.576 -80.2550
2.242845 83.840 -79.4619
2.259098 84.114 -78.7655
2.275468 84.398 -78.1569
2.291957 84.690 -77.6284
2.308566 84.991 -77.1734
2.325295 85.299 -76.7858
2.342145 85.612 -76.4604
2.359117 85.929 -76.1923
2.376212 86.249 -75.9771
2.393431 86.569 -75.8111
2.410775 86.888 -75.6906
2.428244 87.204 -75.6125
2.445840 87.516 -75.5742
2.463564 87.822 -75.5731
2.481416 88.120 -75.6072
2.499397 88.408 -75.6750
2.517509 88.686 -75.7752
2.535752 88.953 -75.9070
2.554127 89.207 -76.0699
2.572635 89.451 -76.2637
2.591277 89.683 -76.4877
2.610055 89.906 -76.7411
2.628968 90.119 -77.0222
2.648019 90.324 -77.3287
2.667208 90.521 -77.6581
2.686535 90.711 -78.0078
2.706003 90.894 -78.3751
2.725612 91.070 -78.7574
2.745363 91.241 -79.1523
2.765257 91.407 -79.5576
2.785295 91.567 -79.9712
2.805478 91.724 -80.3912
2.825808 91.877 -80.8164
2.846285 92.027 -81.2455
2.866910 92.173 -81.6781
2.887685 92.318 -82.1144
2.908611 92.459 -82.5555
2.929688 92.597 -83.0031
2.950917 92.732 -83.4597
2.972301 92.862 -83.9271
2.993839 92.988 -84.4066
3.015534 93.109 -84.8981
3.037386 93.226 -85.4005
3.059396 93.338 -85.9122
3.081565 93.445 -86.4312
3.103896 93.549 -86.9550
3.126388 93.648 -87.4812
3.149043 93.743 -88.0075
3.171862 93.836 -88.5315
3.194847 93.925 -89.0514
3.217998 94.011 -89.5654
3.241317 94.095 -90.0727
3.264805 94.176 -90.5733
3.288463 94.254 -91.0682
3.312293 94.329 -91.5594
3.336295 94.401 -92.0492
3.360471 94.470 -92.5393
3.384822 94.534 -93.0306
3.409350 94.595 -93.5230
3.434056 94.653 -94.0157
3.458940 94.707 -94.5072
3.484005 94.758 -94.9957
3.509252 94.806 -95.4790
3.534681 94.851 -95.9552
3.560295 94.895 -96.4219
3.586094 94.937 -96.8775
3.612081 94.976 -97.3205
3.638255 95.014 -97.7501
3.664620 95.050 -98.1665
3.691175 95.084 -98.5706
3.717923 95.115 -98.9635
3.744864 95.144 -99.3463
3.772001 95.171 -99.7197
3.799335 95.195 -100.0841
3.826866 95.217 -100.4395
3.854597 95.238 -100.7855
3.882529 95.257 -101.1217
3.910664 95.276 -101.4473
3.939002 95.294 -101.7614
3.967546 95.311 -102.0632
3.996296 95.329 -102.3518
4.025255 95.347 -102.6263
4.054423 95.364 -102.8863
4.083804 95.381 -103.1317
4.113396 95.398 -103.3630
4.143204 95.414 -103.5812
4.173227 95.430 -103.7875
4.203468 95.446 -103.9836
4.233928 95.463 -104.1711
4.264609 95.480 -104.3515
4.295512 95.498 -104.5264
4.326639 95.517 -104.6967
4.357992 95.537 -104.8629
4.389572 95.559 -105.0250
4.421380 95.583 -105.1824
4.453419 95.608 -105.3348
4.485691 95.635 -105.4823
4.518196 95.663 -105.6258
4.550936 95.693 -105.7671
4.583914 95.723 -105.9084
4.617131 95.755 -106.0524
4.650589 95.788 -106.2013
4.684289 95.822 -106.3576
4.718233 95.858 -106.5229
4.752424 95.895 -106.6982
4.786862 95.933 -106.8837
4.821549 95.972 -107.0790
4.856488 96.012 -107.2841
4.891680 96.054 -107.4989
4.927127 96.096 -107.7239
4.962831 96.139 -107.9600
4.998794 96.182 -108.2082
5.035017 96.225 -108.4696
5.071503 96.268 -108.7454
5.108253 96.310 -109.0365
5.145270 96.352 -109.3434
5.182555 96.393 -109.6664
5.220110 96.433 -110.0049
5.257937 96.473 -110.3581
5.296038 96.512 -110.7248
5.334415 96.550 -111.1037
5.373071 96.586 -111.4936
5.412006 96.621 -111.8937
5.451224 96.655 -112.3035
5.490725 96.686 -112.7230
5.530514 96.715 -113.1524
5.570590 96.742 -113.5916
5.610957 96.768 -114.0400
5.651616 96.791 -114.4962
5.692570 96.812 -114.9582
5.733821 96.831 -115.4236
5.775370 96.849 -115.8905
5.817221 96.864 -116.3573
5.859375 96.877 -116.8228
5.901834 96.888 -117.2869
5.944602 96.898 -117.7496
5.987679 96.905 -118.2103
6.031068 96.911 -118.6683
6.074771 96.915 -119.1222
6.118792 96.918 -119.5703
6.163131 96.920 -120.0110
6.207792 96.921 -120.4431
6.252776 96.922 -120.8657
6.298086 96.922 -121.2788
6.343725 96.921 -121.6825
6.389694 96.920 -122.0772
6.435996 96.920 -122.4633
6.482634 96.919 -122.8411
6.529610 96.920 -123.2106
6.576926 96.921 -123.5719
6.624585 96.924 -123.9248
6.672590 96.928 -124.2698
6.720942 96.933 -124.6075
6.769645 96.940 -124.9394
6.818700 96.948 -125.2674
6.868111 96.958 -125.5931
6.917881 96.969 -125.9182
6.968010 96.983 -126.2437
7.018504 96.999 -126.5703
7.069362 97.017 -126.8986
7.120590 97.036 -127.2297
7.172189 97.057 -127.5649
7.224161 97.080 -127.9059
7.276511 97.104 -128.2541
7.329239 97.129 -128.6104
7.382350 97.156 -128.9755
7.435845 97.183 -129.3495
7.489729 97.211 -129.7321
7.544002 97.240 -130.1231
7.598669 97.269 -130.5224
7.653732 97.298 -130.9298
7.709194 97.326 -131.3452
7.765058 97.354 -131.7682
7.821327 97.382 -132.1979
7.878004 97.409 -132.6329
7.935091 97.435 -133.0718
7.992592 97.460 -133.5128
8.050510 97.484 -133.9546
8.108847 97.508 -134.3963
8.167607 97.530 -134.8368
8.226793 97.551 -135.2749
8.286408 97.571 -135.7090
8.346454 97.590 -136.1375
8.406936 97.608 -136.5590
8.467856 97.626 -136.9724
8.529218 97.643 -137.3770
8.591024 97.660 -137.7725
8.653278 97.677 -138.1584
8.715983 97.693 -138.5343
8.779143 97.710 -138.8999
8.842760 97.727 -139.2551
8.906839 97.745 -139.6002
8.971381 97.763 -139.9358
9.036392 97.782 -140.2627
9.101873 97.801 -140.5820
9.167829 97.822 -140.8944
9.234263 97.844 -141.2007
9.301178 97.866 -141.5017
9.368578 97.889 -141.7987
9.436467 97.913 -142.0927
9.504847 97.938 -142.3848
9.573723 97.963 -142.6758
9.643099 97.989 -142.9664
9.712976 98.015 -143.2568
9.783361 98.041 -143.5474
9.854255 98.067 -143.8385
9.925663 98.092 -144.1302
9.997588 98.117 -144.4224
10.070035 98.142 -144.7146
10.143007 98.165 -145.0064
10.216507 98.188 -145.2970
10.290540 98.210 -145.5859
10.365109 98.230 -145.8725
10.440219 98.250 -146.1562
10.515873 98.269 -146.4363
10.592076 98.286 -146.7120
10.668830 98.303 -146.9829
10.746141 98.318 -147.2487
10.824012 98.333 -147.5092
10.902447 98.347 -147.7643
10.981451 98.360 -148.0141
11.061027 98.373 -148.2587
11.141180 98.385 -148.4986
11.221913 98.397 -148.7343
11.303232 98.408 -148.9664
11.385140 98.419 -149.1956
11.467641 98.429 -149.4225
11.550741 98.439 -149.6478
11.634442 98.448 -149.8721
11.718750 98.457 -150.0962
11.803669 98.466 -150.3205
11.889203 98.473 -150.5453
11.975357 98.480 -150.7711
12.062136 98.487 -150.9980
12.149543 98.492 -151.2261
12.237583 98.497 -151.4555
12.326262 98.500 -151.6861
12.415583 98.503 -151.9180
12.505552 98.505 -152.1510
12.596172 98.507 -152.3852
12.687449 98.507 -152.6207
12.779387 98.507 -152.8576
12.871992 98.506 -153.0960
12.965268 98.505 -153.3364
13.059220 98.503 -153.5791
13.153852 98.501 -153.8245
13.249170 98.498 -154.0732
13.345179 98.495 -154.3256
13.441884 98.492 -154.5822
13.539289 98.488 -154.8435
13.637401 98.484 -155.1096
13.736223 98.480 -155.3807
13.835761 98.475 -155.6570
13.936021 98.470 -155.9381
14.037007 98.464 -156.2239
14.138725 98.458 -156.5140
14.241180 98.452 -156.8079
14.344377 98.445 -157.1051
14.448323 98.438 -157.4050
14.553021 98.431 -157.7073
14.658478 98.423 -158.0114
14.764700 98.416 -158.3173
14.871691 98.410 -158.6248
14.979457 98.404 -158.9339
15.088005 98.398 -159.2451
15.197339 98.393 -159.5585
15.307465 98.389 -159.8746
15.418389 98.386 -160.1939
15.530117 98.383 -160.5169
15.642655 98.382 -160.8437
15.756008 98.381 -161.1746
15.870182 98.380 -161.5095
15.985184 98.380 -161.8480
16.101019 98.381 -162.1896
16.217694 98.382 -162.5335
16.335214 98.383 -162.8788
16.453586 98.384 -163.2244
16.572815 98.386 -163.5691
16.692909 98.387 -163.9119
16.813872 98.389 -164.2518
16.935713 98.391 -164.5880
17.058436 98.394 -164.9198
17.182048 98.397 -165.2469
17.306556 98.400 -165.5691
17.431967 98.404 -165.8865
17.558286 98.409 -166.1992
17.685521 98.414 -166.5076
17.813677 98.419 -166.8120
17.942762 98.425 -167.1127
18.072783 98.431 -167.4098
18.203746 98.438 -167.7034
18.335658 98.444 -167.9936
18.468526 98.450 -168.2802
18.602356 98.455 -168.5630
18.737156 98.461 -168.8419
18.872934 98.465 -169.1166
19.009695 98.470 -169.3869
19.147447 98.473 -169.6530
19.286197 98.477 -169.9148
19.425953 98.479 -170.1726
19.566721 98.481 -170.4266
19.708510 98.482 -170.6773
19.851326 98.483 -170.9250
19.995177 98.483 -171.1703
20.140070 98.482 -171.4135
20.286013 98.480 -171.6550
20.433014 98.477 -171.8953
20.581080 98.474 -172.1348
20.730219 98.469 -172.3739
20.880439 98.464 -172.6131
21.031747 98.459 -172.8531
21.184152 98.452 -173.0944
21.337661 98.445 -173.3377
21.492282 98.438 -173.5836
21.648024 98.430 -173.8327
21.804895 98.421 -174.0855
21.962902 98.411 -174.3425
22.122054 98.402 -174.6038
22.282360 98.391 -174.8696
22.443827 98.381 -175.1398
22.606464 98.370 -175.4144
22.770280 98.358 -175.6934
22.935283 98.347 -175.9766
23.101481 98.336 -176.2641
23.268884 98.325 -176.5559
23.437500 98.314 -176.8520
23.607338 98.303 -177.1523
23.778406 98.292 -177.4568
23.950714 98.282 -177.7652
24.124271 98.273 -178.0768
24.299086 98.263 -178.3911
24.475167 98.254 -178.7073
24.652524 98.246 -179.0246
24.831166 98.238 -179.3421
25.011103 98.230 -179.6592
25.192344 98.223 -179.9752
25.374898 98.217 179.7102
25.558775 98.211 179.3975
25.743984 98.206 179.0868
25.930536 98.201 178.7784
26.118439 98.197 178.4727
26.307704 98.193 178.1700
26.498341 98.189 177.8706
26.690359 98.186 177.5749
26.883768 98.182 177.2832
27.078579 98.179 176.9955
27.274801 98.175 176.7117
27.472446 98.171 176.4318
27.671522 98.167 176.1555
27.872042 98.162 175.8827
28.074014 98.157 175.6131
28.277450 98.150 175.3469
28.482360 98.144 175.0841
28.688755 98.136 174.8250
28.896645 98.127 174.5692
29.106042 98.118 174.3168
29.316957 98.108 174.0669
29.529400 98.098 173.8186
29.743382 98.088 173.5706
29.958915 98.077 173.3214
30.176009 98.066 173.0698
30.394677 98.054 172.8145
30.614929 98.042 172.5548
30.836778 98.030 172.2902
31.060234 98.017 172.0208
31.285309 98.004 171.7466
31.512015 97.991 171.4683
31.740364 97.977 171.1860
31.970368 97.963 170.9005
32.202039 97.949 170.6118
32.435388 97.935 170.3206
32.670428 97.921 170.0269
32.907171 97.907 169.7312
33.145630 97.894 169.4338
33.385817 97.881 169.1351
33.627745 97.868 168.8356
33.871425 97.855 168.5357
34.116871 97.843 168.2361
34.364096 97.830 167.9376
34.613113 97.818 167.6404
34.863934 97.806 167.3455
35.116572 97.794 167.0530
35.371041 97.782 166.7634
35.627354 97.770 166.4769
35.885525 97.757 166.1937
36.145566 97.744 165.9139
36.407492 97.731 165.6379
36.671316 97.718 165.3657
36.937051 97.704 165.0973
37.204712 97.689 164.8324
37.474313 97.674 164.5703
37.745867 97.659 164.3104
38.019389 97.644 164.0514
38.294893 97.629 163.7924
38.572394 97.613 163.5327
38.851905 97.596 163.2718
39.133442 97.580 163.0094
39.417019 97.562 162.7456
39.702651 97.545 162.4806
39.990353 97.527 162.2146
40.280140 97.509 161.9476
40.572026 97.491 161.6795
40.866028 97.473 161.4102
41.162160 97.455 161.1395
41.460438 97.437 160.8672
41.760877 97.420 160.5934
42.063494 97.402 160.3189
42.368303 97.384 160.0445
42.675322 97.365 159.7715
42.984565 97.347 159.5010
43.296048 97.329 159.2336
43.609789 97.311 158.9695
43.925804 97.293 158.7079
44.244108 97.275 158.4479
44.564719 97.258 158.1882
44.887654 97.241 157.9280
45.212928 97.224 157.6669
45.540560 97.206 157.4052
45.870565 97.188 157.1432
46.202962 97.170 156.8815
46.537768 97.151 156.6204
46.875000 97.131 156.3598
47.214676 97.112 156.0997
47.556813 97.092 155.8401
47.901429 97.072 155.5811
48.248542 97.052 155.3226
48.598171 97.032 155.0643
48.950334 97.011 154.8058
49.305048 96.991 154.5466
49.662333 96.970 154.2862
50.022206 96.950 154.0247
50.384688 96.928 153.7629
50.749796 96.906 153.5023
51.117550 96.884 153.2441
51.487969 96.861 152.9894
51.861072 96.839 152.7383
52.236879 96.816 152.4902
52.615409 96.793 152.2444
52.996681 96.771 151.9999
53.380717 96.749 151.7560
53.767536 96.727 151.5122
54.157158 96.705 151.2682
54.549603 96.683 151.0237
54.944892 96.662 150.7787
55.343045 96.641 150.5326
55.744084 96.620 150.2848
56.148028 96.600 150.0345
56.554900 96.579 149.7810
56.964720 96.559 149.5244
57.377510 96.538 149.2652
57.793291 96.517 149.0049
58.212085 96.496 148.7445
58.633914 96.473 148.4847
59.058799 96.451 148.2255
59.486764 96.428 147.9664
59.917829 96.404 147.7075
60.352019 96.380 147.4491
60.789354 96.355 147.1923
61.229859 96.329 146.9377
61.673556 96.302 146.6853
62.120468 96.276 146.4342
62.570618 96.249 146.1838
63.024031 96.221 145.9337
63.480729 96.194 145.6845
63.940736 96.166 145.4373
64.404077 96.138 145.1930
64.870776 96.110 144.9520
65.340856 96.083 144.7144
65.814343 96.055 144.4797
66.291261 96.028 144.2479
66.771635 96.002 144.0189
67.255489 95.975 143.7929
67.742850 95.949 143.5704
68.233743 95.923 143.3518
68.728193 95.898 143.1364
69.226226 95.873 142.9232
69.727867 95.849 142.7114
70.233144 95.825 142.5009
70.742083 95.803 142.2911
71.254709 95.781 142.0811
71.771050 95.761 141.8690
72.291132 95.741 141.6533
72.814984 95.722 141.4330
73.342631 95.704 141.2071
73.874102 95.687 140.9735
74.409424 95.669 140.7298
74.948626 95.650 140.4756
75.491734 95.631 140.2136
76.038779 95.609 139.9477
76.589787 95.586 139.6810
77.144788 95.562 139.4142
77.703811 95.536 139.1461
78.266885 95.511 138.8754
78.834039 95.484 138.6010
79.405303 95.458 138.3221
79.980706 95.431 138.0382
80.560280 95.403 137.7485
81.144053 95.375 137.4529
81.732056 95.346 137.1521
82.324320 95.316 136.8476
82.920876 95.284 136.5419
83.521755 95.251 136.2380
84.126988 95.216 135.9393
84.736607 95.179 135.6488
85.350643 95.142 135.3683
85.969129 95.103 135.0988
86.592097 95.063 134.8409
87.219579 95.024 134.5945
87.851608 94.984 134.3577
88.488217 94.946 134.1273
89.129439 94.908 133.8997
89.775308 94.870 133.6732
90.425856 94.832 133.4481
91.081119 94.795 133.2262
91.741131 94.758 133.0090
92.405925 94.721 132.7968
93.075536 94.685 132.5885
93.750000 94.650 132.3834
94.429351 94.615 132.1808
95.113625 94.581 131.9813
95.802858 94.547 131.7852
96.497085 94.514 131.5926
97.196342 94.482 131.4029
97.900667 94.451 131.2148
98.610096 94.420 131.0270
99.324665 94.390 130.8387
100.044413 94.360 130.6490
100.769376 94.331 130.4565
101.499592 94.303 130.2591
102.235100 94.276 130.0545
102.975938 94.249 129.8411
103.722144 94.222 129.6188
104.473757 94.195 129.3882
105.230817 94.168 129.1505
105.993363 94.140 128.9065
106.761435 94.112 128.6560
107.535072 94.082 128.3975
108.314315 94.052 128.1303
109.099206 94.019 127.8568
109.889783 93.985 127.5808
110.686090 93.949 127.3054
111.488167 93.912 127.0318
112.296056 93.874 126.7615
113.109800 93.835 126.4964
113.929440 93.793 126.2406
114.755020 93.749 125.9998
115.586582 93.703 125.7796
116.424170 93.655 125.5844
117.267827 93.606 125.4140
118.117598 93.559 125.2626
118.973527 93.516 125.1171
119.835658 93.476 124.9593
120.704037 93.439 124.7748
121.578708 93.403 124.5627
122.459718 93.368 124.3331
123.347111 93.333 124.0973
124.240935 93.298 123.8632
125.141236 93.264 123.6349
126.048061 93.230 123.4144
126.961458 93.197 123.2017
127.881473 93.163 122.9956
128.808154 93.130 122.7938
129.741551 93.097 122.5929
130.681712 93.063 122.3895
131.628686 93.029 122.1815
132.582521 92.994 121.9693
133.543269 92.959 121.7543
134.510979 92.922 121.5385
135.485701 92.885 121.3239
136.467486 92.847 121.1115
137.456386 92.808 120.9013
138.452451 92.770 120.6930
139.455735 92.732 120.4856
140.466288 92.694 120.2784
141.484165 92.656 120.0710
142.509418 92.619 119.8628
143.542100 92.582 119.6539
144.582265 92.545 119.4443
145.629968 92.508 119.2344
146.685262 92.470 119.0245
147.748204 92.431 118.8155
148.818849 92.391 118.6085
149.897251 92.350 118.4057
150.983469 92.309 118.2099
152.077557 92.267 118.0237
153.179574 92.226 117.8478
154.289576 92.185 117.6812
155.407622 92.147 117.5204
156.533770 92.110 117.3608
157.668078 92.074 117.1971
158.810606 92.041 117.0253
159.961413 92.008 116.8438
161.120559 91.975 116.6534
162.288105 91.941 116.4561
163.464112 91.906 116.2544
164.648640 91.870 116.0508
165.841752 91.833 115.8477
167.043510 91.794 115.6478
168.253976 91.754 115.4536
169.473213 91.714 115.2668
170.701286 91.675 115.0878
171.938258 91.635 114.9158
173.184194 91.597 114.7492
174.439158 91.560 114.5858
175.703216 91.524 114.4236
176.976434 91.489 114.2607
178.258878 91.454 114.0960
179.550615 91.419 113.9293
180.851713 91.385 113.7606
182.162239 91.350 113.5899
183.482262 91.316 113.4174
184.811850 91.282 113.2436
186.151073 91.248 113.0692
187.500000 91.214 112.8955
188.858702 91.180 112.7238
190.227250 91.147 112.5552
191.605715 91.113 112.3898
192.994169 91.079 112.2266
194.392685 91.044 112.0641
195.801334 91.010 111.9006
197.220191 90.975 111.7352
198.649330 90.941 111.5682
200.088825 90.908 111.4008
201.538751 90.876 111.2335
202.999184 90.845 111.0659
204.470200 90.815 110.8955
205.951875 90.785 110.7189
207.444287 90.756 110.5336
208.947514 90.727 110.3396
210.461634 90.696 110.1392
211.986726 90.663 109.9370
213.522869 90.629 109.7383
215.070144 90.593 109.5486
216.628631 90.556 109.3714
218.198411 90.519 109.2070
219.779567 90.483 109.0525
221.372180 90.449 108.9026
222.976334 90.416 108.7525
224.592112 90.384 108.5991
226.219600 90.353 108.4413
227.858880 90.322 108.2798
229.510039 90.291 108.1161
231.173164 90.261 107.9512
232.848340 90.230 107.7854
234.535655 90.199 107.6184
236.235197 90.169 107.4495
237.947054 90.138 107.2781
239.671317 90.107 107.1046
241.408074 90.076 106.9302
243.157416 90.043 106.7578
244.919435 90.009 106.5907
246.694223 89.975 106.4319
248.481871 89.940 106.2844
250.282473 89.906 106.1507
252.096123 89.872 106.0320
253.922915 89.841 105.9263
255.762945 89.812 105.8270
257.616309 89.787 105.7241
259.483103 89.764 105.6081
261.363424 89.743 105.4747
263.257372 89.721 105.3262
265.165043 89.699 105.1695
267.086538 89.675 105.0126
269.021957 89.649 104.8621
270.971401 89.624 104.7214
272.934972 89.598 104.5907
274.912771 89.573 104.4680
276.904902 89.550 104.3508
278.911469 89.528 104.2366
280.932577 89.508 104.1230
282.968330 89.491 104.0065
285.018835 89.475 103.8814
287.084199 89.462 103.7408
289.164530 89.449 103.5793
291.259935 89.436 103.3970
293.370525 89.422 103.2002
295.496408 89.405 102.9989
297.637697 89.385 102.8021
299.794503 89.364 102.6150
301.966937 89.343 102.4388
304.155114 89.321 102.2715
306.359147 89.300 102.1098
308.579152 89.280 101.9503
310.815244 89.260 101.7908
313.067539 89.241 101.6303
315.336156 89.222 101.4705
317.621211 89.203 101.3152
319.922826 89.184 101.1689
322.241118 89.166 101.0338
324.576210 89.149 100.9090
326.928223 89.133 100.7911
329.297280 89.119 100.6762
331.683504 89.106 100.5604
334.087019 89.095 100.4403
336.507952 89.085 100.3143
338.946427 89.075 100.1822
341.402572 89.066 100.0452
343.876516 89.056 99.9057
346.368387 89.047 99.7657
348.878315 89.038 99.6270
351.406431 89.029 99.4906
353.952867 89.021 99.3567
356.517756 89.013 99.2249
359.101230 89.007 99.0944
361.703426 89.002 98.9643
364.324478 88.997 98.8340
366.964523 88.994 98.7035
369.623699 88.991 98.5732
372.302145 88.989 98.4435
375.000000 88.987 98.3144
377.717405 88.987 98.1855
380.454501 88.988 98.0562
383.211431 88.990 97.9257
385.988339 88.992 97.7935
388.785369 88.995 97.6598
391.602668 88.999 97.5246
394.440383 89.004 97.3886
397.298660 89.010 97.2517
400.177650 89.018 97.1130
403.077502 89.026 96.9713
405.998368 89.036 96.8249
408.940400 89.046 96.6734
411.903750 89.056 96.5182
414.888575 89.066 96.3622
417.895028 89.077 96.2088
420.923268 89.089 96.0602
423.973452 89.102 95.9171
427.045738 89.117 95.7777
430.140287 89.134 95.6384
433.257261 89.154 95.4945
436.396822 89.176 95.3425
439.559133 89.200 95.1813
442.744360 89.226 95.0097
445.952668 89.255 94.8246
449.184225 89.285 94.6202
452.439199 89.316 94.3906
455.717760 89.348 94.1332
459.020079 89.378 93.8524
462.346327 89.405 93.5590
465.696680 89.431 93.2643
469.071310 89.456 92.9754
472.470394 89.481 92.6938
475.894109 89.507 92.4171
479.342634 89.536 92.1407
482.816148 89.566 91.8603
486.314833 89.597 91.5753
489.838871 89.628 91.2912
493.388445 89.658 91.0166
496.963741 89.690 90.7557
500.564945 89.724 90.5041
504.192245 89.759 90.2526
507.845830 89.795 89.9927
511.525890 89.832 89.7201
515.232618 89.869 89.4354
518.966206 89.905 89.1426
522.726849 89.940 88.8473
526.514743 89.974 88.5545
530.330086 90.009 88.2657
534.173076 90.044 87.9777
538.043915 90.081 87.6847
541.942803 90.118 87.3835
545.869944 90.155 87.0743
549.825542 90.193 86.7584
553.809805 90.231 86.4345
557.822939 90.270 86.0998
561.865154 90.308 85.7520
565.936660 90.346 85.3913
570.037671 90.383 85.0207
574.168399 90.418 84.6439
578.329060 90.453 84.2640
582.519870 90.487 83.8821
586.741049 90.521 83.4991
590.992817 90.553 83.1173
595.275394 90.585 82.7387
599.589005 90.617 82.3619
603.933874 90.649 81.9822
608.310228 90.681 81.5962
612.718295 90.711 81.2033
617.158304 90.741 80.8066
621.630488 90.769 80.4125
626.135079 90.796 80.0271
630.672311 90.823 79.6519
635.242423 90.850 79.2820
639.845651 90.879 78.9118
644.482237 90.909 78.5398
649.152421 90.939 78.1667
653.856447 90.971 77.7909
658.594560 91.004 77.4057
663.367008 91.038 77.0016
668.174039 91.072 76.5721
673.015903 91.103 76.1193
677.892854 91.132 75.6518
682.805145 91.156 75.1792
687.753032 91.178 74.7090
692.736774 91.197 74.2473
697.756631 91.213 73.7987
702.812863 91.229 73.3652
707.905735 91.243 72.9449
713.035511 91.258 72.5337
718.202461 91.271 72.1290
723.406852 91.284 71.7304
728.648956 91.295 71.3385
733.929047 91.306 70.9541
739.247399 91.315 70.5773
744.604290 91.324 70.2084
750.000000 91.332 69.8480
755.434809 91.340 69.4964
760.909001 91.348 69.1539
766.422861 91.356 68.8200
771.976677 91.364 68.4947
777.570739 91.371 68.1776
783.205337 91.379 67.8688
788.880766 91.387 67.5696
794.597321 91.395 67.2826
800.355301 91.404 67.0096
806.155005 91.415 66.7494
811.996736 91.429 66.4962
817.880799 91.445 66.2413
823.807501 91.463 65.9759
829.777150 91.482 65.6927
835.790057 91.501 65.3907
841.846536 91.517 65.0767
847.946903 91.531 64.7615
854.091476 91.542 64.4532
860.280575 91.552 64.1558
866.514523 91.562 63.8729
872.793644 91.570 63.6081
879.118267 91.580 63.3611
885.488720 91.590 63.1277
891.905336 91.600 62.9036
898.368450 91.612 62.6879
904.878398 91.623 62.4824
911.435520 91.636 62.2875
918.040157 91.650 62.1013
924.692655 91.666 61.9204
931.393359 91.684 61.7417
938.142619 91.703 61.5621
944.940787 91.723 61.3803
951.788218 91.744 61.1973
958.685268 91.765 61.0158
965.632296 91.787 60.8385
972.629666 91.809 60.6677
979.677741 91.831 60.5035
986.776890 91.855 60.3454
993.927482 91.879 60.1943
1001.129891 91.904 60.0534
1008.384491 91.931 59.9252
1015.691660 91.960 59.8087
1023.051781 91.993 59.6987
1030.465236 92.030 59.5875
1037.932411 92.071 59.4636
1045.453698 92.116 59.3157
1053.029486 92.161 59.1391
1060.660172 92.207 58.9374
1068.346153 92.251 58.7189
1076.087829 92.293 58.4931
1083.885605 92.334 58.2665
1091.739887 92.375 58.0415
1099.651084 92.416 57.8183
1107.619609 92.457 57.5972
1115.645878 92.498 57.3787
1123.730308 92.538 57.1632
1131.873321 92.579 56.9517
1140.075341 92.620 56.7453
1148.336797 92.662 56.5443
1156.658119 92.705 56.3492
1165.039741 92.748 56.1612
1173.482099 92.794 55.9814
1181.985634 92.842 55.8087
1190.550789 92.894 55.6366
1199.178011 92.949 55.4542
1207.867749 93.007 55.2498
1216.620457 93.066 55.0180
1225.436590 93.125 54.7624
1234.316609 93.181 54.4912
1243.260976 93.236 54.2134
1252.270157 93.290 53.9366
1261.344623 93.342 53.6653
1270.484846 93.395 53.4011
1279.691303 93.447 53.1449
1288.964474 93.500 52.8977
1298.304842 93.554 52.6585
1307.712894 93.609 52.4243
1317.189120 93.666 52.1912
1326.734016 93.723 51.9568
1336.348077 93.781 51.7216
1346.031806 93.840 51.4885
1355.785708 93.898 51.2609
1365.610290 93.957 51.0421
1375.506065 94.017 50.8356
1385.473549 94.079 50.6451
1395.513261 94.145 50.4699
1405.625726 94.216 50.3036
1415.811469 94.292 50.1332
1426.071023 94.373 49.9438
1436.404921 94.458 49.7259
1446.813703 94.545 49.4786
1457.297912 94.633 49.2068
1467.858093 94.721 48.9161
1478.494798 94.810 48.6106
1489.208581 94.900 48.2941
1500.000000 94.990 47.9695
1510.869618 95.081 47.6396
1521.818002 95.174 47.3058
1532.845723 95.268 46.9684
1543.953355 95.365 46.6272
1555.141477 95.465 46.2803
1566.410674 95.570 45.9216
1577.761531 95.679 45.5389
1589.194642 95.793 45.1178
1600.710601 95.909 44.6489
1612.310010 96.026 44.1309
1623.993473 96.142 43.5682
1635.761599 96.257 42.9673
1647.615002 96.371 42.3338
1659.554299 96.484 41.6718
1671.580114 96.596 40.9838
1683.693072 96.708 40.2695
1695.893807 96.818 39.5263
1708.182952 96.927 38.7516
1720.561150 97.034 37.9452
1733.029045 97.138 37.1101
1745.587288 97.239 36.2511
1758.236533 97.337 35.3743
1770.977440 97.433 34.4843
1783.810673 97.528 33.5806
1796.736900 97.623 32.6554
1809.756796 97.717 31.6966
1822.871040 97.809 30.6956
1836.080315 97.898 29.6494
1849.385310 97.982 28.5594
1862.786718 98.060 27.4293
1876.285239 98.131 26.2647
1889.881575 98.195 25.0734
1903.576436 98.252 23.8642
1917.370535 98.301 22.6460
1931.264593 98.344 21.4269
1945.259332 98.383 20.2114
1959.355483 98.419 18.9978
1973.553781 98.450 17.7795
1987.854965 98.478 16.5529
2002.259781 98.501 15.3190
2016.768981 98.517 14.0837
2031.383320 98.528 12.8545
2046.103561 98.532 11.6392
2060.930471 98.531 10.4442
2075.864823 98.525 9.2736
2090.907395 98.515 8.1290
2106.058972 98.500 7.0128
2121.320344 98.481 5.9294
2136.692305 98.458 4.8851
2152.175658 98.431 3.8864
2167.771210 98.404 2.9347
2183.479774 98.378 2.0233
2199.302169 98.352 1.1409
2215.239219 98.327 0.2777
2231.291755 98.302 -0.5717
2247.460615 98.276 -1.4082
2263.746641 98.248 -2.2294
2280.150683 98.218 -3.0295
2296.673595 98.186 -3.8021
2313.316238 98.154 -4.5427
2330.079481 98.124 -5.2529
2346.964198 98.096 -5.9435
2363.971268 98.070 -6.6298
2381.101578 98.046 -7.3251
2398.356022 98.022 -8.0363
2415.735498 97.995 -8.7639
2433.240913 97.965 -9.5032
2450.873180 97.930 -10.2469
2468.633217 97.890 -10.9869
2486.521951 97.844 -11.7135
2504.540314 97.791 -12.4144
2522.689246 97.733 -13.0748
2540.969692 97.670 -13.6809
2559.382606 97.604 -14.2258
2577.928947 97.539 -14.7123
2596.609683 97.474 -15.1476
2615.425787 97.411 -15.5389
2634.378241 97.348 -15.8906
2653.468031 97.287 -16.2029
2672.696154 97.226 -16.4721
2692.063613 97.167 -16.6927
2711.571415 97.112 -16.8623
2731.220579 97.062 -16.9863
2751.012130 97.017 -17.0771
2770.947098 96.980 -17.1482
2791.026522 96.948 -17.2097
2811.251451 96.921 -17.2673
2831.622938 96.898 -17.3238
2852.142045 96.879 -17.3799
2872.809842 96.862 -17.4346
2893.627406 96.848 -17.4830
2914.595823 96.837 -17.5171
2935.716186 96.829 -17.5295
2956.989596 96.826 -17.5206
2978.417161 96.829 -17.4974
3000.000000 96.839 -17.4700
3021.739237 96.855 -17.4464
3043.636005 96.877 -17.4304
3065.691446 96.904 -17.4206
3087.906710 96.938 -17.4141
3110.282955 96.980 -17.4129
3132.821347 97.030 -17.4280
3155.523062 97.090 -17.4756
3178.389283 97.160 -17.5734
3201.421202 97.237 -17.7369
3224.620020 97.320 -17.9796
3247.986946 97.408 -18.3130
3271.523198 97.499 -18.7444
3295.230004 97.589 -19.2756
3319.108599 97.679 -19.9068
3343.160228 97.767 -20.6430
3367.386145 97.852 -21.4954
3391.787613 97.932 -22.4777
3416.365904 98.002 -23.6002
3441.122300 98.058 -24.8616
3466.058091 98.098 -26.2431
3491.174576 98.118 -27.7134
3516.473066 98.119 -29.2370
3541.954880 98.102 -30.7809
3567.621345 98.066 -32.3180
3593.473800 98.010 -33.8303
3619.513592 97.933 -35.3071
3645.742080 97.834 -36.7383
3672.160630 97.712 -38.1091
3698.770620 97.568 -39.3986
3725.573436 97.403 -40.5840
3752.570477 97.218 -41.6456
3779.763150 97.015 -42.5673
3807.152872 96.794 -43.3326
3834.741071 96.556 -43.9186
3862.529185 96.303 -44.2930
3890.518664 96.037 -44.4220
3918.710966 95.764 -44.2783
3947.107561 95.490 -43.8458
3975.709929 95.221 -43.1200
4004.519563 94.965 -42.1079
4033.537962 94.728 -40.8256
4062.766641 94.517 -39.2938
4092.207123 94.338 -37.5372
4121.860942 94.197 -35.5901
4151.729646 94.100 -33.5010
4181.814790 94.050 -31.3307
4212.117944 94.049 -29.1422
4242.640687 94.094 -26.9913
4273.384610 94.184 -24.9269
4304.351317 94.317 -22.9955
4335.542421 94.488 -21.2437
4366.959549 94.693 -19.7152
4398.604338 94.925 -18.4485
4430.478438 95.176 -17.4712
4462.583511 95.438 -16.7955
4494.921231 95.705 -16.4202
4527.493283 95.969 -16.3381
4560.301365 96.226 -16.5400
4593.347189 96.468 -17.0122
4626.632476 96.690 -17.7316
4660.158962 96.889 -18.6668
4693.928395 97.061 -19.7841
4727.942535 97.204 -21.0511
4762.203156 97.318 -22.4385
4796.712043 97.402 -23.9191
4831.470996 97.453 -25.4641
4866.481826 97.472 -27.0390
4901.746360 97.458 -28.6069
4937.266434 97.413 -30.1327
4973.043902 97.338 -31.5854
5009.080628 97.235 -32.9344
5045.378492 97.106 -34.1482
5081.939384 96.955 -35.1975
5118.765212 96.785 -36.0598
5155.857894 96.602 -36.7234
5193.219366 96.412 -37.1887
5230.851574 96.217 -37.4631
5268.756481 96.022 -37.5554
5306.936062 95.828 -37.4747
5345.392309 95.639 -37.2333
5384.127225 95.454 -36.8428
5423.142830 95.277 -36.3087
5462.441159 95.106 -35.6294
5502.024259 94.943 -34.7996
5541.894195 94.792 -33.8149
5582.053045 94.656 -32.6775
5622.502902 94.538 -31.3945
5663.245876 94.441 -29.9739
5704.284090 94.369 -28.4255
5745.619684 94.327 -26.7645
5787.254813 94.317 -25.0126
5829.191647 94.345 -23.1940
5871.432373 94.415 -21.3373
5913.979192 94.532 -19.4822
5956.834323 94.701 -17.6888
6000.000000 94.926 -16.0421
6043.478473 95.205 -14.6519
6087.272010 95.534 -13.6504
6131.382892 95.896 -13.1813
6175.813420 96.268 -13.3634
6220.565910 96.617 -14.2374
6265.642695 96.916 -15.7368
6311.046124 97.146 -17.7144
6356.778566 97.304 -20.0022
6402.842404 97.392 -22.4589
6449.240040 97.413 -24.9834
6495.973891 97.373 -27.5045
6543.046396 97.271 -29.9627
6590.460007 97.107 -32.2936
6638.217197 96.881 -34.4183
6686.320456 96.596 -36.2443
6734.772290 96.258 -37.6761
6783.575226 95.877 -38.6294
6832.731809 95.468 -39.0414
6882.244600 95.046 -38.8790
6932.116181 94.630 -38.1445
6982.349153 94.238 -36.8740
7032.946133 93.884 -35.1291
7083.909760 93.583 -32.9880
7135.242690 93.344 -30.5410
7186.947600 93.176 -27.8875
7239.027185 93.084 -25.1322
7291.484160 93.070 -22.3848
7344.321260 93.133 -19.7580
7397.541239 93.268 -17.3608
7451.146872 93.467 -15.2897
7505.140954 93.720 -13.6277
7559.526299 94.015 -12.4460
7614.305743 94.339 -11.8033
7669.482141 94.676 -11.7446
7725.058371 95.008 -12.2981
7781.037328 95.316 -13.4674
7837.421932 95.579 -15.2206
7894.215122 95.779 -17.4856
7951.419859 95.900 -20.1544
8009.039125 95.930 -23.0895
8067.075924 95.865 -26.1361
8125.533282 95.703 -29.1378
8184.414245 95.450 -31.9507
8243.721885 95.116 -34.4503
8303.459292 94.711 -36.5366
8363.629581 94.249 -38.1382
8424.235888 93.746 -39.2126
8485.281374 93.218 -39.7469
8546.769221 92.680 -39.7583
8608.702634 92.145 -39.2887
8671.084842 91.625 -38.3936
8733.919097 91.127 -37.1304
8797.208675 90.656 -35.5509
8860.956876 90.215 -33.6986
8925.167022 89.807 -31.6144
8989.842461 89.435 -29.3398
9054.986566 89.099 -26.9147
9120.602731 88.800 -24.3726
9186.694378 88.537 -21.7400
9253.264952 88.309 -19.0369
9320.317925 88.119 -16.2859
9387.856790 87.965 -13.5180
9455.885071 87.848 -10.7674
9524.406312 87.765 -8.0631
9593.424086 87.714 -5.4242
9662.941992 87.694 -2.8611
9732.963653 87.703 -0.3854
9803.492719 87.741 1.9827
9874.532869 87.806 4.2135
9946.087805 87.898 6.2737
10018.161257 88.011 8.1351
10090.756983 88.142 9.7769
10163.878768 88.286 11.1798
10237.530423 88.439 12.3231
10311.715789 88.592 13.1891
10386.438732 88.739 13.7725
10461.703149 88.871 14.0857
10537.512962 88.980 14.1570
10613.872125 89.061 14.0240
10690.784618 89.108 13.7289
10768.254450 89.118 13.3180
10846.285661 89.087 12.8462
10924.882318 89.015 12.3748
11004.048518 88.903 11.9626
11083.788390 88.755 11.6580
11164.106090 88.576 11.4967
11245.005805 88.371 11.5086
11326.491752 88.144 11.7196
11408.568180 87.901 12.1494
11491.239368 87.649 12.8071
11574.509626 87.393 13.6913
11658.383294 87.140 14.7944
11742.864745 86.894 16.1069
11827.958384 86.661 17.6162
11913.668646 86.446 19.3009
12000.000000 86.252 21.1331
12086.956947 86.083 23.0884
12174.544019 85.941 25.1509
12262.765784 85.831 27.3049
12351.626840 85.758 29.5187
12441.131819 85.729 31.7404
12531.285389 85.746 33.9009
12622.092249 85.811 35.9182
12713.557132 85.925 37.6965
12805.684808 86.081 39.1322
12898.480079 86.270 40.1280
12991.947783 86.477 40.6075
13086.092792 86.683 40.5232
13180.920015 86.867 39.8607
13276.434395 87.008 38.6448
13372.640911 87.083 36.9459
13469.544580 87.074 34.8791
13567.150452 86.968 32.5941
13665.463617 86.756 30.2607
13764.489200 86.437 28.0552
13864.232362 86.019 26.1489
13964.698305 85.513 24.6921
14065.892266 84.937 23.7997
14167.819519 84.311 23.5470
14270.485380 83.657 23.9730
14373.895200 82.998 25.0819
14478.054370 82.355 26.8436
14582.968320 81.750 29.1996
14688.642520 81.199 32.0728
14795.082478 80.721 35.3698
14902.293745 80.329 38.9787
15010.281908 80.036 42.7715
15119.052599 79.850 46.6078
15228.611486 79.781 50.3278
15338.964283 79.829 53.7450
15450.116741 79.991 56.6525
15562.074656 80.254 58.8394
15674.843864 80.594 60.1133
15788.430244 80.973 60.3268
15902.839718 81.349 59.4046
16018.078250 81.672 57.3631
16134.151848 81.893 54.3177
16251.066563 81.967 50.4828
16368.828491 81.862 46.1617
16487.443769 81.561 41.7161
16606.918584 81.062 37.5179
16727.259161 80.382 33.9042
16848.471777 79.547 31.1490
16970.562748 78.591 29.4497
17093.538442 77.556 28.9252
17217.405268 76.484 29.6201
17342.169684 75.416 31.5049
17467.838194 74.397 34.4723
17594.417350 73.466 38.3369
17721.913751 72.658 42.8359
17850.334044 71.998 47.6325
17979.684923 71.499 52.3468
18109.973131 71.151 56.6198
18241.205462 70.927 60.1859
18373.388756 70.789 62.9115
18506.529905 70.697 64.7789
18640.635849 70.614 65.8333
18775.713581 70.509 66.1420
18911.770141 70.354 65.7901
19048.812624 70.125 64.8922
19186.848172 69.799 63.6026
19325.883983 69.364 62.1152
19465.927305 68.826 60.6432
19606.985439 68.214 59.3835
19749.065738 67.593 58.4727
19892.175609 67.069 57.9464
20036.322514 66.763 57.7335
