* Measurement data measured by REW V5.30.5
* Source: EXCL: Microphone (Realtek(R) Audio), MICROPHONE (Master Volume), L, volume: 1.000
* Format: 256k Log Swept Sine, 1 sweep at -12.0 dBFS with no timing reference
* Dated: Feb 12, 2024 1:18:28 AM
* REW Settings:
*  C-weighting compensation: Off
*  Target level: 75.0 dB
* Note: TIMSOK TS-316 R
* Measurement: R TIMSOK TS-316
* Smoothing: 1/12 octave
* Frequency Step: 96 ppo
* Start Frequency: 1.0986328 Hz
*
* Freq(Hz) SPL(dB) Phase(degrees)
1.098633 89.015 -2.9205
1.106594 89.048 -2.9439
1.114613 89.098 -2.9782
1.122690 89.160 -3.0203
1.130825 89.229 -3.0672
1.139020 89.302 -3.1172
1.147273 89.379 -3.1690
1.155587 89.458 -3.2220
1.163961 89.538 -3.2760
1.172395 89.619 -3.3309
1.180891 89.701 -3.3867
1.189448 89.783 -3.4437
1.198068 89.866 -3.5021
1.206749 89.950 -3.5620
1.215494 90.034 -3.6237
1.224302 90.119 -3.6874
1.233174 90.205 -3.7533
1.242110 90.291 -3.8217
1.251111 90.378 -3.8928
1.260177 90.465 -3.9668
1.269308 90.553 -4.0441
1.278506 90.642 -4.1247
1.287771 90.732 -4.2090
1.297103 90.822 -4.2972
1.306502 90.912 -4.3895
1.315969 91.004 -4.4861
1.325505 91.096 -4.5874
1.335111 91.188 -4.6935
1.344785 91.282 -4.8048
1.354530 91.376 -4.9213
1.364346 91.470 -5.0434
1.374232 91.566 -5.1713
1.384191 91.662 -5.3052
1.394221 91.759 -5.4454
1.404324 91.856 -5.5920
1.414500 91.954 -5.7451
1.424751 92.053 -5.9049
1.435075 92.152 -6.0712
1.445474 92.251 -6.2439
1.455948 92.351 -6.4224
1.466499 92.452 -6.6061
1.477126 92.552 -6.7942
1.487830 92.653 -6.9858
1.498611 92.754 -7.1803
1.509471 92.856 -7.3774
1.520409 92.959 -7.5768
1.531427 93.062 -7.7786
1.542524 93.165 -7.9828
1.553702 93.269 -8.1897
1.564960 93.374 -8.3993
1.576301 93.479 -8.6118
1.587723 93.585 -8.8276
1.599229 93.692 -9.0469
1.610817 93.799 -9.2698
1.622490 93.906 -9.4966
1.634247 94.014 -9.7276
1.646089 94.123 -9.9631
1.658018 94.231 -10.2032
1.670032 94.340 -10.4483
1.682134 94.450 -10.6985
1.694323 94.559 -10.9543
1.706601 94.669 -11.2158
1.718968 94.779 -11.4833
1.731424 94.889 -11.7570
1.743971 94.999 -12.0373
1.756608 95.110 -12.3244
1.769338 95.220 -12.6186
1.782159 95.330 -12.9199
1.795073 95.440 -13.2285
1.808081 95.551 -13.5444
1.821183 95.661 -13.8674
1.834380 95.771 -14.1971
1.847673 95.881 -14.5332
1.861062 95.991 -14.8750
1.874548 96.101 -15.2221
1.888132 96.211 -15.5740
1.901814 96.321 -15.9306
1.915595 96.431 -16.2915
1.929476 96.541 -16.6566
1.943458 96.651 -17.0257
1.957541 96.761 -17.3987
1.971726 96.872 -17.7756
1.986014 96.982 -18.1562
2.000406 97.092 -18.5406
2.014902 97.202 -18.9288
2.029502 97.312 -19.3207
2.044209 97.422 -19.7163
2.059022 97.532 -20.1158
2.073943 97.641 -20.5190
2.088971 97.751 -20.9263
2.104109 97.860 -21.3375
2.119356 97.970 -21.7530
2.134714 98.079 -22.1727
2.150183 98.187 -22.5970
2.165764 98.296 -23.0259
2.181458 98.404 -23.4598
2.197266 98.512 -23.8988
2.213188 98.620 -24.3431
2.229226 98.727 -24.7927
2.245379 98.834 -25.2475
2.261650 98.940 -25.7073
2.278039 99.047 -26.1719
2.294547 99.152 -26.6410
2.311174 99.258 -27.1141
2.327922 99.363 -27.5909
2.344791 99.467 -28.0711
2.361782 99.571 -28.5544
2.378897 99.675 -29.0405
2.396135 99.778 -29.5291
2.413498 99.881 -30.0200
2.430988 99.984 -30.5128
2.448604 100.086 -31.0076
2.466347 100.188 -31.5042
2.484219 100.289 -32.0024
2.502221 100.390 -32.5024
2.520353 100.491 -33.0043
2.538617 100.591 -33.5084
2.557013 100.691 -34.0152
2.575542 100.790 -34.5252
2.594205 100.889 -35.0390
2.613004 100.987 -35.5569
2.631939 101.085 -36.0789
2.651011 101.181 -36.6049
2.670221 101.277 -37.1345
2.689571 101.373 -37.6673
2.709061 101.468 -38.2028
2.728692 101.562 -38.7405
2.748465 101.655 -39.2798
2.768381 101.748 -39.8202
2.788442 101.841 -40.3612
2.808648 101.933 -40.9024
2.829001 102.024 -41.4434
2.849501 102.115 -41.9839
2.870150 102.206 -42.5239
2.890948 102.296 -43.0633
2.911897 102.385 -43.6026
2.932998 102.474 -44.1422
2.954252 102.562 -44.6829
2.975659 102.650 -45.2254
2.997222 102.737 -45.7699
3.018941 102.823 -46.3165
3.040818 102.908 -46.8651
3.062853 102.993 -47.4152
3.085048 103.076 -47.9664
3.107403 103.160 -48.5181
3.129921 103.242 -49.0697
3.152601 103.324 -49.6206
3.175447 103.406 -50.1703
3.198457 103.487 -50.7183
3.221634 103.567 -51.2642
3.244980 103.647 -51.8078
3.268494 103.727 -52.3493
3.292179 103.806 -52.8888
3.316035 103.885 -53.4270
3.340065 103.962 -53.9644
3.364268 104.040 -54.5016
3.388647 104.116 -55.0386
3.413202 104.192 -55.5755
3.437936 104.267 -56.1120
3.462848 104.342 -56.6478
3.487942 104.416 -57.1825
3.513217 104.490 -57.7157
3.538675 104.563 -58.2468
3.564318 104.636 -58.7755
3.590146 104.709 -59.3014
3.616162 104.781 -59.8244
3.642366 104.853 -60.3445
3.668760 104.924 -60.8618
3.695346 104.995 -61.3767
3.722124 105.066 -61.8896
3.749096 105.136 -62.4007
3.776263 105.206 -62.9103
3.803627 105.276 -63.4182
3.831190 105.345 -63.9245
3.858953 105.413 -64.4289
3.886916 105.482 -64.9313
3.915082 105.550 -65.4313
3.943453 105.618 -65.9290
3.972029 105.685 -66.4240
4.000812 105.753 -66.9164
4.029803 105.820 -67.4062
4.059005 105.888 -67.8935
4.088418 105.955 -68.3785
4.118044 106.022 -68.8615
4.147885 106.088 -69.3425
4.177943 106.155 -69.8217
4.208218 106.221 -70.2991
4.238712 106.287 -70.7748
4.269428 106.353 -71.2488
4.300366 106.419 -71.7210
4.331528 106.484 -72.1916
4.362916 106.550 -72.6604
4.394531 106.616 -73.1276
4.426376 106.681 -73.5933
4.458451 106.746 -74.0575
4.490759 106.812 -74.5203
4.523301 106.877 -74.9819
4.556078 106.942 -75.4423
4.589094 107.007 -75.9014
4.622348 107.071 -76.3595
4.655844 107.136 -76.8166
4.689582 107.201 -77.2727
4.723565 107.265 -77.7278
4.757793 107.330 -78.1822
4.792270 107.394 -78.6358
4.826997 107.458 -79.0887
4.861975 107.522 -79.5410
4.897207 107.586 -79.9926
4.932694 107.649 -80.4436
4.968439 107.713 -80.8940
5.004442 107.776 -81.3438
5.040707 107.839 -81.7928
5.077234 107.902 -82.2412
5.114026 107.965 -82.6891
5.151084 108.028 -83.1364
5.188411 108.090 -83.5833
5.226008 108.153 -84.0298
5.263878 108.215 -84.4759
5.302022 108.277 -84.9216
5.340443 108.338 -85.3668
5.379142 108.400 -85.8115
5.418121 108.461 -86.2556
5.457383 108.522 -86.6991
5.496930 108.583 -87.1420
5.536763 108.643 -87.5844
5.576884 108.704 -88.0263
5.617297 108.764 -88.4679
5.658002 108.824 -88.9091
5.699002 108.884 -89.3501
5.740300 108.943 -89.7906
5.781896 109.003 -90.2309
5.823794 109.062 -90.6708
5.865995 109.121 -91.1104
5.908503 109.180 -91.5499
5.951319 109.238 -91.9892
5.994444 109.297 -92.4285
6.037883 109.355 -92.8678
6.081636 109.413 -93.3073
6.125706 109.471 -93.7470
6.170095 109.529 -94.1870
6.214807 109.586 -94.6275
6.259841 109.643 -95.0685
6.305203 109.700 -95.5100
6.350893 109.757 -95.9522
6.396914 109.813 -96.3950
6.443269 109.869 -96.8386
6.489959 109.925 -97.2830
6.536988 109.980 -97.7282
6.584358 110.035 -98.1744
6.632071 110.090 -98.6216
6.680129 110.144 -99.0699
6.728536 110.197 -99.5192
6.777294 110.251 -99.9693
6.826405 110.303 -100.4203
6.875872 110.356 -100.8719
6.925697 110.407 -101.3240
6.975883 110.458 -101.7767
7.026433 110.509 -102.2300
7.077350 110.559 -102.6836
7.128635 110.608 -103.1375
7.180293 110.656 -103.5913
7.232324 110.704 -104.0446
7.284732 110.751 -104.4972
7.337521 110.797 -104.9489
7.390691 110.843 -105.3996
7.444247 110.888 -105.8492
7.498191 110.932 -106.2975
7.552526 110.976 -106.7441
7.607255 111.019 -107.1887
7.662380 111.061 -107.6310
7.717905 111.103 -108.0709
7.773832 111.144 -108.5082
7.830165 111.185 -108.9430
7.886906 111.225 -109.3751
7.944057 111.265 -109.8046
8.001623 111.305 -110.2313
8.059607 111.344 -110.6551
8.118010 111.383 -111.0762
8.176836 111.421 -111.4946
8.236089 111.460 -111.9105
8.295771 111.498 -112.3243
8.355886 111.536 -112.7361
8.416435 111.575 -113.1461
8.477425 111.613 -113.5547
8.538856 111.651 -113.9621
8.600732 111.689 -114.3685
8.663056 111.727 -114.7745
8.725832 111.765 -115.1802
8.789062 111.803 -115.5862
8.852752 111.841 -115.9927
8.916903 111.878 -116.3998
8.981518 111.916 -116.8078
9.046601 111.953 -117.2169
9.112157 111.990 -117.6273
9.178187 112.027 -118.0391
9.244697 112.064 -118.4524
9.311687 112.100 -118.8672
9.379164 112.136 -119.2833
9.447129 112.171 -119.7006
9.515587 112.206 -120.1190
9.584540 112.241 -120.5385
9.653994 112.274 -120.9587
9.723950 112.308 -121.3794
9.794415 112.340 -121.8005
9.865389 112.372 -122.2216
9.936877 112.404 -122.6426
10.008884 112.435 -123.0632
10.081413 112.465 -123.4834
10.154468 112.495 -123.9031
10.228051 112.525 -124.3221
10.302168 112.554 -124.7404
10.376822 112.582 -125.1580
10.452016 112.610 -125.5750
10.527756 112.638 -125.9915
10.604044 112.665 -126.4076
10.680885 112.692 -126.8234
10.758284 112.719 -127.2389
10.836243 112.745 -127.6543
10.914766 112.771 -128.0694
10.993859 112.796 -128.4843
11.073525 112.820 -128.8988
11.153769 112.844 -129.3127
11.234593 112.867 -129.7256
11.316004 112.889 -130.1369
11.398005 112.911 -130.5461
11.480599 112.932 -130.9526
11.563792 112.952 -131.3556
11.647588 112.971 -131.7542
11.731991 112.990 -132.1475
11.817006 113.008 -132.5349
11.902637 113.025 -132.9155
11.988889 113.042 -133.2888
12.075766 113.060 -133.6542
12.163272 113.077 -134.0117
12.251412 113.095 -134.3613
12.340191 113.114 -134.7034
12.429613 113.133 -135.0390
12.519683 113.154 -135.3691
12.610406 113.176 -135.6951
12.701786 113.199 -136.0189
12.793828 113.225 -136.3427
12.886538 113.251 -136.6688
12.979918 113.280 -136.9995
13.073977 113.310 -137.3370
13.168715 113.341 -137.6839
13.264141 113.374 -138.0419
13.360258 113.406 -138.4128
13.457072 113.440 -138.7973
13.554587 113.472 -139.1962
13.652809 113.504 -139.6092
13.751743 113.535 -140.0356
13.851394 113.564 -140.4736
13.951767 113.591 -140.9211
14.052867 113.615 -141.3756
14.154700 113.636 -141.8336
14.257271 113.655 -142.2917
14.360585 113.671 -142.7462
14.464648 113.684 -143.1934
14.569465 113.695 -143.6300
14.675041 113.704 -144.0530
14.781383 113.711 -144.4600
14.888494 113.718 -144.8496
14.996383 113.724 -145.2213
15.105053 113.731 -145.5753
15.214510 113.740 -145.9134
15.324760 113.750 -146.2380
15.435810 113.762 -146.5526
15.547665 113.777 -146.8611
15.660330 113.795 -147.1680
15.773811 113.815 -147.4781
15.888115 113.837 -147.7957
16.003246 113.862 -148.1245
16.119213 113.887 -148.4677
16.236019 113.913 -148.8274
16.353672 113.940 -149.2042
16.472178 113.965 -149.5978
16.591541 113.988 -150.0067
16.711771 114.010 -150.4281
16.832870 114.029 -150.8585
16.954849 114.044 -151.2938
17.077711 114.057 -151.7294
17.201464 114.067 -152.1608
17.326113 114.074 -152.5840
17.451664 114.078 -152.9952
17.578125 114.081 -153.3918
17.705503 114.083 -153.7722
17.833805 114.084 -154.1358
17.963036 114.086 -154.4832
18.093203 114.088 -154.8161
18.224314 114.092 -155.1371
18.356375 114.097 -155.4494
18.489393 114.104 -155.7566
18.623375 114.112 -156.0622
18.758327 114.123 -156.3696
18.894258 114.134 -156.6817
19.031174 114.146 -157.0007
19.169081 114.159 -157.3278
19.307987 114.172 -157.6637
19.447901 114.184 -158.0082
19.588829 114.196 -158.3605
19.730778 114.207 -158.7193
19.873755 114.216 -159.0830
20.017769 114.224 -159.4497
20.162827 114.230 -159.8177
20.308935 114.235 -160.1854
20.456102 114.239 -160.5511
20.604336 114.241 -160.9135
20.753643 114.242 -161.2717
20.904032 114.243 -161.6249
21.055511 114.242 -161.9724
21.208088 114.241 -162.3141
21.361771 114.240 -162.6500
21.516567 114.238 -162.9802
21.672485 114.237 -163.3054
21.829533 114.236 -163.6264
21.987719 114.235 -163.9442
22.147051 114.234 -164.2600
22.307537 114.234 -164.5751
22.469187 114.234 -164.8906
22.632008 114.234 -165.2076
22.796009 114.235 -165.5267
22.961199 114.236 -165.8483
23.127584 114.236 -166.1723
23.295176 114.236 -166.4983
23.463982 114.236 -166.8257
23.634012 114.236 -167.1539
23.805275 114.235 -167.4823
23.977777 114.234 -167.8105
24.151531 114.233 -168.1387
24.326544 114.232 -168.4673
24.502825 114.232 -168.7966
24.680382 114.231 -169.1272
24.859226 114.230 -169.4593
25.039366 114.228 -169.7928
25.220812 114.226 -170.1267
25.403572 114.224 -170.4599
25.587656 114.221 -170.7907
25.773075 114.217 -171.1176
25.959837 114.214 -171.4395
26.147953 114.210 -171.7563
26.337431 114.208 -172.0695
26.528282 114.206 -172.3814
26.720516 114.205 -172.6956
26.914145 114.206 -173.0161
27.109175 114.206 -173.3464
27.305618 114.206 -173.6884
27.503487 114.205 -174.0421
27.702787 114.201 -174.4046
27.903534 114.194 -174.7705
28.105734 114.183 -175.1325
28.309401 114.169 -175.4824
28.514542 114.152 -175.8128
28.721170 114.133 -176.1183
28.929296 114.113 -176.3968
29.138929 114.095 -176.6500
29.350082 114.079 -176.8833
29.562765 114.067 -177.1050
29.776989 114.057 -177.3242
29.992765 114.051 -177.5494
30.210106 114.047 -177.7869
30.429020 114.043 -178.0399
30.649521 114.039 -178.3081
30.871620 114.034 -178.5888
31.095329 114.028 -178.8781
31.320660 114.021 -179.1717
31.547623 114.012 -179.4669
31.776230 114.003 -179.7620
32.006493 113.993 179.9427
32.238426 113.983 179.6465
32.472038 113.973 179.3484
32.707344 113.963 179.0480
32.944355 113.952 178.7459
33.183083 113.941 178.4432
33.423542 113.930 178.1408
33.665741 113.919 177.8392
33.909698 113.908 177.5377
34.155422 113.897 177.2349
34.402927 113.886 176.9295
34.652225 113.875 176.6211
34.903328 113.864 176.3112
35.156250 113.850 176.0034
35.411007 113.835 175.7028
35.667610 113.819 175.4148
35.926071 113.802 175.1435
36.186405 113.785 174.8906
36.448627 113.769 174.6547
36.712749 113.755 174.4317
36.978786 113.742 174.2166
37.246750 113.731 174.0045
37.516655 113.720 173.7925
37.788517 113.710 173.5803
38.062347 113.699 173.3691
38.338161 113.688 173.1608
38.615974 113.678 172.9556
38.895802 113.668 172.7510
39.177658 113.660 172.5411
39.461555 113.652 172.3179
39.747509 113.645 172.0729
40.035538 113.638 171.8001
40.325653 113.627 171.4981
40.617870 113.613 171.1709
40.912205 113.592 170.8278
41.208672 113.566 170.4816
41.507286 113.534 170.1454
41.808064 113.498 169.8300
42.111023 113.460 169.5410
42.416176 113.422 169.2777
42.723541 113.387 169.0342
43.033134 113.354 168.8010
43.344971 113.324 168.5684
43.659065 113.297 168.3291
43.975437 113.272 168.0800
44.294102 113.248 167.8221
44.615074 113.224 167.5591
44.938374 113.200 167.2953
45.264015 113.177 167.0341
45.592018 113.154 166.7766
45.922398 113.132 166.5221
46.255169 113.111 166.2695
46.590351 113.090 166.0175
46.927963 113.069 165.7660
47.268024 113.048 165.5156
47.610550 113.027 165.2670
47.955555 113.005 165.0204
48.303062 112.983 164.7750
48.653088 112.960 164.5295
49.005650 112.935 164.2834
49.360764 112.910 164.0374
49.718452 112.882 163.7939
50.078732 112.853 163.5562
50.441624 112.822 163.3273
50.807144 112.791 163.1085
51.175312 112.761 162.8981
51.546150 112.731 162.6924
51.919674 112.702 162.4871
52.295906 112.674 162.2797
52.674862 112.645 162.0699
53.056564 112.617 161.8600
53.441032 112.589 161.6530
53.828289 112.560 161.4511
54.218349 112.532 161.2550
54.611237 112.504 161.0639
55.006973 112.477 160.8765
55.405575 112.450 160.6910
55.807068 112.423 160.5057
56.211468 112.397 160.3182
56.618801 112.371 160.1259
57.029083 112.345 159.9274
57.442341 112.317 159.7226
57.858593 112.289 159.5127
58.277859 112.260 159.2993
58.700165 112.230 159.0827
59.125530 112.199 158.8622
59.553978 112.169 158.6360
59.985531 112.138 158.4037
60.420212 112.107 158.1663
60.858040 112.075 157.9270
61.299042 112.042 157.6906
61.743240 112.008 157.4629
62.190659 111.974 157.2487
62.641319 111.939 157.0504
63.095245 111.906 156.8671
63.552460 111.872 156.6959
64.012985 111.838 156.5346
64.476852 111.804 156.3838
64.944077 111.768 156.2458
65.414688 111.731 156.1217
65.888710 111.694 156.0084
66.366165 111.657 155.8984
66.847084 111.620 155.7828
67.331482 111.582 155.6552
67.819397 111.542 155.5134
68.310844 111.499 155.3592
68.805855 111.455 155.1969
69.304451 111.407 155.0324
69.806656 111.359 154.8724
70.312500 111.309 154.7225
70.822014 111.260 154.5860
71.335220 111.212 154.4632
71.852142 111.165 154.3544
72.372810 111.118 154.2634
72.897255 111.070 154.1996
73.425499 111.022 154.1756
73.957573 110.975 154.2007
74.493500 110.931 154.2762
75.033310 110.892 154.3949
75.577034 110.859 154.5427
76.124695 110.832 154.7017
76.676323 110.813 154.8517
77.231949 110.801 154.9723
77.791603 110.795 155.0465
78.355316 110.795 155.0635
78.923111 110.799 155.0156
79.495018 110.808 154.8930
80.071075 110.820 154.6857
80.651306 110.832 154.3904
81.235741 110.842 154.0172
81.824409 110.846 153.5867
82.417343 110.843 153.1238
83.014572 110.831 152.6549
83.616127 110.808 152.2098
84.222046 110.773 151.8235
84.832352 110.728 151.5318
85.447083 110.679 151.3579
86.066269 110.630 151.2942
86.689941 110.588 151.2951
87.318130 110.551 151.2990
87.950874 110.517 151.2648
88.588203 110.480 151.1851
89.230148 110.439 151.0681
89.876747 110.396 150.9179
90.528030 110.351 150.7366
91.184036 110.305 150.5325
91.844795 110.259 150.3178
92.510338 110.213 150.1042
93.180702 110.167 149.9056
93.855927 110.119 149.7390
94.536049 110.070 149.6189
95.221100 110.018 149.5505
95.911110 109.963 149.5286
96.606125 109.906 149.5397
97.306175 109.846 149.5668
98.011299 109.782 149.5954
98.721527 109.717 149.6172
99.436905 109.651 149.6305
100.157463 109.588 149.6379
100.883247 109.530 149.6447
101.614288 109.479 149.6593
102.350624 109.435 149.6948
103.092300 109.397 149.7646
103.839348 109.365 149.8732
104.591812 109.339 150.0101
105.349724 109.316 150.1525
106.113129 109.297 150.2707
106.882065 109.282 150.3326
107.656578 109.272 150.3130
108.436699 109.270 150.2028
109.222473 109.278 150.0108
110.013947 109.293 149.7703
110.811150 109.312 149.5502
111.614136 109.328 149.4410
112.422935 109.336 149.5167
113.237602 109.328 149.8182
114.058167 109.292 150.3648
114.884682 109.222 151.1576
115.717186 109.115 152.1854
116.555717 108.974 153.4467
117.400330 108.816 154.9493
118.251060 108.671 156.6367
119.107956 108.574 158.2180
119.971062 108.539 159.1378
120.840424 108.535 158.9890
121.716080 108.525 157.9009
122.598083 108.501 156.3380
123.486481 108.481 154.7068
124.381317 108.475 153.2231
125.282639 108.479 151.9564
126.190491 108.476 150.8969
127.104919 108.447 150.0117
128.025970 108.383 149.2840
128.953705 108.289 148.7126
129.888153 108.188 148.2669
130.829376 108.104 147.8708
131.777420 108.051 147.4503
132.732330 108.030 146.9926
133.694168 108.035 146.5597
134.662964 108.056 146.2305
135.638794 108.083 146.0493
136.621689 108.108 146.0215
137.611710 108.121 146.1186
138.608902 108.119 146.3000
139.613312 108.100 146.5366
140.625000 108.066 146.8109
141.644028 108.024 147.1012
142.670441 107.981 147.3704
143.704285 107.939 147.5798
144.745621 107.897 147.7098
145.794510 107.854 147.7612
146.850998 107.809 147.7509
147.915146 107.761 147.7032
148.987000 107.714 147.6366
150.066620 107.670 147.5588
151.154068 107.627 147.4694
152.249390 107.584 147.3738
153.352646 107.537 147.2926
154.463898 107.487 147.2469
155.583206 107.435 147.2416
156.710632 107.384 147.2672
157.846222 107.334 147.3091
158.990036 107.288 147.3548
160.142151 107.244 147.3978
161.302612 107.201 147.4377
162.471481 107.159 147.4765
163.648819 107.115 147.5137
164.834686 107.071 147.5478
166.029144 107.025 147.5782
167.232254 106.976 147.6060
168.444092 106.927 147.6321
169.664703 106.877 147.6562
170.894165 106.829 147.6792
172.132538 106.782 147.7039
173.379883 106.739 147.7344
174.636261 106.700 147.7765
175.901749 106.665 147.8350
177.176407 106.633 147.9104
178.460297 106.602 147.9963
179.753494 106.572 148.0841
181.056061 106.538 148.1685
182.368073 106.503 148.2479
183.689590 106.464 148.3213
185.020676 106.424 148.3892
186.361404 106.383 148.4534
187.711853 106.342 148.5159
189.072098 106.300 148.5782
190.442200 106.257 148.6414
191.822220 106.215 148.7067
193.212250 106.173 148.7755
194.612350 106.131 148.8493
196.022598 106.089 148.9298
197.443054 106.047 149.0176
198.873810 106.004 149.1124
200.314926 105.961 149.2139
201.766495 105.919 149.3235
203.228577 105.878 149.4427
204.701248 105.838 149.5710
206.184601 105.799 149.7039
207.678696 105.761 149.8353
209.183624 105.723 149.9584
210.699448 105.685 150.0677
212.226257 105.647 150.1609
213.764130 105.608 150.2430
215.313156 105.567 150.3265
216.873398 105.526 150.4241
218.444946 105.485 150.5417
220.027893 105.445 150.6767
221.622299 105.406 150.8209
223.228271 105.369 150.9664
224.845871 105.333 151.1085
226.475204 105.298 151.2459
228.116333 105.262 151.3803
229.769363 105.228 151.5134
231.434372 105.193 151.6460
233.111435 105.159 151.7778
234.800659 105.126 151.9078
236.502121 105.094 152.0346
238.215912 105.061 152.1564
239.942123 105.028 152.2729
241.680847 104.993 152.3864
243.432159 104.957 152.5014
245.196167 104.919 152.6241
246.972961 104.880 152.7592
248.762634 104.840 152.9099
250.565277 104.800 153.0788
252.380981 104.762 153.2671
254.209839 104.726 153.4722
256.051941 104.693 153.6871
257.907410 104.663 153.9014
259.776306 104.635 154.1058
261.658752 104.608 154.2953
263.554840 104.580 154.4690
265.464661 104.551 154.6292
267.388336 104.521 154.7801
269.325928 104.489 154.9270
271.277588 104.457 155.0772
273.243378 104.424 155.2372
275.223419 104.393 155.4095
277.217804 104.362 155.5923
279.226624 104.334 155.7831
281.250000 104.307 155.9793
283.288055 104.282 156.1780
285.340881 104.260 156.3735
287.408569 104.239 156.5572
289.491241 104.218 156.7206
291.589020 104.197 156.8606
293.701996 104.173 156.9825
295.830292 104.147 157.0975
297.973999 104.118 157.2166
300.133240 104.087 157.3463
302.308136 104.055 157.4880
304.498779 104.023 157.6406
306.705292 103.991 157.8010
308.927795 103.960 157.9664
311.166412 103.929 158.1336
313.421265 103.898 158.3007
315.692444 103.866 158.4688
317.980072 103.835 158.6416
320.284302 103.803 158.8236
322.605225 103.771 159.0167
324.942963 103.741 159.2200
327.297638 103.711 159.4315
329.669373 103.683 159.6481
332.058289 103.655 159.8659
334.464508 103.628 160.0823
336.888184 103.602 160.2960
339.329407 103.576 160.5065
341.788330 103.550 160.7141
344.265076 103.523 160.9194
346.759766 103.497 161.1236
349.272522 103.471 161.3273
351.803497 103.445 161.5309
354.352814 103.419 161.7360
356.920593 103.394 161.9447
359.506989 103.369 162.1597
362.112122 103.343 162.3819
364.736145 103.318 162.6105
367.379181 103.292 162.8436
370.041351 103.266 163.0798
372.722809 103.241 163.3179
375.423706 103.216 163.5563
378.144196 103.192 163.7940
380.884399 103.168 164.0310
383.644440 103.144 164.2679
386.424500 103.121 164.5058
389.224701 103.099 164.7456
392.045197 103.077 164.9886
394.886108 103.055 165.2349
397.747620 103.034 165.4838
400.629852 103.013 165.7338
403.532990 102.994 165.9832
406.457153 102.974 166.2306
409.402496 102.955 166.4763
412.369202 102.935 166.7224
415.357391 102.915 166.9720
418.367249 102.895 167.2281
421.398895 102.874 167.4926
424.452515 102.855 167.7657
427.528259 102.836 168.0462
430.626312 102.819 168.3303
433.746796 102.804 168.6130
436.889893 102.791 168.8905
440.055786 102.779 169.1614
443.244598 102.768 169.4258
446.456543 102.759 169.6825
449.691742 102.751 169.9275
452.950409 102.743 170.1558
456.232666 102.734 170.3655
459.538727 102.722 170.5619
462.868744 102.707 170.7564
466.222870 102.689 170.9601
469.601318 102.670 171.1791
473.004242 102.650 171.4138
476.431824 102.630 171.6608
479.884247 102.612 171.9139
483.361694 102.594 172.1678
486.864319 102.576 172.4218
490.392334 102.558 172.6813
493.945923 102.538 172.9534
497.525269 102.519 173.2402
501.130554 102.502 173.5365
504.761963 102.486 173.8340
508.419678 102.471 174.1265
512.103882 102.457 174.4117
515.814819 102.443 174.6918
519.552612 102.428 174.9711
523.317505 102.413 175.2549
527.109680 102.398 175.5482
530.929321 102.383 175.8535
534.776672 102.369 176.1685
538.651855 102.357 176.4884
542.555176 102.345 176.8098
546.486755 102.334 177.1321
550.446838 102.324 177.4555
554.435608 102.315 177.7780
558.453247 102.307 178.0967
562.500000 102.300 178.4102
566.576111 102.292 178.7201
570.681763 102.284 179.0303
574.817139 102.275 179.3444
578.982483 102.266 179.6633
583.178040 102.257 179.9856
587.403992 102.248 -179.6893
591.660583 102.240 -179.3584
595.947998 102.231 -179.0189
600.266479 102.224 -178.6713
604.616272 102.217 -178.3201
608.997559 102.212 -177.9693
613.410583 102.206 -177.6197
617.855591 102.201 -177.2683
622.332825 102.195 -176.9090
626.842529 102.189 -176.5359
631.384888 102.185 -176.1480
635.960144 102.183 -175.7500
640.568604 102.183 -175.3478
645.210449 102.185 -174.9431
649.885925 102.189 -174.5355
654.595276 102.197 -174.1275
659.338745 102.208 -173.7266
664.116577 102.221 -173.3429
668.929016 102.235 -172.9834
673.776367 102.249 -172.6461
678.658813 102.260 -172.3225
683.576660 102.269 -172.0031
688.530151 102.277 -171.6808
693.519531 102.283 -171.3504
698.545044 102.288 -171.0081
703.606995 102.293 -170.6531
708.705627 102.298 -170.2881
713.841187 102.305 -169.9177
719.013977 102.313 -169.5452
724.224243 102.322 -169.1715
729.472290 102.332 -168.7956
734.758362 102.342 -168.4163
740.082703 102.353 -168.0325
745.445618 102.364 -167.6437
750.847412 102.377 -167.2493
756.288391 102.391 -166.8495
761.768799 102.406 -166.4448
767.288879 102.422 -166.0361
772.848999 102.439 -165.6247
778.449402 102.457 -165.2114
784.090393 102.477 -164.7961
789.772217 102.497 -164.3765
795.495239 102.519 -163.9492
801.259705 102.543 -163.5124
807.065979 102.569 -163.0685
812.914307 102.600 -162.6240
818.804993 102.634 -162.1883
824.738403 102.672 -161.7710
830.714783 102.711 -161.3804
836.734497 102.750 -161.0176
842.797791 102.788 -160.6747
848.905029 102.823 -160.3407
855.056519 102.858 -160.0079
861.252625 102.891 -159.6722
867.493591 102.924 -159.3305
873.779785 102.957 -158.9799
880.111572 102.990 -158.6214
886.489197 103.025 -158.2595
892.913086 103.062 -157.8979
899.383484 103.099 -157.5365
905.900818 103.137 -157.1727
912.465332 103.177 -156.8053
919.077454 103.219 -156.4365
925.737488 103.262 -156.0692
932.445740 103.307 -155.7070
939.202637 103.354 -155.3536
946.008484 103.401 -155.0107
952.863647 103.448 -154.6771
959.768494 103.496 -154.3502
966.723389 103.543 -154.0270
973.728638 103.591 -153.7047
980.784668 103.639 -153.3820
987.891846 103.687 -153.0583
995.050537 103.735 -152.7310
1002.261108 103.784 -152.3947
1009.523926 103.834 -152.0452
1016.839355 103.887 -151.6835
1024.207764 103.944 -151.3145
1031.629639 104.005 -150.9462
1039.105225 104.072 -150.5902
1046.635010 104.142 -150.2582
1054.219360 104.215 -149.9552
1061.858643 104.289 -149.6804
1069.553345 104.364 -149.4312
1077.303711 104.439 -149.2059
1085.110352 104.514 -149.0038
1092.973511 104.587 -148.8241
1100.893677 104.659 -148.6635
1108.871216 104.729 -148.5169
1116.906494 104.797 -148.3786
1125.000000 104.863 -148.2443
1133.152222 104.929 -148.1113
1141.363525 104.994 -147.9785
1149.634277 105.058 -147.8461
1157.964966 105.123 -147.7144
1166.356079 105.188 -147.5827
1174.807983 105.253 -147.4493
1183.321167 105.320 -147.3152
1191.895996 105.390 -147.1869
1200.532959 105.461 -147.0754
1209.232544 105.534 -146.9914
1217.995117 105.606 -146.9383
1226.821167 105.676 -146.9110
1235.711182 105.743 -146.9005
1244.665649 105.807 -146.8978
1253.685059 105.867 -146.8956
1262.769775 105.926 -146.8904
1271.920288 105.983 -146.8812
1281.137207 106.038 -146.8667
1290.420898 106.093 -146.8460
1299.771851 106.147 -146.8205
1309.190552 106.202 -146.7935
1318.677490 106.256 -146.7685
1328.233154 106.310 -146.7471
1337.858032 106.364 -146.7280
1347.552734 106.416 -146.7074
1357.317627 106.467 -146.6813
1367.153320 106.517 -146.6457
1377.060303 106.566 -146.5963
1387.039062 106.616 -146.5292
1397.090088 106.668 -146.4449
1407.213989 106.723 -146.3506
1417.411255 106.782 -146.2593
1427.682373 106.845 -146.1853
1438.027954 106.910 -146.1364
1448.448486 106.975 -146.1113
1458.944580 107.039 -146.1037
1469.516724 107.102 -146.1072
1480.165405 107.164 -146.1179
1490.891235 107.225 -146.1327
1501.694824 107.284 -146.1489
1512.576782 107.342 -146.1638
1523.537598 107.400 -146.1751
1534.577759 107.458 -146.1807
1545.697998 107.516 -146.1783
1556.898804 107.577 -146.1673
1568.180786 107.641 -146.1524
1579.544434 107.708 -146.1456
1590.990479 107.778 -146.1612
1602.519409 107.850 -146.2078
1614.131958 107.921 -146.2854
1625.828613 107.990 -146.3880
1637.609985 108.058 -146.5081
1649.476807 108.123 -146.6396
1661.429565 108.185 -146.7774
1673.468994 108.247 -146.9183
1685.595581 108.307 -147.0620
1697.810059 108.366 -147.2105
1710.113037 108.424 -147.3662
1722.505249 108.480 -147.5285
1734.987183 108.534 -147.6937
1747.559570 108.586 -147.8557
1760.223145 108.637 -148.0078
1772.978394 108.687 -148.1450
1785.826172 108.740 -148.2695
1798.766968 108.794 -148.3917
1811.801636 108.852 -148.5261
1824.930664 108.911 -148.6825
1838.154907 108.970 -148.8632
1851.474976 109.027 -149.0659
1864.891479 109.083 -149.2858
1878.405273 109.135 -149.5171
1892.016968 109.185 -149.7536
1905.727295 109.232 -149.9887
1919.536987 109.277 -150.2163
1933.446777 109.321 -150.4319
1947.457275 109.366 -150.6358
1961.569336 109.413 -150.8359
1975.783691 109.461 -151.0438
1990.101074 109.510 -151.2676
2004.522217 109.558 -151.5087
2019.047852 109.606 -151.7643
2033.678711 109.651 -152.0307
2048.415527 109.695 -152.3048
2063.259277 109.737 -152.5861
2078.210449 109.778 -152.8773
2093.270020 109.817 -153.1816
2108.438721 109.854 -153.4989
2123.717285 109.888 -153.8239
2139.106689 109.917 -154.1463
2154.607422 109.942 -154.4541
2170.220703 109.966 -154.7405
2185.947021 109.989 -155.0078
2201.787354 110.014 -155.2635
2217.742432 110.039 -155.5150
2233.812988 110.066 -155.7671
2250.000000 110.093 -156.0243
2266.304443 110.122 -156.2901
2282.727051 110.151 -156.5671
2299.268555 110.179 -156.8565
2315.929932 110.208 -157.1588
2332.712158 110.236 -157.4767
2349.615967 110.263 -157.8171
2366.642334 110.288 -158.1863
2383.791992 110.309 -158.5850
2401.065918 110.324 -159.0062
2418.465088 110.332 -159.4383
2435.990234 110.332 -159.8678
2453.642334 110.325 -160.2832
2471.422363 110.311 -160.6753
2489.331299 110.291 -161.0357
2507.370117 110.266 -161.3544
2525.539551 110.236 -161.6192
2543.840576 110.204 -161.8203
2562.274414 110.174 -161.9571
2580.841797 110.147 -162.0397
2599.543701 110.127 -162.0834
2618.381104 110.114 -162.1043
2637.354980 110.107 -162.1161
2656.466309 110.105 -162.1290
2675.716064 110.109 -162.1492
2695.105469 110.118 -162.1805
2714.635254 110.130 -162.2277
2734.306641 110.147 -162.3007
2754.120605 110.167 -162.4114
2774.078125 110.188 -162.5674
2794.180176 110.208 -162.7696
2814.427979 110.223 -163.0128
2834.822510 110.234 -163.2883
2855.364746 110.237 -163.5866
2876.055908 110.234 -163.8963
2896.896973 110.222 -164.2024
2917.889160 110.203 -164.4875
2939.033447 110.178 -164.7378
2960.330811 110.149 -164.9485
2981.782471 110.118 -165.1227
3003.389648 110.087 -165.2659
3025.153564 110.054 -165.3821
3047.075195 110.021 -165.4708
3069.155518 109.988 -165.5280
3091.395996 109.955 -165.5493
3113.797607 109.924 -165.5369
3136.361572 109.898 -165.5015
3159.088867 109.875 -165.4582
3181.980957 109.856 -165.4209
3205.038818 109.839 -165.3989
3228.263916 109.822 -165.3964
3251.657227 109.802 -165.4112
3275.219971 109.778 -165.4327
3298.953613 109.746 -165.4409
3322.859131 109.709 -165.4119
3346.937988 109.668 -165.3276
3371.191162 109.625 -165.1794
3395.620117 109.584 -164.9674
3420.226074 109.547 -164.6961
3445.010498 109.515 -164.3711
3469.974365 109.489 -163.9970
3495.119141 109.472 -163.5814
3520.446289 109.466 -163.1384
3545.956787 109.470 -162.6871
3571.652344 109.484 -162.2461
3597.533936 109.507 -161.8302
3623.603271 109.537 -161.4496
3649.861328 109.572 -161.1089
3676.309814 109.609 -160.8041
3702.949951 109.647 -160.5244
3729.782959 109.685 -160.2590
3756.810547 109.725 -160.0029
3784.033936 109.767 -159.7559
3811.454590 109.810 -159.5181
3839.073975 109.854 -159.2854
3866.893555 109.899 -159.0496
3894.914551 109.948 -158.8052
3923.138672 110.001 -158.5549
3951.567383 110.061 -158.3085
3980.202148 110.127 -158.0792
4009.044434 110.199 -157.8810
4038.095703 110.275 -157.7242
4067.357422 110.354 -157.6107
4096.831055 110.434 -157.5342
4126.518555 110.515 -157.4881
4156.420898 110.597 -157.4700
4186.540039 110.680 -157.4810
4216.877441 110.763 -157.5205
4247.434570 110.847 -157.5833
4278.213379 110.932 -157.6638
4309.214844 111.019 -157.7620
4340.441406 111.111 -157.8855
4371.894043 111.206 -158.0472
4403.574707 111.305 -158.2624
4435.484863 111.406 -158.5432
4467.625977 111.507 -158.8929
4500.000000 111.605 -159.3076
4532.608887 111.700 -159.7825
4565.454102 111.791 -160.3146
4598.537109 111.876 -160.9003
4631.859863 111.954 -161.5311
4665.424316 112.027 -162.1966
4699.231934 112.094 -162.8910
4733.284668 112.158 -163.6166
4767.583984 112.218 -164.3834
4802.131836 112.275 -165.2049
4836.930176 112.325 -166.0914
4871.980469 112.367 -167.0439
4907.284668 112.396 -168.0560
4942.844727 112.413 -169.1194
4978.662598 112.413 -170.2237
5014.740234 112.396 -171.3530
5051.079102 112.361 -172.4848
5087.681152 112.307 -173.5954
5124.548828 112.236 -174.6650
5161.683594 112.150 -175.6815
5199.087402 112.052 -176.6408
5236.762207 111.942 -177.5416
5274.709961 111.822 -178.3812
5312.932617 111.693 -179.1571
5351.432129 111.554 -179.8683
5390.210938 111.406 179.4865
5429.270508 111.249 178.9149
5468.613281 111.083 178.4301
5508.241211 110.908 178.0475
5548.156250 110.728 177.7792
5588.360352 110.544 177.6317
5628.855957 110.360 177.6078
5669.645020 110.177 177.7099
5710.729492 110.001 177.9362
5752.111816 109.833 178.2744
5793.793945 109.678 178.6996
5835.778320 109.538 179.1787
5878.066895 109.410 179.6791
5920.661621 109.291 -179.8187
5963.564941 109.178 -179.3155
6006.779297 109.067 -178.7983
6050.307129 108.958 -178.2484
6094.150391 108.851 -177.6506
6138.311035 108.749 -176.9991
6182.791992 108.651 -176.2958
6227.595215 108.560 -175.5436
6272.723145 108.476 -174.7422
6318.177734 108.399 -173.8895
6363.961914 108.331 -172.9850
6410.077637 108.273 -172.0326
6456.527832 108.227 -171.0387
6503.314453 108.194 -170.0125
6550.439941 108.175 -168.9658
6597.907227 108.169 -167.9098
6645.718262 108.177 -166.8504
6693.875977 108.196 -165.7886
6742.382324 108.230 -164.7242
6791.240234 108.277 -163.6592
6840.452148 108.340 -162.5990
6890.020996 108.419 -161.5534
6939.948730 108.516 -160.5369
6990.238281 108.630 -159.5656
7040.892578 108.762 -158.6519
7091.913574 108.910 -157.8043
7143.304688 109.075 -157.0303
7195.067871 109.257 -156.3401
7247.206543 109.457 -155.7477
7299.722656 109.675 -155.2737
7352.619629 109.912 -154.9443
7405.899902 110.164 -154.7869
7459.565918 110.430 -154.8244
7513.621094 110.706 -155.0759
7568.067871 110.989 -155.5596
7622.909180 111.275 -156.2934
7678.147949 111.561 -157.2969
7733.787109 111.840 -158.5904
7789.829102 112.104 -160.1888
7846.277344 112.344 -162.0941
7903.134766 112.551 -164.2904
7960.404297 112.716 -166.7460
8018.088867 112.831 -169.4149
8076.191406 112.890 -172.2415
8134.714844 112.890 -175.1663
8193.662109 112.828 -178.1270
8253.037109 112.703 178.9431
8312.841797 112.515 176.1139
8373.080078 112.268 173.4543
8433.754883 111.967 171.0274
8494.869141 111.621 168.8834
8556.426758 111.238 167.0538
8618.429688 110.829 165.5533
8680.882812 110.400 164.3851
8743.788086 109.961 163.5466
8807.149414 109.516 163.0328
8870.969727 109.072 162.8360
8935.251953 108.636 162.9421
9000.000000 108.213 163.3281
9065.217773 107.806 163.9673
9130.908203 107.420 164.8344
9197.074219 107.055 165.9095
9263.719727 106.715 167.1790
9330.848633 106.401 168.6282
9398.463867 106.117 170.2353
9466.569336 105.865 171.9703
9535.167969 105.647 173.7994
9604.263672 105.462 175.6918
9673.860352 105.311 177.6249
9743.960938 105.192 179.5812
9814.569336 105.105 -178.4538
9885.689453 105.048 -176.4929
9957.325195 105.023 -174.5454
10029.480469 105.028 -172.6153
10102.158203 105.066 -170.7049
10175.362305 105.139 -168.8242
10249.097656 105.252 -166.9962
10323.367188 105.406 -165.2568
10398.174805 105.604 -163.6469
10473.524414 105.847 -162.2090
10549.419922 106.137 -160.9917
10625.865234 106.474 -160.0565
10702.864258 106.855 -159.4786
10780.421875 107.275 -159.3395
10858.541016 107.724 -159.7168
10937.226562 108.190 -160.6785
11016.482422 108.657 -162.2810
11096.312500 109.103 -164.5627
11176.720703 109.506 -167.5325
11257.711914 109.838 -171.1564
11339.290039 110.077 -175.3514
11421.458984 110.199 -179.9876
11504.223633 110.191 175.1011
11587.587891 110.042 170.1064
11671.556641 109.751 165.2303
11756.133789 109.326 160.6676
11841.323242 108.781 156.5857
11927.129883 108.137 153.1104
12013.558594 107.417 150.3201
12100.614258 106.644 148.2519
12188.300781 105.842 146.9086
12276.622070 105.033 146.2650
12365.583984 104.236 146.2706
12455.190430 103.465 146.8578
12545.446289 102.732 147.9528
12636.355469 102.048 149.4832
12727.923828 101.417 151.3773
12820.155273 100.845 153.5650
12913.055664 100.333 155.9833
13006.628906 99.883 158.5799
13100.879883 99.497 161.3062
13195.814453 99.177 164.1027
13291.436523 98.924 166.8945
13387.751953 98.736 169.5981
13484.764648 98.609 172.1331
13582.480469 98.536 174.4296
13680.904297 98.506 176.4393
13780.041992 98.508 178.1439
13879.897461 98.532 179.5522
13980.476562 98.571 -179.3188
14081.785156 98.622 -178.4605
14183.827148 98.678 -177.8731
14286.609375 98.735 -177.5543
14390.135742 98.788 -177.4932
14494.413086 98.831 -177.6735
14599.445312 98.862 -178.0786
14705.239258 98.877 -178.6903
14811.799805 98.874 -179.4875
14919.131836 98.848 179.5554
15027.242188 98.799 178.4707
15136.135742 98.726 177.2973
15245.818359 98.631 176.0738
15356.295898 98.520 174.8312
15467.574219 98.402 173.5864
15579.658203 98.289 172.3325
15692.554688 98.193 171.0280
15806.269531 98.129 169.5893
15920.808594 98.108 167.8924
16036.177734 98.134 165.7811
16152.382812 98.200 163.0831
16269.429688 98.286 159.6374
16387.324219 98.357 155.3286
16506.074219 98.370 150.1183
16625.683594 98.271 144.0701
16746.160156 98.013 137.3633
16867.509766 97.556 130.2858
16989.738281 96.877 123.1935
17112.853516 95.972 116.4503
17236.859375 94.854 110.3766
17361.765625 93.546 105.2177
17487.576172 92.076 101.1397
17614.298828 90.476 98.2400
17741.939453 88.774 96.5618
17870.503906 86.999 96.1035
18000.000000 85.177 96.8224
18130.435547 83.327 98.6450
18261.816406 81.464 101.5059
18394.148438 79.602 105.4417
18527.439453 77.757 110.7283
18661.697266 75.966 118.1035
18796.927734 74.313 129.0786
18933.138672 72.956 145.6290
19070.335938 72.085 166.6117
19208.527344 71.767 -175.4872
19347.720703 71.820 -165.4904
19487.921875 71.951 -161.7225
19629.138672 71.970 -161.2198
19771.378906 71.848 -161.9147
19914.650391 71.664 -162.7074
20058.960938 71.534 -163.1548
