* Measurement data measured by REW V5.30.4
* Source: EXCL: Microphone (Realtek(R) Audio), MICROPHONE (Master Volume), L, volume: 1.000
* Format: 256k Log Swept Sine, 1 sweep at -12.0 dBFS with no timing reference
* Dated: Jan 21, 2024 12:16:00 AM
* REW Settings:
*  C-weighting compensation: Off
*  Target level: 75.0 dB
* Note: Tinhifi T5S L
* Measurement: L Jan 21
* Smoothing: 1/12 octave
* Frequency Step: 96 ppo
* Start Frequency: 0.36621094 Hz
*
* Freq(Hz) SPL(dB) Phase(degrees)
0.366211 95.653 -14.7533
0.368865 95.654 -14.7701
0.371538 95.655 -14.7953
0.374230 95.655 -14.8267
0.376942 95.656 -14.8628
0.379673 95.657 -14.9021
0.382424 95.659 -14.9439
0.385196 95.660 -14.9877
0.387987 95.661 -15.0331
0.390798 95.662 -15.0800
0.393630 95.663 -15.1284
0.396483 95.664 -15.1781
0.399356 95.666 -15.2292
0.402250 95.667 -15.2817
0.405165 95.668 -15.3356
0.408101 95.669 -15.3909
0.411058 95.671 -15.4476
0.414037 95.672 -15.5057
0.417037 95.673 -15.5652
0.420059 95.674 -15.6261
0.423103 95.676 -15.6885
0.426169 95.677 -15.7524
0.429257 95.678 -15.8177
0.432367 95.680 -15.8845
0.435501 95.681 -15.9528
0.438656 95.682 -16.0226
0.441835 95.684 -16.0938
0.445037 95.685 -16.1667
0.448262 95.686 -16.2410
0.451510 95.688 -16.3168
0.454782 95.689 -16.3942
0.458077 95.690 -16.4732
0.461397 95.692 -16.5537
0.464740 95.693 -16.6358
0.468108 95.695 -16.7194
0.471500 95.696 -16.8046
0.474917 95.698 -16.8914
0.478358 95.699 -16.9797
0.481825 95.701 -17.0697
0.485316 95.702 -17.1612
0.488833 95.703 -17.2544
0.492375 95.705 -17.3491
0.495943 95.706 -17.4454
0.499537 95.708 -17.5434
0.503157 95.710 -17.6429
0.506803 95.711 -17.7440
0.510475 95.713 -17.8468
0.514174 95.714 -17.9511
0.517900 95.716 -18.0570
0.521653 95.717 -18.1645
0.525433 95.719 -18.2736
0.529241 95.721 -18.3842
0.533076 95.722 -18.4964
0.536939 95.724 -18.6102
0.540830 95.725 -18.7256
0.544749 95.727 -18.8425
0.548696 95.729 -18.9609
0.552673 95.730 -19.0808
0.556677 95.732 -19.2023
0.560711 95.734 -19.3253
0.564774 95.736 -19.4497
0.568867 95.737 -19.5756
0.572989 95.739 -19.7029
0.577141 95.741 -19.8317
0.581324 95.743 -19.9619
0.585536 95.744 -20.0934
0.589779 95.746 -20.2263
0.594053 95.748 -20.3606
0.598358 95.750 -20.4961
0.602694 95.752 -20.6330
0.607061 95.753 -20.7711
0.611460 95.755 -20.9103
0.615891 95.757 -21.0508
0.620354 95.759 -21.1924
0.624849 95.761 -21.3352
0.629377 95.763 -21.4790
0.633938 95.765 -21.6238
0.638532 95.767 -21.7696
0.643159 95.769 -21.9163
0.647819 95.771 -22.0640
0.652514 95.773 -22.2125
0.657242 95.775 -22.3617
0.662005 95.777 -22.5117
0.666802 95.779 -22.6624
0.671634 95.781 -22.8137
0.676501 95.783 -22.9655
0.681403 95.785 -23.1179
0.686341 95.787 -23.2706
0.691314 95.789 -23.4238
0.696324 95.791 -23.5772
0.701369 95.793 -23.7309
0.706452 95.796 -23.8848
0.711571 95.798 -24.0388
0.716727 95.800 -24.1930
0.721921 95.803 -24.3473
0.727153 95.806 -24.5020
0.732422 95.809 -24.6572
0.737729 95.813 -24.8132
0.743075 95.817 -24.9701
0.748460 95.822 -25.1282
0.753883 95.827 -25.2877
0.759346 95.832 -25.4487
0.764849 95.837 -25.6112
0.770391 95.842 -25.7753
0.775974 95.848 -25.9410
0.781597 95.853 -26.1083
0.787261 95.859 -26.2773
0.792965 95.865 -26.4478
0.798712 95.871 -26.6199
0.804499 95.877 -26.7937
0.810329 95.883 -26.9690
0.816201 95.889 -27.1459
0.822116 95.895 -27.3243
0.828073 95.902 -27.5043
0.834073 95.908 -27.6859
0.840118 95.915 -27.8689
0.846205 95.922 -28.0535
0.852337 95.929 -28.2396
0.858514 95.936 -28.4271
0.864735 95.943 -28.6161
0.871001 95.951 -28.8065
0.877313 95.959 -28.9983
0.883670 95.966 -29.1915
0.890074 95.974 -29.3860
0.896523 95.983 -29.5819
0.903020 95.991 -29.7791
0.909564 96.000 -29.9775
0.916155 96.008 -30.1772
0.922793 96.017 -30.3781
0.929480 96.027 -30.5801
0.936216 96.036 -30.7833
0.943000 96.046 -30.9876
0.949833 96.056 -31.1930
0.956716 96.066 -31.3993
0.963649 96.076 -31.6066
0.970632 96.087 -31.8149
0.977666 96.097 -32.0240
0.984750 96.109 -32.2340
0.991886 96.120 -32.4447
0.999074 96.132 -32.6562
1.006313 96.144 -32.8683
1.013605 96.156 -33.0811
1.020950 96.169 -33.2944
1.028349 96.182 -33.5082
1.035801 96.195 -33.7224
1.043306 96.209 -33.9369
1.050867 96.222 -34.1518
1.058482 96.237 -34.3668
1.066152 96.252 -34.5820
1.073878 96.267 -34.7971
1.081659 96.282 -35.0121
1.089498 96.298 -35.2268
1.097393 96.314 -35.4410
1.105345 96.331 -35.6546
1.113355 96.348 -35.8672
1.121422 96.366 -36.0789
1.129549 96.383 -36.2895
1.137734 96.402 -36.4990
1.145978 96.421 -36.7076
1.154283 96.440 -36.9152
1.162647 96.460 -37.1219
1.171072 96.480 -37.3279
1.179558 96.500 -37.5333
1.188106 96.521 -37.7383
1.196715 96.543 -37.9429
1.205387 96.565 -38.1473
1.214122 96.587 -38.3516
1.222920 96.610 -38.5561
1.231781 96.633 -38.7608
1.240708 96.657 -38.9660
1.249698 96.681 -39.1718
1.258754 96.706 -39.3784
1.267875 96.731 -39.5860
1.277063 96.756 -39.7948
1.286317 96.783 -40.0049
1.295638 96.809 -40.2166
1.305027 96.836 -40.4300
1.314484 96.864 -40.6455
1.324009 96.892 -40.8631
1.333603 96.920 -41.0832
1.343267 96.949 -41.3060
1.353001 96.979 -41.5317
1.362805 97.009 -41.7605
1.372681 97.039 -41.9926
1.382628 97.070 -42.2285
1.392647 97.101 -42.4681
1.402739 97.133 -42.7119
1.412904 97.166 -42.9600
1.423142 97.198 -43.2125
1.433455 97.232 -43.4695
1.443842 97.266 -43.7310
1.454305 97.300 -43.9967
1.464843 97.335 -44.2662
1.475458 97.371 -44.5390
1.486150 97.408 -44.8145
1.496919 97.445 -45.0922
1.507766 97.483 -45.3719
1.518692 97.521 -45.6533
1.529697 97.561 -45.9364
1.540782 97.601 -46.2213
1.551947 97.642 -46.5080
1.563193 97.684 -46.7966
1.574521 97.726 -47.0873
1.585931 97.769 -47.3803
1.597423 97.813 -47.6756
1.608998 97.858 -47.9736
1.620658 97.903 -48.2744
1.632402 97.949 -48.5781
1.644231 97.995 -48.8851
1.656146 98.042 -49.1955
1.668147 98.090 -49.5096
1.680235 98.138 -49.8276
1.692410 98.187 -50.1497
1.704674 98.236 -50.4763
1.717027 98.285 -50.8075
1.729469 98.335 -51.1437
1.742002 98.386 -51.4851
1.754625 98.437 -51.8319
1.767340 98.488 -52.1846
1.780147 98.539 -52.5432
1.793046 98.591 -52.9080
1.806040 98.643 -53.2791
1.819127 98.696 -53.6565
1.832309 98.749 -54.0400
1.845587 98.802 -54.4293
1.858961 98.856 -54.8241
1.872431 98.911 -55.2241
1.886000 98.966 -55.6290
1.899666 99.022 -56.0386
1.913432 99.079 -56.4527
1.927298 99.136 -56.8713
1.941264 99.194 -57.2943
1.955331 99.253 -57.7217
1.969500 99.312 -58.1534
1.983772 99.371 -58.5894
1.998147 99.431 -59.0297
2.012626 99.492 -59.4744
2.027211 99.552 -59.9235
2.041901 99.613 -60.3771
2.056697 99.675 -60.8352
2.071601 99.736 -61.2981
2.086613 99.798 -61.7657
2.101733 99.860 -62.2384
2.116963 99.922 -62.7162
2.132303 99.984 -63.1994
2.147755 100.045 -63.6883
2.163318 100.107 -64.1831
2.178995 100.169 -64.6843
2.194785 100.231 -65.1921
2.210689 100.293 -65.7069
2.226709 100.355 -66.2288
2.242844 100.417 -66.7579
2.259097 100.480 -67.2941
2.275467 100.542 -67.8370
2.291956 100.605 -68.3864
2.308565 100.668 -68.9418
2.325294 100.730 -69.5028
2.342144 100.794 -70.0689
2.359116 100.857 -70.6399
2.376211 100.920 -71.2152
2.393430 100.983 -71.7945
2.410774 101.045 -72.3775
2.428243 101.108 -72.9638
2.445839 101.171 -73.5532
2.463562 101.233 -74.1455
2.481415 101.295 -74.7407
2.499396 101.356 -75.3386
2.517508 101.417 -75.9397
2.535750 101.478 -76.5443
2.554126 101.538 -77.1532
2.572634 101.598 -77.7671
2.591276 101.658 -78.3872
2.610054 101.717 -79.0138
2.628967 101.775 -79.6474
2.648018 101.834 -80.2877
2.667206 101.892 -80.9342
2.686534 101.949 -81.5864
2.706002 102.006 -82.2434
2.725610 102.063 -82.9044
2.745361 102.119 -83.5685
2.765255 102.174 -84.2347
2.785294 102.229 -84.9023
2.805477 102.284 -85.5705
2.825807 102.337 -86.2384
2.846284 102.391 -86.9057
2.866909 102.443 -87.5719
2.887684 102.495 -88.2371
2.908609 102.546 -88.9017
2.929686 102.596 -89.5668
2.950916 102.645 -90.2336
2.972299 102.694 -90.9032
2.993838 102.742 -91.5764
3.015532 102.789 -92.2536
3.037384 102.835 -92.9343
3.059394 102.880 -93.6181
3.081564 102.924 -94.3040
3.103894 102.967 -94.9909
3.126386 103.010 -95.6778
3.149041 103.052 -96.3633
3.171861 103.093 -97.0465
3.194845 103.133 -97.7260
3.217996 103.173 -98.4011
3.241315 103.211 -99.0710
3.264803 103.249 -99.7358
3.288461 103.286 -100.3957
3.312291 103.322 -101.0517
3.336293 103.357 -101.7049
3.360469 103.391 -102.3561
3.384820 103.424 -103.0060
3.409348 103.456 -103.6544
3.434054 103.487 -104.3010
3.458938 103.517 -104.9451
3.484003 103.546 -105.5858
3.509250 103.574 -106.2220
3.534679 103.602 -106.8526
3.560293 103.629 -107.4765
3.586092 103.655 -108.0926
3.612079 103.681 -108.7002
3.638253 103.707 -109.2988
3.664618 103.732 -109.8885
3.691173 103.756 -110.4696
3.717921 103.779 -111.0427
3.744862 103.802 -111.6085
3.771999 103.824 -112.1671
3.799332 103.845 -112.7189
3.826864 103.866 -113.2636
3.854595 103.886 -113.8012
3.882527 103.906 -114.3312
3.910661 103.926 -114.8532
3.938999 103.946 -115.3666
3.967543 103.966 -115.8708
3.996294 103.987 -116.3652
4.025252 104.007 -116.8494
4.054421 104.027 -117.3231
4.083801 104.048 -117.7862
4.113394 104.069 -118.2390
4.143201 104.090 -118.6819
4.173225 104.110 -119.1155
4.203466 104.132 -119.5406
4.233926 104.153 -119.9578
4.264606 104.175 -120.3679
4.295509 104.198 -120.7713
4.326636 104.221 -121.1683
4.357989 104.246 -121.5591
4.389569 104.271 -121.9434
4.421378 104.297 -122.3208
4.453417 104.324 -122.6911
4.485688 104.351 -123.0543
4.518193 104.380 -123.4107
4.550934 104.410 -123.7614
4.583912 104.440 -124.1073
4.617129 104.471 -124.4497
4.650587 104.503 -124.7898
4.684287 104.536 -125.1286
4.718231 104.569 -125.4669
4.752421 104.603 -125.8050
4.786859 104.639 -126.1428
4.821547 104.675 -126.4803
4.856485 104.712 -126.8172
4.891677 104.750 -127.1538
4.927125 104.788 -127.4904
4.962829 104.828 -127.8277
4.998791 104.867 -128.1665
5.035015 104.907 -128.5076
5.071500 104.947 -128.8518
5.108251 104.987 -129.1996
5.145267 105.027 -129.5513
5.182552 105.067 -129.9069
5.220107 105.107 -130.2662
5.257934 105.147 -130.6289
5.296035 105.187 -130.9947
5.334412 105.227 -131.3633
5.373067 105.266 -131.7343
5.412003 105.304 -132.1078
5.451221 105.342 -132.4837
5.490722 105.379 -132.8622
5.530510 105.416 -133.2433
5.570587 105.451 -133.6270
5.610953 105.485 -134.0131
5.651613 105.519 -134.4007
5.692567 105.551 -134.7891
5.733818 105.583 -135.1773
5.775367 105.613 -135.5645
5.817218 105.643 -135.9501
5.859372 105.671 -136.3336
5.901831 105.698 -136.7150
5.944598 105.724 -137.0942
5.987675 105.748 -137.4710
6.031065 105.772 -137.8449
6.074768 105.794 -138.2153
6.118788 105.816 -138.5812
6.163127 105.836 -138.9420
6.207788 105.856 -139.2972
6.252772 105.875 -139.6463
6.298082 105.893 -139.9893
6.343721 105.911 -140.3263
6.389690 105.928 -140.6574
6.435992 105.944 -140.9827
6.482630 105.960 -141.3022
6.529606 105.976 -141.6157
6.576922 105.991 -141.9232
6.624581 106.006 -142.2247
6.672585 106.022 -142.5203
6.720938 106.037 -142.8105
6.769640 106.052 -143.0957
6.818696 106.068 -143.3769
6.868107 106.083 -143.6547
6.917876 106.099 -143.9297
6.968006 106.115 -144.2025
7.018499 106.132 -144.4734
7.069358 106.148 -144.7428
7.120586 106.165 -145.0112
7.172184 106.183 -145.2793
7.224157 106.200 -145.5481
7.276506 106.217 -145.8183
7.329235 106.235 -146.0904
7.382345 106.253 -146.3649
7.435841 106.271 -146.6420
7.489724 106.288 -146.9217
7.543997 106.306 -147.2044
7.598664 106.323 -147.4902
7.653728 106.340 -147.7794
7.709189 106.356 -148.0721
7.765053 106.372 -148.3684
7.821322 106.387 -148.6681
7.877998 106.401 -148.9709
7.935086 106.415 -149.2764
7.992587 106.429 -149.5842
8.050504 106.441 -149.8939
8.108841 106.453 -150.2054
8.167601 106.463 -150.5184
8.226787 106.473 -150.8325
8.286402 106.482 -151.1472
8.346449 106.491 -151.4621
8.406931 106.499 -151.7769
8.467851 106.506 -152.0911
8.529212 106.512 -152.4046
8.591018 106.518 -152.7175
8.653272 106.524 -153.0296
8.715977 106.529 -153.3409
8.779137 106.534 -153.6514
8.842754 106.538 -153.9611
8.906833 106.543 -154.2703
8.971375 106.547 -154.5792
9.036386 106.552 -154.8883
9.101867 106.556 -155.1978
9.167823 106.560 -155.5083
9.234257 106.565 -155.8201
9.301172 106.569 -156.1333
9.368572 106.573 -156.4485
9.436460 106.578 -156.7660
9.504841 106.582 -157.0861
9.573717 106.586 -157.4091
9.643092 106.591 -157.7351
9.712970 106.595 -158.0641
9.783354 106.599 -158.3960
9.854248 106.602 -158.7307
9.925656 106.605 -159.0681
9.997581 106.608 -159.4079
10.070028 106.611 -159.7498
10.143000 106.613 -160.0934
10.216500 106.615 -160.4380
10.290533 106.616 -160.7834
10.365103 106.618 -161.1289
10.440212 106.618 -161.4743
10.515866 106.619 -161.8191
10.592069 106.619 -162.1628
10.668823 106.619 -162.5052
10.746134 106.619 -162.8459
10.824005 106.620 -163.1850
10.902440 106.620 -163.5223
10.981443 106.621 -163.8579
11.061020 106.621 -164.1919
11.141172 106.622 -164.5245
11.221906 106.624 -164.8559
11.303225 106.626 -165.1864
11.385133 106.628 -165.5165
11.467634 106.631 -165.8464
11.550734 106.634 -166.1763
11.634435 106.638 -166.5066
11.718742 106.641 -166.8375
11.803661 106.645 -167.1691
11.889195 106.650 -167.5014
11.975349 106.654 -167.8344
12.062128 106.658 -168.1678
12.149535 106.663 -168.5016
12.237576 106.667 -168.8354
12.326254 106.671 -169.1689
12.415575 106.675 -169.5015
12.505544 106.679 -169.8329
12.596164 106.682 -170.1628
12.687441 106.686 -170.4906
12.779379 106.689 -170.8160
12.871984 106.691 -171.1388
12.965260 106.694 -171.4586
13.059211 106.696 -171.7754
13.153843 106.699 -172.0892
13.249161 106.701 -172.3997
13.345170 106.703 -172.7072
13.441875 106.705 -173.0117
13.539280 106.706 -173.3133
13.637391 106.708 -173.6122
13.736214 106.709 -173.9086
13.835752 106.710 -174.2023
13.936011 106.711 -174.4937
14.036998 106.711 -174.7826
14.138716 106.711 -175.0690
14.241171 106.710 -175.3530
14.344368 106.709 -175.6345
14.448313 106.708 -175.9133
14.553011 106.706 -176.1893
14.658468 106.703 -176.4626
14.764689 106.700 -176.7332
14.871680 106.696 -177.0009
14.979446 106.692 -177.2660
15.087994 106.688 -177.5287
15.197328 106.683 -177.7891
15.307454 106.678 -178.0476
15.418378 106.672 -178.3045
15.530106 106.666 -178.5602
15.642643 106.659 -178.8151
15.755996 106.652 -179.0696
15.870171 106.644 -179.3242
15.985172 106.637 -179.5790
16.101007 106.628 -179.8346
16.217682 106.619 179.9089
16.335201 106.610 179.6514
16.453573 106.600 179.3925
16.572803 106.589 179.1323
16.692898 106.578 178.8705
16.813862 106.566 178.6075
16.935701 106.553 178.3430
17.058424 106.540 178.0772
17.182035 106.526 177.8103
17.306543 106.512 177.5424
17.431953 106.497 177.2735
17.558273 106.482 177.0040
17.685509 106.466 176.7341
17.813665 106.450 176.4637
17.942751 106.434 176.1931
18.072771 106.417 175.9221
18.203733 106.401 175.6508
18.335646 106.384 175.3790
18.468513 106.367 175.1064
18.602345 106.351 174.8328
18.737144 106.335 174.5579
18.872921 106.319 174.2814
19.009682 106.302 174.0033
19.147434 106.287 173.7236
19.286184 106.271 173.4427
19.425940 106.255 173.1609
19.566708 106.239 172.8791
19.708496 106.223 172.5978
19.851313 106.206 172.3180
19.995163 106.191 172.0402
20.140057 106.175 171.7647
20.285999 106.160 171.4914
20.433001 106.145 171.2197
20.581066 106.131 170.9485
20.730206 106.117 170.6765
20.880424 106.104 170.4020
21.031733 106.091 170.1239
21.184137 106.078 169.8413
21.337646 106.064 169.5544
21.492268 106.048 169.2645
21.648010 106.031 168.9745
21.804880 106.011 168.6884
21.962887 105.988 168.4114
22.122040 105.963 168.1492
22.282345 105.936 167.9073
22.443811 105.907 167.6904
22.606449 105.878 167.5011
22.770266 105.851 167.3396
22.935268 105.825 167.2028
23.101467 105.804 167.0846
23.268869 105.786 166.9763
23.437485 105.773 166.8672
23.607323 105.765 166.7462
23.778391 105.760 166.6032
23.950699 105.758 166.4306
24.124256 105.755 166.2242
24.299070 105.751 165.9838
24.475151 105.744 165.7134
24.652508 105.732 165.4201
24.831150 105.715 165.1133
25.011087 105.693 164.8030
25.192327 105.666 164.4986
25.374882 105.636 164.2071
25.558758 105.602 163.9327
25.743967 105.568 163.6761
25.930519 105.534 163.4350
26.118422 105.502 163.2043
26.307686 105.471 162.9783
26.498322 105.441 162.7509
26.690340 105.413 162.5179
26.883749 105.385 162.2769
27.078560 105.357 162.0277
27.274782 105.329 161.7726
27.472427 105.300 161.5148
27.671503 105.271 161.2582
27.872023 105.241 161.0060
28.073996 105.211 160.7606
28.277431 105.182 160.5228
28.482342 105.154 160.2923
28.688736 105.127 160.0679
28.896626 105.103 159.8479
29.106022 105.079 159.6304
29.316936 105.058 159.4138
29.529379 105.037 159.1970
29.743361 105.017 158.9789
29.958893 104.999 158.7589
30.175987 104.980 158.5366
30.394655 104.961 158.3121
30.614908 104.942 158.0866
30.836756 104.921 157.8621
31.060211 104.898 157.6417
31.285286 104.874 157.4295
31.511992 104.847 157.2296
31.740341 104.819 157.0453
31.970345 104.790 156.8790
32.202015 104.760 156.7302
32.435364 104.731 156.5968
32.670403 104.702 156.4748
32.907146 104.674 156.3593
33.145607 104.647 156.2456
33.385796 104.620 156.1302
33.627724 104.593 156.0110
33.871403 104.564 155.8871
34.116848 104.536 155.7579
34.364071 104.506 155.6229
34.613087 104.475 155.4808
34.863907 104.443 155.3304
35.116547 104.410 155.1704
35.371017 104.375 155.0013
35.627331 104.338 154.8259
35.885502 104.298 154.6488
36.145542 104.257 154.4761
36.407467 104.213 154.3128
36.671291 104.170 154.1611
36.937027 104.128 154.0187
37.204689 104.089 153.8792
37.474289 104.053 153.7335
37.745842 104.020 153.5727
38.019363 103.988 153.3912
38.294868 103.957 153.1887
38.572369 103.925 152.9698
38.851879 103.892 152.7419
39.133415 103.858 152.5125
39.416992 103.823 152.2852
39.702625 103.790 152.0596
39.990326 103.759 151.8311
40.280113 103.728 151.5945
40.571999 103.698 151.3473
40.866001 103.667 151.0919
41.162132 103.633 150.8356
41.460411 103.597 150.5879
41.760849 103.558 150.3568
42.063465 103.520 150.1457
42.368275 103.481 149.9528
42.675293 103.443 149.7726
42.984535 103.406 149.6004
43.296021 103.367 149.4348
43.609760 103.327 149.2786
43.925774 103.284 149.1369
44.244080 103.240 149.0131
44.564690 103.194 148.9057
44.887623 103.148 148.8085
45.212898 103.101 148.7152
45.540531 103.051 148.6248
45.870537 102.997 148.5454
46.202934 102.938 148.4927
46.537739 102.876 148.4832
46.874969 102.816 148.5242
47.214645 102.762 148.6054
47.556782 102.718 148.6992
47.901398 102.685 148.7686
48.248512 102.660 148.7815
48.598141 102.639 148.7231
48.950302 102.618 148.5997
49.305016 102.593 148.4342
49.662300 102.564 148.2538
50.022175 102.535 148.0794
50.384655 102.506 147.9181
50.749763 102.481 147.7651
51.117516 102.460 147.6100
51.487934 102.441 147.4461
51.861038 102.421 147.2750
52.236843 102.399 147.1080
52.615372 102.372 146.9610
52.996643 102.342 146.8485
53.380680 102.308 146.7791
53.767498 102.272 146.7532
54.157120 102.234 146.7650
54.549564 102.194 146.8058
54.944855 102.154 146.8664
55.343006 102.111 146.9375
55.744045 102.068 147.0077
56.147991 102.024 147.0639
56.554863 101.978 147.0935
56.964684 101.931 147.0899
57.377472 101.881 147.0556
57.793251 101.829 147.0002
58.212044 101.778 146.9315
58.633873 101.733 146.8467
59.058758 101.694 146.7309
59.486721 101.662 146.5662
59.917786 101.634 146.3460
60.351974 101.605 146.0823
60.789310 101.573 145.8022
61.229816 101.536 145.5339
61.673512 101.495 145.2954
62.120422 101.448 145.0947
62.570572 101.393 144.9401
63.023983 101.329 144.8513
63.480682 101.254 144.8586
63.940689 101.173 144.9876
64.404030 101.096 145.2356
64.870728 101.030 145.5565
65.340805 100.980 145.8688
65.814293 100.944 146.0887
66.291214 100.914 146.1685
66.771591 100.879 146.1174
67.255447 100.834 145.9937
67.742805 100.777 145.8782
68.233696 100.715 145.8494
68.728142 100.657 145.9618
69.226173 100.614 146.2263
69.727814 100.596 146.5966
70.233093 100.602 146.9870
70.742035 100.621 147.3252
71.254662 100.640 147.5981
71.771004 100.648 147.8409
72.291084 100.645 148.0808
72.814934 100.635 148.3004
73.342583 100.618 148.4584
73.874054 100.593 148.5244
74.409378 100.565 148.4737
74.948578 100.537 148.2604
75.491684 100.506 147.8399
76.038727 100.459 147.2447
76.589737 100.389 146.6225
77.144737 100.304 146.1782
77.703758 100.228 146.0624
78.266830 100.187 146.3007
78.833984 100.197 146.8056
79.405251 100.255 147.4321
79.980652 100.344 148.0312
80.560226 100.434 148.4956
81.143997 100.497 148.7992
81.732002 100.512 148.9968
82.324265 100.474 149.1738
82.920822 100.395 149.3840
83.521698 100.296 149.6232
84.126930 100.206 149.8400
84.736549 100.151 149.9569
85.350586 100.153 149.8972
85.969070 100.220 149.6378
86.592041 100.347 149.2725
87.219521 100.529 149.0241
87.851547 100.769 149.1605
88.488159 101.081 149.8484
89.129379 101.472 151.0538
89.775246 101.930 152.5545
90.425797 102.424 153.9714
91.081062 102.894 154.7978
91.741074 103.250 154.6009
92.405869 103.390 153.3551
93.075478 103.240 151.5436
93.749939 102.786 149.9203
94.429291 102.079 149.1364
95.113564 101.225 149.4163
95.802795 100.358 150.3941
96.497025 99.607 151.2578
97.196281 99.041 151.2834
97.900604 98.666 150.3568
98.610031 98.454 148.9250
99.324600 98.383 147.5360
100.044350 98.426 146.5246
100.769310 98.541 146.0055
101.499527 98.683 145.9653
102.235031 98.817 146.3057
102.975868 98.922 146.8629
103.722076 98.987 147.4438
104.473686 99.004 147.8908
105.230743 98.975 148.1345
105.993286 98.913 148.1812
106.761360 98.839 148.0665
107.534996 98.771 147.8354
108.314240 98.722 147.5429
109.099129 98.696 147.2441
109.889709 98.686 146.9802
110.686012 98.677 146.7821
111.488091 98.655 146.6791
112.295982 98.613 146.6899
113.109726 98.551 146.8026
113.929367 98.474 146.9752
114.754944 98.389 147.1696
115.586502 98.307 147.3728
116.424088 98.237 147.5877
117.267746 98.183 147.8279
118.117516 98.149 148.1229
118.973442 98.132 148.4959
119.835571 98.130 148.9314
120.703949 98.135 149.3874
121.578621 98.137 149.8301
122.459633 98.134 150.2435
123.347023 98.128 150.6275
124.240845 98.129 150.9749
125.141144 98.148 151.2233
126.047966 98.182 151.2670
126.961365 98.202 151.0902
127.881378 98.176 150.9084
128.808060 98.097 151.1164
129.741455 97.997 151.9848
130.681610 97.922 153.4077
131.628586 97.891 155.0231
132.582428 97.894 156.5129
133.543182 97.907 157.7210
134.510895 97.906 158.5988
135.485611 97.874 159.1772
136.467392 97.809 159.5671
137.456284 97.732 159.8035
138.452347 97.669 159.6417
139.455627 97.621 158.7212
140.466187 97.564 156.9591
141.484070 97.487 154.5931
142.509323 97.405 151.9465
143.542007 97.343 149.2755
144.582169 97.315 146.7562
145.629868 97.310 144.5730
146.685165 97.307 143.0029
147.748108 97.299 142.3088
148.818756 97.289 142.5069
149.897156 97.277 143.3920
150.983368 97.250 144.7565
152.077454 97.206 146.4117
153.179474 97.145 148.1375
154.289474 97.072 149.7233
155.407516 96.993 151.0184
156.533661 96.913 151.9598
157.667969 96.839 152.5792
158.810501 96.777 152.9631
159.961304 96.730 153.1995
161.120453 96.696 153.3680
162.287994 96.672 153.5504
163.464005 96.655 153.8204
164.648529 96.644 154.2238
165.841644 96.638 154.7700
167.043396 96.632 155.4317
168.253860 96.624 156.1431
169.473099 96.609 156.7971
170.701172 96.588 157.2551
171.938141 96.557 157.3940
173.184082 96.514 157.1882
174.439041 96.458 156.7768
175.703094 96.400 156.3944
176.976318 96.358 156.2010
178.258759 96.344 156.1810
179.550491 96.355 156.2125
180.851593 96.375 156.2012
182.162125 96.392 156.1367
183.482147 96.394 156.0778
184.811737 96.378 156.1036
186.150955 96.339 156.2718
187.499878 96.276 156.5997
188.858582 96.193 157.0585
190.227127 96.106 157.5661
191.605591 96.042 157.9738
192.994049 96.017 158.1010
194.392563 96.028 157.8757
195.801208 96.058 157.4272
197.220062 96.087 156.9707
198.649200 96.105 156.6585
200.088699 96.105 156.5202
201.538620 96.089 156.5056
202.999054 96.060 156.5549
204.470062 96.027 156.6343
205.951736 95.994 156.7362
207.444153 95.964 156.8624
208.947372 95.938 157.0078
210.461487 95.914 157.1608
211.986572 95.888 157.3127
213.522720 95.861 157.4625
215.069992 95.833 157.6142
216.628479 95.804 157.7717
218.198257 95.774 157.9368
219.779419 95.744 158.1079
221.372025 95.715 158.2819
222.976181 95.688 158.4576
224.591965 95.663 158.6366
226.219452 95.639 158.8190
227.858734 95.615 159.0019
229.509888 95.591 159.1819
231.173004 95.567 159.3585
232.848175 95.544 159.5334
234.535492 95.523 159.7091
236.235031 95.503 159.8847
237.946884 95.483 160.0564
239.671143 95.463 160.2208
241.407898 95.441 160.3785
243.157242 95.416 160.5339
244.919266 95.389 160.6927
246.694046 95.360 160.8608
248.481689 95.331 161.0448
250.282288 95.303 161.2506
252.095932 95.276 161.4815
253.922729 95.252 161.7344
255.762756 95.231 161.9968
257.616119 95.215 162.2491
259.482910 95.200 162.4741
261.363220 95.186 162.6666
263.257172 95.171 162.8341
265.164856 95.154 162.9904
267.086365 95.135 163.1500
269.021790 95.115 163.3239
270.971222 95.094 163.5167
272.934784 95.073 163.7252
274.912567 95.053 163.9427
276.904694 95.035 164.1620
278.911255 95.019 164.3782
280.932373 95.006 164.5885
282.968140 94.994 164.7913
285.018646 94.985 164.9850
287.084015 94.978 165.1672
289.164337 94.972 165.3354
291.259735 94.965 165.4893
293.370331 94.956 165.6324
295.496216 94.944 165.7718
297.637512 94.930 165.9146
299.794312 94.914 166.0656
301.966736 94.896 166.2263
304.154907 94.878 166.3961
306.358948 94.859 166.5730
308.578949 94.841 166.7543
310.815033 94.822 166.9373
313.067322 94.803 167.1202
315.335938 94.783 167.3034
317.621002 94.762 167.4904
319.922607 94.742 167.6859
322.240906 94.722 167.8922
324.575989 94.704 168.1089
326.928009 94.687 168.3326
329.297058 94.671 168.5588
331.683289 94.656 168.7830
334.086792 94.643 169.0023
336.507721 94.629 169.2158
338.946198 94.617 169.4239
341.402344 94.604 169.6280
343.876282 94.591 169.8299
346.368164 94.578 170.0319
348.878082 94.564 170.2366
351.406189 94.550 170.4451
353.952637 94.535 170.6564
356.517517 94.522 170.8691
359.100983 94.508 171.0838
361.703186 94.496 171.3025
364.324249 94.483 171.5256
366.964294 94.471 171.7519
369.623474 94.459 171.9800
372.301910 94.447 172.2085
374.999756 94.435 172.4357
377.717163 94.423 172.6605
380.454254 94.411 172.8838
383.211182 94.399 173.1082
385.988098 94.388 173.3355
388.785126 94.377 173.5665
391.602417 94.368 173.8014
394.440125 94.359 174.0402
397.298401 94.351 174.2819
400.177399 94.344 174.5239
403.077240 94.337 174.7632
405.998108 94.330 174.9972
408.940125 94.323 175.2251
411.903473 94.316 175.4486
414.888306 94.308 175.6713
417.894745 94.299 175.8976
420.922974 94.290 176.1320
423.973145 94.281 176.3785
427.045441 94.273 176.6378
430.139984 94.267 176.9056
433.256958 94.262 177.1738
436.396515 94.259 177.4360
439.558838 94.257 177.6907
442.744049 94.257 177.9402
445.952362 94.258 178.1843
449.183929 94.260 178.4181
452.438904 94.264 178.6342
455.717468 94.266 178.8298
459.019775 94.266 179.0103
462.346008 94.263 179.1878
465.696350 94.257 179.3738
469.070984 94.249 179.5727
472.470062 94.240 179.7833
475.893768 94.232 -179.9978
479.342285 94.224 -179.7743
482.815796 94.216 -179.5500
486.314484 94.207 -179.3255
489.838531 94.196 -179.0960
493.388092 94.185 -178.8548
496.963379 94.174 -178.5995
500.564575 94.165 -178.3342
504.191864 94.158 -178.0658
507.845459 94.154 -177.7995
511.525513 94.151 -177.5370
515.232239 94.148 -177.2768
518.965820 94.144 -177.0163
522.726440 94.140 -176.7520
526.514343 94.135 -176.4809
530.329712 94.130 -176.2014
534.172729 94.125 -175.9158
538.043579 94.122 -175.6283
541.942444 94.119 -175.3412
545.869568 94.117 -175.0538
549.825134 94.116 -174.7656
553.809387 94.117 -174.4778
557.822510 94.118 -174.1927
561.864746 94.120 -173.9110
565.936279 94.122 -173.6312
570.037292 94.123 -173.3505
574.168030 94.124 -173.0668
578.328674 94.124 -172.7793
582.519470 94.124 -172.4879
586.740662 94.123 -172.1917
590.992432 94.123 -171.8885
595.275024 94.123 -171.5774
599.588623 94.125 -171.2618
603.933472 94.127 -170.9472
608.309814 94.130 -170.6366
612.717896 94.133 -170.3292
617.157898 94.135 -170.0211
621.630066 94.137 -169.7058
626.134644 94.140 -169.3766
630.671875 94.144 -169.0307
635.242004 94.150 -168.6725
639.845215 94.159 -168.3081
644.481812 94.169 -167.9400
649.151978 94.181 -167.5675
653.856018 94.195 -167.1927
658.594116 94.211 -166.8228
663.366577 94.231 -166.4680
668.173584 94.252 -166.1360
673.015442 94.273 -165.8261
677.892395 94.293 -165.5307
682.804688 94.311 -165.2415
687.752563 94.326 -164.9521
692.736328 94.339 -164.6572
697.756165 94.351 -164.3513
702.812378 94.363 -164.0322
707.905273 94.376 -163.7021
713.035034 94.391 -163.3648
718.201965 94.407 -163.0234
723.406372 94.424 -162.6797
728.648499 94.442 -162.3343
733.928589 94.461 -161.9869
739.246948 94.480 -161.6375
744.603821 94.501 -161.2862
749.999512 94.521 -160.9319
755.434326 94.542 -160.5724
760.908508 94.564 -160.2061
766.422363 94.587 -159.8335
771.976196 94.611 -159.4562
777.570251 94.636 -159.0760
783.204834 94.663 -158.6932
788.880249 94.691 -158.3061
794.596802 94.721 -157.9128
800.354797 94.753 -157.5124
806.154480 94.787 -157.1073
811.996216 94.823 -156.7027
817.880249 94.864 -156.3066
823.806946 94.908 -155.9275
829.776611 94.954 -155.5729
835.789490 95.001 -155.2444
841.845947 95.047 -154.9350
847.946289 95.092 -154.6339
854.090881 95.136 -154.3334
860.279968 95.179 -154.0294
866.513916 95.221 -153.7190
872.793030 95.263 -153.3998
879.117676 95.306 -153.0734
885.488098 95.350 -152.7454
891.904724 95.395 -152.4202
898.367859 95.441 -152.0987
904.877808 95.488 -151.7789
911.434937 95.537 -151.4582
918.039551 95.587 -151.1364
924.692017 95.639 -150.8147
931.392700 95.693 -150.4962
938.141968 95.748 -150.1857
944.940125 95.804 -149.8874
951.787537 95.861 -149.6018
958.684570 95.918 -149.3261
965.631592 95.975 -149.0560
972.628967 96.033 -148.7879
979.677063 96.091 -148.5211
986.776184 96.149 -148.2572
993.926758 96.207 -147.9955
1001.129150 96.266 -147.7315
1008.383728 96.327 -147.4605
1015.690918 96.390 -147.1828
1023.051025 96.457 -146.9030
1030.464478 96.528 -146.6277
1037.931641 96.603 -146.3671
1045.452881 96.680 -146.1319
1053.028687 96.759 -145.9264
1060.659424 96.837 -145.7470
1068.345459 96.915 -145.5866
1076.087158 96.991 -145.4380
1083.884888 97.067 -145.2976
1091.739136 97.143 -145.1655
1099.650269 97.219 -145.0445
1107.618774 97.296 -144.9370
1115.645020 97.373 -144.8441
1123.729492 97.450 -144.7657
1131.872559 97.526 -144.7010
1140.074585 97.601 -144.6487
1148.336060 97.674 -144.6057
1156.657349 97.747 -144.5674
1165.038940 97.819 -144.5297
1173.481323 97.891 -144.4904
1181.984863 97.964 -144.4512
1190.550049 98.039 -144.4185
1199.177246 98.117 -144.4021
1207.866943 98.196 -144.4114
1216.619629 98.274 -144.4509
1225.435791 98.351 -144.5171
1234.315796 98.424 -144.6022
1243.260132 98.493 -144.6979
1252.269287 98.560 -144.7968
1261.343750 98.623 -144.8953
1270.484009 98.685 -144.9921
1279.690430 98.745 -145.0860
1288.963623 98.804 -145.1758
1298.303955 98.863 -145.2630
1307.712036 98.921 -145.3505
1317.188232 98.979 -145.4413
1326.733154 99.038 -145.5374
1336.347168 99.095 -145.6390
1346.030884 99.151 -145.7441
1355.784790 99.205 -145.8490
1365.609375 99.258 -145.9496
1375.505127 99.310 -146.0410
1385.472656 99.362 -146.1183
1395.512329 99.416 -146.1805
1405.624756 99.472 -146.2339
1415.810547 99.532 -146.2909
1426.070068 99.595 -146.3671
1436.403931 99.660 -146.4723
1446.812744 99.724 -146.6073
1457.296997 99.788 -146.7667
1467.857178 99.849 -146.9444
1478.493896 99.908 -147.1354
1489.207642 99.965 -147.3362
1499.999023 100.019 -147.5437
1510.868652 100.071 -147.7541
1521.817017 100.121 -147.9638
1532.844727 100.169 -148.1702
1543.952393 100.216 -148.3725
1555.140503 100.263 -148.5714
1566.409668 100.311 -148.7714
1577.760498 100.360 -148.9821
1589.193604 100.409 -149.2152
1600.709595 100.459 -149.4787
1612.308960 100.506 -149.7725
1623.992432 100.549 -150.0904
1635.760498 100.587 -150.4237
1647.613892 100.620 -150.7640
1659.553223 100.648 -151.1045
1671.578979 100.671 -151.4398
1683.691895 100.690 -151.7670
1695.892578 100.706 -152.0851
1708.181763 100.717 -152.3933
1720.559937 100.723 -152.6890
1733.027832 100.724 -152.9673
1745.586060 100.721 -153.2209
1758.235352 100.713 -153.4412
1770.976196 100.702 -153.6205
1783.809448 100.691 -153.7572
1796.735718 100.681 -153.8572
1809.755615 100.673 -153.9308
1822.869873 100.667 -153.9861
1836.079102 100.663 -154.0263
1849.384033 100.660 -154.0507
1862.785400 100.657 -154.0566
1876.283936 100.655 -154.0408
1889.880249 100.653 -153.9996
1903.575073 100.653 -153.9293
1917.369141 100.655 -153.8280
1931.263184 100.660 -153.6969
1945.257935 100.670 -153.5420
1959.354126 100.685 -153.3753
1973.552368 100.706 -153.2117
1987.853516 100.730 -153.0603
2002.258301 100.757 -152.9215
2016.767456 100.786 -152.7895
2031.381836 100.816 -152.6565
2046.102051 100.848 -152.5145
2060.928955 100.883 -152.3593
2075.863281 100.923 -152.1935
2090.905762 100.967 -152.0250
2106.057373 101.016 -151.8638
2121.318848 101.071 -151.7189
2136.690918 101.130 -151.5968
2152.174316 101.194 -151.5025
2167.769775 101.261 -151.4428
2183.478271 101.333 -151.4290
2199.300537 101.405 -151.4711
2215.237549 101.476 -151.5712
2231.290039 101.543 -151.7217
2247.458984 101.603 -151.9080
2263.745117 101.656 -152.1116
2280.149170 101.702 -152.3125
2296.672119 101.742 -152.4922
2313.314697 101.777 -152.6361
2330.077881 101.811 -152.7375
2346.962646 101.847 -152.8013
2363.969727 101.886 -152.8403
2381.100098 101.931 -152.8680
2398.354492 101.980 -152.8944
2415.733887 102.034 -152.9282
2433.239258 102.094 -152.9776
2450.871582 102.157 -153.0522
2468.631592 102.223 -153.1618
2486.520264 102.290 -153.3131
2504.538574 102.356 -153.5057
2522.687500 102.420 -153.7314
2540.968018 102.481 -153.9791
2559.380859 102.540 -154.2424
2577.927246 102.597 -154.5233
2596.607910 102.653 -154.8272
2615.424072 102.707 -155.1570
2634.376465 102.757 -155.5101
2653.466309 102.801 -155.8787
2672.694336 102.840 -156.2508
2692.061768 102.873 -156.6131
2711.569580 102.903 -156.9559
2731.218750 102.931 -157.2785
2751.010254 102.960 -157.5883
2770.945312 102.989 -157.8954
2791.024658 103.018 -158.2074
2811.249512 103.048 -158.5277
2831.621094 103.077 -158.8579
2852.140137 103.105 -159.1992
2872.807861 103.131 -159.5518
2893.625488 103.153 -159.9118
2914.593994 103.172 -160.2712
2935.714355 103.189 -160.6220
2956.987793 103.203 -160.9630
2978.415283 103.217 -161.2992
2999.998047 103.231 -161.6377
3021.737305 103.243 -161.9835
3043.634033 103.252 -162.3369
3065.689453 103.258 -162.6926
3087.904785 103.261 -163.0423
3110.281006 103.260 -163.3811
3132.819336 103.257 -163.7095
3155.520996 103.251 -164.0305
3178.387207 103.242 -164.3441
3201.419189 103.229 -164.6452
3224.617920 103.212 -164.9250
3247.984863 103.191 -165.1731
3271.520996 103.166 -165.3779
3295.227783 103.140 -165.5269
3319.106445 103.115 -165.6123
3343.157959 103.094 -165.6373
3367.383789 103.081 -165.6171
3391.785156 103.076 -165.5728
3416.363525 103.080 -165.5238
3441.119873 103.091 -165.4812
3466.055664 103.106 -165.4465
3491.172119 103.127 -165.4164
3516.470703 103.153 -165.3906
3541.952393 103.185 -165.3741
3567.618896 103.223 -165.3748
3593.471436 103.268 -165.4020
3619.511230 103.318 -165.4656
3645.739746 103.372 -165.5739
3672.158203 103.429 -165.7301
3698.768066 103.486 -165.9305
3725.570801 103.544 -166.1707
3752.567871 103.603 -166.4508
3779.760498 103.662 -166.7747
3807.150146 103.720 -167.1456
3834.738281 103.775 -167.5613
3862.526367 103.827 -168.0137
3890.515869 103.877 -168.4953
3918.708252 103.925 -169.0047
3947.104736 103.972 -169.5467
3975.707031 104.017 -170.1297
4004.516602 104.061 -170.7631
4033.534912 104.100 -171.4537
4062.763672 104.133 -172.2014
4092.204102 104.158 -172.9973
4121.857910 104.174 -173.8305
4151.726562 104.180 -174.6924
4181.811523 104.177 -175.5779
4212.114746 104.162 -176.4802
4242.637695 104.137 -177.3881
4273.381836 104.101 -178.2879
4304.348633 104.056 -179.1699
4335.539551 104.003 179.9686
4366.956543 103.943 179.1245
4398.601074 103.877 178.2907
4430.475098 103.805 177.4608
4462.580078 103.724 176.6343
4494.917969 103.635 175.8174
4527.490234 103.536 175.0173
4560.298340 103.428 174.2382
4593.344238 103.310 173.4842
4626.629395 103.181 172.7643
4660.155762 103.042 172.0928
4693.925293 102.893 171.4838
4727.939453 102.736 170.9464
4762.200195 102.573 170.4833
4796.708984 102.407 170.0903
4831.467773 102.239 169.7607
4866.478516 102.067 169.4914
4901.743164 101.892 169.2820
4937.263184 101.715 169.1322
4973.040527 101.535 169.0406
5009.077148 101.352 169.0092
5045.375000 101.165 169.0461
5081.936035 100.977 169.1613
5118.761719 100.787 169.3622
5155.854492 100.599 169.6504
5193.215820 100.415 170.0198
5230.848145 100.236 170.4608
5268.752930 100.063 170.9653
5306.932617 99.895 171.5266
5345.388672 99.733 172.1368
5384.123535 99.576 172.7891
5423.139160 99.423 173.4829
5462.437500 99.273 174.2258
5502.020508 99.126 175.0276
5541.890625 98.984 175.8947
5582.049316 98.849 176.8257
5622.499023 98.723 177.8129
5663.242188 98.605 178.8479
5704.280273 98.497 179.9225
5745.615723 98.398 -178.9726
5787.250977 98.307 -177.8447
5829.187988 98.224 -176.6948
5871.428711 98.147 -175.5177
5913.975586 98.077 -174.3060
5956.830566 98.014 -173.0553
5999.996094 97.961 -171.7653
6043.474609 97.919 -170.4378
6087.268066 97.889 -169.0771
6131.378906 97.871 -167.6933
6175.809570 97.866 -166.2990
6220.562012 97.872 -164.9026
6265.638672 97.889 -163.5051
6311.041992 97.917 -162.1023
6356.774414 97.957 -160.6901
6402.838379 98.009 -159.2679
6449.235840 98.074 -157.8387
6495.969727 98.155 -156.4093
6543.041992 98.250 -154.9907
6590.455566 98.361 -153.5934
6638.212891 98.486 -152.2223
6686.315918 98.627 -150.8770
6734.767578 98.783 -149.5556
6783.570312 98.956 -148.2603
6832.727051 99.148 -146.9978
6882.239746 99.361 -145.7804
6932.111328 99.596 -144.6270
6982.344238 99.855 -143.5599
7032.941406 100.136 -142.6008
7083.904785 100.441 -141.7687
7135.237793 100.770 -141.0842
7186.942871 101.121 -140.5729
7239.022461 101.495 -140.2662
7291.479492 101.890 -140.2024
7344.316406 102.301 -140.4247
7397.536133 102.724 -140.9751
7451.141602 103.148 -141.8865
7505.135742 103.567 -143.1801
7559.520996 103.969 -144.8656
7614.300293 104.343 -146.9406
7669.476562 104.680 -149.3895
7725.052734 104.965 -152.1827
7781.031738 105.189 -155.2717
7837.416504 105.339 -158.5841
7894.209473 105.408 -162.0229
7951.414062 105.390 -165.4739
8009.033203 105.285 -168.8128
8067.069824 105.099 -171.9162
8125.527344 104.842 -174.6739
8184.408203 104.528 -176.9968
8243.715820 104.175 -178.8194
8303.453125 103.801 179.8987
8363.623047 103.427 179.1683
8424.229492 103.076 178.9666
8485.275391 102.766 179.2324
8546.763672 102.517 179.8634
8608.697266 102.340 -179.2745
8671.079102 102.239 -178.3253
8733.913086 102.213 -177.4218
8797.202148 102.253 -176.6697
8860.950195 102.348 -176.1427
8925.160156 102.488 -175.8885
8989.835938 102.662 -175.9360
9054.980469 102.861 -176.2997
9120.596680 103.079 -176.9845
9186.688477 103.311 -177.9928
9253.258789 103.554 -179.3316
9320.311523 103.806 178.9788
9387.850586 104.063 176.9015
9455.878906 104.320 174.3889
9524.400391 104.564 171.3957
9593.417969 104.779 167.8915
9662.935547 104.948 163.8739
9732.957031 105.049 159.3737
9803.486328 105.062 154.4573
9874.526367 104.970 149.2295
9946.081055 104.756 143.8292
10018.154297 104.413 138.4230
10090.750000 103.938 133.1890
10163.872070 103.337 128.2962
10237.523438 102.622 123.8868
10311.708984 101.812 120.0659
10386.431641 100.926 116.9009
10461.696289 99.984 114.4265
10537.505859 99.006 112.6489
10613.865234 98.011 111.5480
10690.777344 97.016 111.0796
10768.247070 96.035 111.1820
10846.278320 95.080 111.7875
10924.875000 94.159 112.8315
11004.041016 93.275 114.2538
11083.781250 92.434 115.9957
11164.098633 91.636 118.0008
11244.998047 90.880 120.2203
11326.484375 90.166 122.6195
11408.560547 89.491 125.1736
11491.231445 88.854 127.8607
11574.501953 88.255 130.6561
11658.375977 87.691 133.5373
11742.857422 87.161 136.4894
11827.951172 86.665 139.5042
11913.661133 86.201 142.5718
11999.992188 85.767 145.6799
12086.949219 85.359 148.8214
12174.536133 84.975 151.9955
12262.757812 84.611 155.1983
12351.619141 84.271 158.4160
12441.124023 83.956 161.6321
12531.277344 83.665 164.8350
12622.083984 83.401 168.0191
12713.548828 83.163 171.1777
12805.676758 82.949 174.2991
12898.471680 82.760 177.3726
12991.939453 82.592 -179.6058
13086.083984 82.445 -176.6395
13180.911133 82.318 -173.7391
13276.425781 82.211 -170.9194
13372.631836 82.124 -168.1898
13469.535156 82.054 -165.5552
13567.140625 82.002 -163.0226
13665.454102 81.965 -160.5995
13764.479492 81.941 -158.2865
13864.222656 81.929 -156.0769
13964.688477 81.929 -153.9655
14065.882812 81.940 -151.9567
14167.809570 81.961 -150.0619
14270.475586 81.992 -148.2923
14373.885742 82.034 -146.6587
14478.044922 82.086 -145.1757
14582.958984 82.149 -143.8604
14688.632812 82.222 -142.7283
14795.072266 82.304 -141.7932
14902.283203 82.395 -141.0680
15010.271484 82.492 -140.5634
15119.041992 82.593 -140.2888
15228.600586 82.700 -140.2579
15338.953125 82.812 -140.4935
15450.105469 82.930 -141.0297
15562.063477 83.053 -141.9135
15674.833008 83.177 -143.2062
15788.418945 83.295 -144.9776
15902.828125 83.394 -147.2945
16018.066406 83.458 -150.2052
16134.139648 83.462 -153.7247
16251.054688 83.381 -157.8172
16368.816406 83.186 -162.3829
16487.431641 82.851 -167.2554
16606.906250 82.358 -172.2144
16727.246094 81.699 -177.0085
16848.458984 80.875 178.6193
16970.550781 79.898 174.9022
17093.527344 78.789 172.0223
17217.394531 77.575 170.0947
17342.158203 76.287 169.1586
17467.826172 74.964 169.1809
17594.404297 73.649 170.0748
17721.900391 72.390 171.7203
17850.320312 71.231 173.9894
17979.671875 70.185 176.7918
18109.960938 69.204 -179.8753
18241.193359 68.198 -175.9624
18373.376953 67.105 -171.5012
18506.517578 65.922 -166.6139
18640.623047 64.684 -161.4144
18775.701172 63.435 -155.9498
18911.757812 62.215 -150.2109
19048.800781 61.051 -144.1783
19186.835938 59.969 -137.8569
19325.871094 58.989 -131.3087
19465.914062 58.123 -124.6732
19606.972656 57.385 -118.1948
19749.052734 56.792 -112.2945
19892.162109 56.371 -107.6285
20036.308594 56.152 -104.9920
