* Measurement data measured by REW V5.30.3
* Source: EXCL: Microphone (Realtek(R) Audio), MICROPHONE (Master Volume), L, volume: 1.000
* Format: 256k Log Swept Sine, 1 sweep at -15.0 dBFS with no timing reference
* Dated: Jan 12, 2024 1:01:20 AM
* REW Settings:
*  C-weighting compensation: Off
*  Target level: 75.0 dB
* Note: TINHIFI T2 MKII L
* Measurement: L TinHifi T2 MK2 Stock
* Smoothing: 1/12 octave
* Frequency Step: 96 ppo
* Start Frequency: 0.36621094 Hz
*
* Freq(Hz) SPL(dB) Phase(degrees)
0.366211 70.796 -26.0872
0.368865 70.790 -26.1071
0.371538 70.782 -26.1368
0.374230 70.771 -26.1744
0.376942 70.759 -26.2180
0.379673 70.747 -26.2661
0.382424 70.734 -26.3179
0.385196 70.720 -26.3728
0.387987 70.706 -26.4306
0.390798 70.693 -26.4911
0.393630 70.678 -26.5542
0.396483 70.664 -26.6198
0.399356 70.650 -26.6880
0.402250 70.636 -26.7587
0.405165 70.621 -26.8321
0.408101 70.606 -26.9080
0.411058 70.592 -26.9865
0.414037 70.577 -27.0677
0.417037 70.562 -27.1514
0.420059 70.547 -27.2379
0.423103 70.532 -27.3270
0.426169 70.517 -27.4188
0.429257 70.501 -27.5133
0.432367 70.486 -27.6106
0.435501 70.470 -27.7106
0.438656 70.454 -27.8133
0.441835 70.439 -27.9188
0.445037 70.423 -28.0270
0.448262 70.407 -28.1380
0.451510 70.390 -28.2518
0.454782 70.374 -28.3684
0.458077 70.358 -28.4878
0.461397 70.341 -28.6100
0.464740 70.325 -28.7350
0.468108 70.308 -28.8628
0.471500 70.291 -28.9934
0.474917 70.274 -29.1268
0.478358 70.257 -29.2630
0.481825 70.240 -29.4019
0.485316 70.222 -29.5437
0.488833 70.205 -29.6882
0.492375 70.187 -29.8355
0.495943 70.169 -29.9855
0.499537 70.151 -30.1382
0.503157 70.133 -30.2936
0.506803 70.115 -30.4517
0.510475 70.097 -30.6125
0.514174 70.079 -30.7758
0.517900 70.060 -30.9417
0.521653 70.041 -31.1102
0.525433 70.023 -31.2812
0.529241 70.004 -31.4546
0.533076 69.984 -31.6304
0.536939 69.965 -31.8086
0.540830 69.946 -31.9890
0.544749 69.926 -32.1717
0.548696 69.907 -32.3566
0.552673 69.887 -32.5435
0.556677 69.867 -32.7325
0.560711 69.847 -32.9233
0.564774 69.827 -33.1160
0.568867 69.806 -33.3104
0.572989 69.786 -33.5065
0.577141 69.765 -33.7041
0.581324 69.744 -33.9030
0.585536 69.723 -34.1033
0.589779 69.702 -34.3047
0.594053 69.681 -34.5071
0.598358 69.660 -34.7104
0.602694 69.638 -34.9144
0.607061 69.616 -35.1189
0.611460 69.594 -35.3238
0.615891 69.572 -35.5288
0.620354 69.550 -35.7338
0.624849 69.528 -35.9387
0.629377 69.505 -36.1430
0.633938 69.483 -36.3467
0.638532 69.460 -36.5495
0.643159 69.437 -36.7512
0.647819 69.413 -36.9514
0.652514 69.390 -37.1499
0.657242 69.367 -37.3464
0.662005 69.343 -37.5406
0.666802 69.319 -37.7322
0.671634 69.295 -37.9209
0.676501 69.271 -38.1062
0.681403 69.246 -38.2879
0.686341 69.222 -38.4655
0.691314 69.197 -38.6387
0.696324 69.172 -38.8071
0.701369 69.146 -38.9703
0.706452 69.121 -39.1279
0.711571 69.094 -39.2798
0.716727 69.067 -39.4256
0.721921 69.039 -39.5656
0.727153 69.009 -39.7001
0.732422 68.977 -39.8298
0.737729 68.943 -39.9555
0.743075 68.906 -40.0784
0.748460 68.866 -40.1993
0.753883 68.824 -40.3189
0.759346 68.780 -40.4375
0.764849 68.734 -40.5554
0.770391 68.687 -40.6725
0.775974 68.637 -40.7891
0.781597 68.586 -40.9048
0.787261 68.534 -41.0197
0.792965 68.480 -41.1337
0.798712 68.424 -41.2465
0.804499 68.367 -41.3580
0.810329 68.309 -41.4681
0.816201 68.249 -41.5764
0.822116 68.189 -41.6830
0.828073 68.126 -41.7874
0.834073 68.063 -41.8895
0.840118 67.999 -41.9890
0.846205 67.933 -42.0856
0.852337 67.867 -42.1791
0.858514 67.799 -42.2692
0.864735 67.731 -42.3555
0.871001 67.662 -42.4377
0.877313 67.592 -42.5153
0.883670 67.522 -42.5880
0.890074 67.451 -42.6555
0.896523 67.380 -42.7171
0.903020 67.308 -42.7726
0.909564 67.236 -42.8212
0.916155 67.164 -42.8626
0.922793 67.092 -42.8962
0.929480 67.020 -42.9212
0.936216 66.948 -42.9373
0.943000 66.877 -42.9435
0.949833 66.806 -42.9393
0.956716 66.736 -42.9240
0.963649 66.666 -42.8966
0.970632 66.597 -42.8565
0.977666 66.530 -42.8027
0.984750 66.463 -42.7344
0.991886 66.398 -42.6507
0.999074 66.334 -42.5505
1.006313 66.272 -42.4329
1.013605 66.212 -42.2969
1.020950 66.154 -42.1413
1.028349 66.099 -41.9650
1.035801 66.046 -41.7670
1.043306 65.995 -41.5461
1.050867 65.947 -41.3011
1.058482 65.903 -41.0307
1.066152 65.861 -40.7336
1.073878 65.823 -40.4086
1.081659 65.789 -40.0540
1.089498 65.758 -39.6682
1.097393 65.730 -39.2493
1.105345 65.705 -38.7955
1.113355 65.684 -38.3048
1.121422 65.664 -37.7757
1.129549 65.648 -37.2070
1.137734 65.633 -36.5980
1.145978 65.621 -35.9484
1.154283 65.611 -35.2583
1.162647 65.604 -34.5278
1.171072 65.598 -33.7575
1.179558 65.596 -32.9481
1.188106 65.595 -32.1006
1.196715 65.597 -31.2164
1.205387 65.602 -30.2970
1.214122 65.609 -29.3441
1.222920 65.618 -28.3598
1.231781 65.631 -27.3466
1.240708 65.646 -26.3070
1.249698 65.664 -25.2441
1.258754 65.684 -24.1611
1.267875 65.708 -23.0613
1.277063 65.735 -21.9486
1.286317 65.764 -20.8269
1.295638 65.797 -19.7001
1.305027 65.833 -18.5726
1.314484 65.872 -17.4486
1.324009 65.915 -16.3325
1.333603 65.961 -15.2285
1.343267 66.010 -14.1410
1.353001 66.063 -13.0742
1.362805 66.120 -12.0320
1.372681 66.180 -11.0185
1.382628 66.244 -10.0372
1.392647 66.311 -9.0915
1.402739 66.383 -8.1843
1.412904 66.459 -7.3181
1.423142 66.539 -6.4946
1.433455 66.624 -5.7149
1.443842 66.714 -4.9788
1.454305 66.809 -4.2845
1.464843 66.910 -3.6292
1.475458 67.018 -3.0088
1.486150 67.133 -2.4193
1.496919 67.256 -1.8576
1.507766 67.387 -1.3217
1.518692 67.526 -0.8106
1.529697 67.672 -0.3239
1.540782 67.826 0.1380
1.551947 67.987 0.5750
1.563193 68.155 0.9865
1.574521 68.329 1.3721
1.585931 68.509 1.7314
1.597423 68.695 2.0641
1.608998 68.886 2.3701
1.620658 69.081 2.6490
1.632402 69.280 2.9008
1.644231 69.483 3.1255
1.656146 69.688 3.3229
1.668147 69.896 3.4932
1.680235 70.105 3.6364
1.692410 70.316 3.7524
1.704674 70.526 3.8415
1.717027 70.736 3.9036
1.729469 70.945 3.9389
1.742002 71.152 3.9474
1.754625 71.357 3.9293
1.767340 71.558 3.8846
1.780147 71.756 3.8137
1.793046 71.950 3.7167
1.806040 72.138 3.5942
1.819127 72.323 3.4470
1.832309 72.504 3.2762
1.845587 72.681 3.0831
1.858961 72.855 2.8693
1.872431 73.027 2.6362
1.886000 73.198 2.3854
1.899666 73.367 2.1180
1.913432 73.534 1.8353
1.927298 73.701 1.5384
1.941264 73.866 1.2281
1.955331 74.030 0.9053
1.969500 74.193 0.5709
1.983772 74.355 0.2256
1.998147 74.515 -0.1301
2.012626 74.674 -0.4955
2.027211 74.832 -0.8701
2.041901 74.989 -1.2535
2.056697 75.145 -1.6454
2.071601 75.299 -2.0454
2.086613 75.452 -2.4534
2.101733 75.604 -2.8692
2.116963 75.755 -3.2929
2.132303 75.904 -3.7247
2.147755 76.051 -4.1648
2.163318 76.197 -4.6139
2.178995 76.342 -5.0727
2.194785 76.485 -5.5422
2.210689 76.626 -6.0235
2.226709 76.765 -6.5172
2.242844 76.902 -7.0237
2.259097 77.036 -7.5425
2.275467 77.169 -8.0729
2.291956 77.299 -8.6138
2.308565 77.428 -9.1638
2.325294 77.554 -9.7218
2.342144 77.678 -10.2862
2.359116 77.801 -10.8557
2.376211 77.921 -11.4292
2.393430 78.040 -12.0052
2.410774 78.157 -12.5828
2.428243 78.273 -13.1609
2.445839 78.387 -13.7384
2.463562 78.499 -14.3146
2.481415 78.611 -14.8890
2.499396 78.721 -15.4612
2.517508 78.830 -16.0316
2.535750 78.938 -16.6007
2.554126 79.044 -17.1700
2.572634 79.149 -17.7413
2.591276 79.252 -18.3167
2.610054 79.353 -18.8976
2.628967 79.452 -19.4848
2.648018 79.549 -20.0782
2.667206 79.644 -20.6771
2.686534 79.737 -21.2803
2.706002 79.828 -21.8865
2.725610 79.917 -22.4941
2.745361 80.005 -23.1013
2.765255 80.091 -23.7066
2.785294 80.175 -24.3081
2.805477 80.258 -24.9043
2.825807 80.340 -25.4937
2.846284 80.420 -26.0749
2.866909 80.500 -26.6469
2.887684 80.578 -27.2095
2.908609 80.655 -27.7628
2.929686 80.731 -28.3078
2.950916 80.806 -28.8463
2.972299 80.879 -29.3800
2.993838 80.950 -29.9102
3.015532 81.019 -30.4376
3.037384 81.087 -30.9622
3.059394 81.153 -31.4838
3.081564 81.217 -32.0014
3.103894 81.280 -32.5140
3.126386 81.343 -33.0206
3.149041 81.404 -33.5198
3.171861 81.464 -34.0102
3.194845 81.524 -34.4906
3.217996 81.584 -34.9598
3.241315 81.643 -35.4167
3.264803 81.702 -35.8606
3.288461 81.761 -36.2915
3.312291 81.820 -36.7097
3.336293 81.877 -37.1157
3.360469 81.934 -37.5105
3.384820 81.991 -37.8948
3.409348 82.046 -38.2692
3.434054 82.102 -38.6340
3.458938 82.157 -38.9896
3.484003 82.211 -39.3361
3.509250 82.267 -39.6734
3.534679 82.322 -40.0015
3.560293 82.379 -40.3201
3.586092 82.436 -40.6290
3.612079 82.494 -40.9275
3.638253 82.554 -41.2151
3.664618 82.615 -41.4910
3.691173 82.677 -41.7548
3.717921 82.741 -42.0063
3.744862 82.805 -42.2460
3.771999 82.871 -42.4749
3.799332 82.937 -42.6943
3.826864 83.005 -42.9061
3.854595 83.074 -43.1120
3.882527 83.145 -43.3139
3.910661 83.217 -43.5136
3.938999 83.291 -43.7125
3.967543 83.367 -43.9117
3.996294 83.444 -44.1116
4.025252 83.524 -44.3120
4.054421 83.606 -44.5122
4.083801 83.690 -44.7115
4.113394 83.776 -44.9099
4.143201 83.864 -45.1079
4.173225 83.954 -45.3067
4.203466 84.046 -45.5081
4.233926 84.139 -45.7141
4.264606 84.233 -45.9266
4.295509 84.329 -46.1477
4.326636 84.426 -46.3788
4.357989 84.523 -46.6210
4.389569 84.622 -46.8746
4.421378 84.722 -47.1394
4.453417 84.823 -47.4148
4.485688 84.925 -47.7001
4.518193 85.028 -47.9950
4.550934 85.131 -48.2996
4.583912 85.235 -48.6141
4.617129 85.340 -48.9390
4.650587 85.444 -49.2750
4.684287 85.548 -49.6227
4.718231 85.651 -49.9828
4.752421 85.753 -50.3558
4.786859 85.855 -50.7418
4.821547 85.955 -51.1407
4.856485 86.055 -51.5517
4.891677 86.155 -51.9738
4.927125 86.253 -52.4056
4.962829 86.350 -52.8457
4.998791 86.446 -53.2930
5.035015 86.540 -53.7465
5.071500 86.633 -54.2056
5.108251 86.723 -54.6704
5.145267 86.812 -55.1410
5.182552 86.899 -55.6176
5.220107 86.983 -56.1001
5.257934 87.066 -56.5873
5.296035 87.147 -57.0777
5.334412 87.226 -57.5691
5.373067 87.303 -58.0596
5.412003 87.378 -58.5472
5.451221 87.451 -59.0309
5.490722 87.522 -59.5099
5.530510 87.591 -59.9844
5.570587 87.658 -60.4544
5.610953 87.723 -60.9198
5.651613 87.786 -61.3796
5.692567 87.848 -61.8325
5.733818 87.908 -62.2767
5.775367 87.967 -62.7105
5.817218 88.024 -63.1327
5.859372 88.081 -63.5424
5.901831 88.137 -63.9393
5.944598 88.191 -64.3235
5.987675 88.245 -64.6952
6.031065 88.298 -65.0545
6.074768 88.351 -65.4012
6.118788 88.404 -65.7350
6.163127 88.457 -66.0554
6.207788 88.510 -66.3620
6.252772 88.564 -66.6547
6.298082 88.619 -66.9336
6.343721 88.675 -67.1994
6.389690 88.731 -67.4532
6.435992 88.789 -67.6964
6.482630 88.848 -67.9303
6.529606 88.909 -68.1560
6.576922 88.971 -68.3743
6.624581 89.036 -68.5859
6.672585 89.102 -68.7913
6.720938 89.170 -68.9915
6.769640 89.240 -69.1883
6.818696 89.312 -69.3835
6.868107 89.386 -69.5791
6.917876 89.461 -69.7767
6.968006 89.539 -69.9776
7.018499 89.618 -70.1823
7.069358 89.699 -70.3917
7.120586 89.781 -70.6064
7.172184 89.865 -70.8278
7.224157 89.950 -71.0571
7.276506 90.036 -71.2953
7.329235 90.123 -71.5435
7.382345 90.211 -71.8018
7.435841 90.299 -72.0703
7.489724 90.387 -72.3491
7.543997 90.476 -72.6380
7.598664 90.564 -72.9371
7.653728 90.653 -73.2464
7.709189 90.740 -73.5657
7.765053 90.828 -73.8949
7.821322 90.914 -74.2335
7.877998 91.000 -74.5805
7.935086 91.085 -74.9353
7.992587 91.169 -75.2968
8.050504 91.251 -75.6645
8.108841 91.332 -76.0377
8.167601 91.412 -76.4159
8.226787 91.491 -76.7980
8.286402 91.568 -77.1831
8.346449 91.644 -77.5702
8.406931 91.719 -77.9581
8.467851 91.792 -78.3462
8.529212 91.864 -78.7339
8.591018 91.934 -79.1206
8.653272 92.003 -79.5053
8.715977 92.071 -79.8872
8.779137 92.138 -80.2655
8.842754 92.204 -80.6398
8.906833 92.269 -81.0096
8.971375 92.333 -81.3745
9.036386 92.396 -81.7341
9.101867 92.458 -82.0880
9.167823 92.520 -82.4359
9.234257 92.581 -82.7776
9.301172 92.642 -83.1132
9.368572 92.703 -83.4426
9.436460 92.764 -83.7661
9.504841 92.825 -84.0837
9.573717 92.885 -84.3957
9.643092 92.946 -84.7024
9.712970 93.008 -85.0042
9.783354 93.069 -85.3019
9.854248 93.131 -85.5961
9.925656 93.194 -85.8873
9.997581 93.257 -86.1762
10.070028 93.320 -86.4636
10.143000 93.385 -86.7503
10.216500 93.449 -87.0372
10.290533 93.515 -87.3252
10.365103 93.581 -87.6148
10.440212 93.647 -87.9069
10.515866 93.713 -88.2020
10.592069 93.780 -88.5007
10.668823 93.847 -88.8036
10.746134 93.914 -89.1110
10.824005 93.981 -89.4228
10.902440 94.047 -89.7392
10.981443 94.113 -90.0601
11.061020 94.179 -90.3851
11.141172 94.244 -90.7139
11.221906 94.308 -91.0458
11.303225 94.371 -91.3801
11.385133 94.433 -91.7159
11.467634 94.494 -92.0526
11.550734 94.554 -92.3891
11.634435 94.613 -92.7245
11.718742 94.672 -93.0580
11.803661 94.729 -93.3888
11.889195 94.786 -93.7162
11.975349 94.842 -94.0398
12.062128 94.898 -94.3593
12.149535 94.954 -94.6743
12.237576 95.009 -94.9850
12.326254 95.064 -95.2917
12.415575 95.120 -95.5950
12.505544 95.175 -95.8953
12.596164 95.231 -96.1935
12.687441 95.288 -96.4903
12.779379 95.344 -96.7868
12.871984 95.401 -97.0838
12.965260 95.459 -97.3821
13.059211 95.516 -97.6822
13.153843 95.574 -97.9848
13.249161 95.631 -98.2901
13.345170 95.688 -98.5981
13.441875 95.745 -98.9087
13.539280 95.802 -99.2213
13.637391 95.857 -99.5356
13.736214 95.913 -99.8507
13.835752 95.967 -100.1659
13.936011 96.022 -100.4803
14.036998 96.075 -100.7934
14.138716 96.129 -101.1046
14.241171 96.182 -101.4137
14.344368 96.235 -101.7208
14.448313 96.289 -102.0262
14.553011 96.342 -102.3307
14.658468 96.397 -102.6355
14.764689 96.451 -102.9418
14.871680 96.506 -103.2512
14.979446 96.562 -103.5655
15.087994 96.618 -103.8861
15.197328 96.674 -104.2146
15.307454 96.730 -104.5519
15.418378 96.786 -104.8987
15.530106 96.840 -105.2551
15.642643 96.894 -105.6206
15.755996 96.945 -105.9938
15.870171 96.995 -106.3731
15.985172 97.042 -106.7562
16.101007 97.087 -107.1402
16.217682 97.130 -107.5222
16.335201 97.171 -107.8992
16.453573 97.209 -108.2684
16.572803 97.246 -108.6273
16.692898 97.281 -108.9742
16.813862 97.316 -109.3080
16.935701 97.351 -109.6286
17.058424 97.386 -109.9369
17.182035 97.422 -110.2348
17.306543 97.460 -110.5249
17.431953 97.499 -110.8106
17.558273 97.540 -111.0956
17.685509 97.583 -111.3837
17.813665 97.627 -111.6785
17.942751 97.673 -111.9830
18.072771 97.718 -112.2995
18.203733 97.764 -112.6291
18.335646 97.809 -112.9719
18.468513 97.853 -113.3268
18.602345 97.895 -113.6915
18.737144 97.934 -114.0629
18.872921 97.972 -114.4373
19.009682 98.006 -114.8106
19.147434 98.038 -115.1786
19.286184 98.068 -115.5376
19.425940 98.097 -115.8843
19.566708 98.124 -116.2164
19.708496 98.151 -116.5327
19.851313 98.178 -116.8331
19.995163 98.205 -117.1184
20.140057 98.234 -117.3907
20.285999 98.265 -117.6528
20.433001 98.298 -117.9079
20.581066 98.333 -118.1595
20.730206 98.370 -118.4109
20.880424 98.409 -118.6649
21.031733 98.449 -118.9237
21.184137 98.489 -119.1884
21.337646 98.531 -119.4594
21.492268 98.572 -119.7360
21.648010 98.613 -120.0169
21.804880 98.654 -120.3000
21.962887 98.694 -120.5832
22.122040 98.733 -120.8642
22.282345 98.772 -121.1412
22.443811 98.812 -121.4131
22.606449 98.851 -121.6795
22.770266 98.891 -121.9413
22.935268 98.932 -122.2000
23.101467 98.975 -122.4584
23.268869 99.018 -122.7196
23.437485 99.063 -122.9871
23.607323 99.108 -123.2641
23.778391 99.153 -123.5533
23.950699 99.198 -123.8559
24.124256 99.241 -124.1721
24.299070 99.282 -124.5001
24.475151 99.319 -124.8369
24.652508 99.354 -125.1782
24.831150 99.385 -125.5189
25.011087 99.413 -125.8537
25.192327 99.437 -126.1777
25.374882 99.458 -126.4871
25.558758 99.478 -126.7799
25.743967 99.497 -127.0555
25.930519 99.515 -127.3154
26.118422 99.534 -127.5622
26.307686 99.553 -127.7994
26.498322 99.573 -128.0305
26.690340 99.593 -128.2581
26.883749 99.613 -128.4837
27.078560 99.633 -128.7075
27.274782 99.653 -128.9283
27.472427 99.674 -129.1447
27.671503 99.694 -129.3556
27.872023 99.717 -129.5615
28.073996 99.741 -129.7651
28.277431 99.768 -129.9720
28.482342 99.798 -130.1895
28.688736 99.831 -130.4265
28.896626 99.867 -130.6913
29.106022 99.903 -130.9897
29.316936 99.938 -131.3239
29.529379 99.970 -131.6907
29.743361 99.998 -132.0821
29.958893 100.019 -132.4857
30.175987 100.034 -132.8867
30.394655 100.044 -133.2701
30.614908 100.050 -133.6232
30.836756 100.055 -133.9379
31.060211 100.060 -134.2122
31.285286 100.068 -134.4504
31.511992 100.081 -134.6623
31.740341 100.101 -134.8609
31.970345 100.126 -135.0600
32.202015 100.156 -135.2716
32.435364 100.189 -135.5039
32.670403 100.224 -135.7606
32.907146 100.260 -136.0411
33.145607 100.294 -136.3414
33.385796 100.325 -136.6557
33.627724 100.355 -136.9778
33.871403 100.381 -137.3017
34.116848 100.405 -137.6226
34.364071 100.427 -137.9370
34.613087 100.446 -138.2421
34.863907 100.464 -138.5364
35.116547 100.480 -138.8190
35.371017 100.495 -139.0893
35.627331 100.508 -139.3474
35.885502 100.521 -139.5928
36.145542 100.533 -139.8245
36.407467 100.543 -140.0405
36.671291 100.554 -140.2383
36.937027 100.565 -140.4158
37.204689 100.577 -140.5730
37.474289 100.592 -140.7135
37.745842 100.610 -140.8456
38.019363 100.633 -140.9811
38.294868 100.660 -141.1333
38.572369 100.689 -141.3130
38.851879 100.718 -141.5248
39.133415 100.745 -141.7657
39.416992 100.768 -142.0256
39.702625 100.785 -142.2904
39.990326 100.799 -142.5474
40.280113 100.809 -142.7891
40.571999 100.819 -143.0150
40.866001 100.829 -143.2303
41.162132 100.838 -143.4417
41.460411 100.846 -143.6528
41.760849 100.853 -143.8611
42.063465 100.857 -144.0589
42.368275 100.858 -144.2371
42.675293 100.860 -144.3902
42.984535 100.863 -144.5199
43.296021 100.869 -144.6350
43.609760 100.880 -144.7486
43.925774 100.894 -144.8733
44.244080 100.909 -145.0172
44.564690 100.926 -145.1834
44.887623 100.942 -145.3704
45.212898 100.956 -145.5738
45.540531 100.968 -145.7873
45.870537 100.978 -146.0027
46.202934 100.987 -146.2112
46.537739 100.995 -146.4053
46.874969 101.004 -146.5831
47.214645 101.017 -146.7502
47.556782 101.035 -146.9191
47.901398 101.056 -147.1035
48.248512 101.080 -147.3136
48.598141 101.105 -147.5523
48.950302 101.129 -147.8170
49.305016 101.150 -148.1027
49.662300 101.167 -148.4036
50.022175 101.180 -148.7098
50.384655 101.187 -149.0034
50.749763 101.187 -149.2585
51.117516 101.185 -149.4504
51.487934 101.185 -149.5697
51.861038 101.195 -149.6341
52.236843 101.218 -149.6858
52.615372 101.252 -149.7732
52.996643 101.291 -149.9278
53.380680 101.330 -150.1507
53.767498 101.362 -150.4184
54.157120 101.389 -150.7007
54.549564 101.411 -150.9784
54.944855 101.431 -151.2488
55.343006 101.450 -151.5172
55.744045 101.467 -151.7854
56.147991 101.480 -152.0450
56.554863 101.492 -152.2822
56.964684 101.503 -152.4889
57.377472 101.518 -152.6715
57.793251 101.538 -152.8514
58.212044 101.561 -153.0557
58.633873 101.585 -153.3039
59.058758 101.603 -153.5958
59.486721 101.611 -153.9077
59.917786 101.607 -154.2002
60.351974 101.593 -154.4357
60.789310 101.575 -154.5961
61.229816 101.559 -154.6907
61.673512 101.547 -154.7478
62.120422 101.538 -154.7947
62.570572 101.530 -154.8411
63.023983 101.522 -154.8797
63.480682 101.515 -154.9010
63.940689 101.513 -154.9102
64.404030 101.519 -154.9316
64.870728 101.532 -154.9963
65.340805 101.549 -155.1262
65.814293 101.568 -155.3254
66.291214 101.586 -155.5861
66.771591 101.601 -155.8961
67.255447 101.612 -156.2402
67.742805 101.617 -156.5933
68.233696 101.617 -156.9186
68.728142 101.614 -157.1794
69.226173 101.614 -157.3590
69.727814 101.623 -157.4722
70.233093 101.643 -157.5549
70.742035 101.671 -157.6409
71.254662 101.700 -157.7438
71.771004 101.727 -157.8571
72.291084 101.750 -157.9669
72.814934 101.767 -158.0639
73.342583 101.780 -158.1476
73.874054 101.789 -158.2231
74.409378 101.794 -158.2956
74.948578 101.797 -158.3668
75.491684 101.800 -158.4386
76.038727 101.805 -158.5182
76.589737 101.814 -158.6190
77.144737 101.826 -158.7511
77.703758 101.840 -158.9115
78.266830 101.854 -159.0843
78.833984 101.869 -159.2521
79.405251 101.884 -159.4060
79.980652 101.899 -159.5454
80.560226 101.911 -159.6729
81.143997 101.921 -159.7958
81.732002 101.926 -159.9286
82.324265 101.925 -160.0876
82.920822 101.916 -160.2796
83.521698 101.899 -160.4994
84.126930 101.878 -160.7381
84.736549 101.859 -160.9915
85.350586 101.847 -161.2551
85.969070 101.848 -161.5180
86.592041 101.867 -161.7612
87.219521 101.905 -161.9552
87.851547 101.963 -162.0533
88.488159 102.044 -162.0002
89.129379 102.152 -161.7660
89.775246 102.289 -161.3725
90.425797 102.453 -160.8941
91.081062 102.634 -160.4585
91.741074 102.809 -160.2315
92.405869 102.943 -160.3227
93.075478 102.996 -160.6622
93.749939 102.953 -161.0091
94.429291 102.835 -161.1350
95.113564 102.684 -161.0122
95.802795 102.535 -160.8126
96.497025 102.403 -160.7379
97.196281 102.285 -160.8827
97.900604 102.177 -161.2256
98.610031 102.079 -161.6818
99.324600 101.995 -162.1615
100.044350 101.933 -162.6138
100.769310 101.897 -163.0296
101.499527 101.880 -163.4068
102.235031 101.878 -163.7260
102.975868 101.884 -163.9681
103.722076 101.898 -164.1443
104.473686 101.914 -164.2961
105.230743 101.925 -164.4593
105.993286 101.924 -164.6345
106.761360 101.907 -164.7936
107.534996 101.877 -164.9055
108.314240 101.841 -164.9544
109.099129 101.809 -164.9546
109.889709 101.792 -164.9569
110.686012 101.793 -165.0226
111.488091 101.813 -165.1759
112.295982 101.850 -165.3866
113.109726 101.907 -165.5966
113.929367 101.982 -165.7460
114.754944 102.076 -165.7732
115.586502 102.186 -165.6245
116.424088 102.312 -165.2902
117.267746 102.450 -164.8368
118.117516 102.587 -164.4031
118.973442 102.702 -164.1534
119.835571 102.765 -164.1755
120.703949 102.754 -164.3979
121.578621 102.671 -164.6599
122.459633 102.543 -164.8657
123.347023 102.402 -165.0255
124.240845 102.270 -165.1827
125.141144 102.163 -165.3589
126.047966 102.086 -165.5462
126.961365 102.035 -165.7184
127.881378 102.007 -165.8506
128.808060 101.993 -165.9286
129.741455 101.989 -165.9504
130.681610 101.995 -165.9521
131.628586 102.011 -166.0138
132.582428 102.029 -166.2084
133.543182 102.044 -166.5490
134.510895 102.047 -166.9879
135.485611 102.039 -167.4500
136.467392 102.021 -167.8691
137.456284 102.003 -168.2190
138.452347 101.988 -168.5210
139.455627 101.979 -168.8143
140.466187 101.974 -169.1147
141.484070 101.971 -169.4038
142.509323 101.970 -169.6371
143.542007 101.970 -169.7519
144.582169 101.974 -169.6994
145.629868 101.986 -169.4856
146.685165 102.004 -169.1631
147.748108 102.029 -168.8098
148.818756 102.058 -168.5215
149.897156 102.088 -168.3879
150.983368 102.115 -168.4492
152.077454 102.134 -168.6829
153.179474 102.145 -169.0316
154.289474 102.144 -169.4131
155.407516 102.131 -169.7113
156.533661 102.112 -169.8294
157.667969 102.098 -169.7661
158.810501 102.098 -169.5996
159.961304 102.110 -169.4223
161.120453 102.131 -169.2900
162.287994 102.155 -169.1915
163.464005 102.182 -169.0692
164.648529 102.218 -168.8974
165.841644 102.263 -168.7266
167.043396 102.308 -168.6248
168.253860 102.341 -168.5983
169.473099 102.358 -168.6084
170.701172 102.363 -168.6333
171.938141 102.362 -168.6790
173.184082 102.358 -168.7500
174.439041 102.354 -168.8340
175.703094 102.352 -168.9208
176.976318 102.354 -169.0204
178.258759 102.356 -169.1522
179.550491 102.357 -169.3223
180.851593 102.356 -169.5151
182.162125 102.353 -169.7068
183.482147 102.350 -169.8796
184.811737 102.348 -170.0238
186.150955 102.344 -170.1372
187.499878 102.338 -170.2250
188.858582 102.330 -170.2992
190.227127 102.319 -170.3689
191.605591 102.309 -170.4350
192.994049 102.303 -170.4986
194.392563 102.303 -170.5647
195.801208 102.311 -170.6367
197.220062 102.326 -170.7108
198.649200 102.349 -170.7759
200.088699 102.378 -170.8200
201.538620 102.413 -170.8400
202.999054 102.449 -170.8476
204.470062 102.480 -170.8661
205.951736 102.497 -170.9117
207.444153 102.496 -170.9790
208.947372 102.479 -171.0576
210.461487 102.455 -171.1469
211.986572 102.429 -171.2473
213.522720 102.407 -171.3528
215.069992 102.388 -171.4557
216.628479 102.373 -171.5514
218.198257 102.362 -171.6391
219.779419 102.354 -171.7218
221.372025 102.350 -171.8043
222.976181 102.351 -171.8892
224.591965 102.354 -171.9782
226.219452 102.360 -172.0731
227.858734 102.365 -172.1751
229.509888 102.370 -172.2806
231.173004 102.374 -172.3799
232.848175 102.377 -172.4621
234.535492 102.378 -172.5218
236.235031 102.378 -172.5614
237.946884 102.377 -172.5911
239.671143 102.375 -172.6249
241.407898 102.371 -172.6746
243.157242 102.365 -172.7472
244.919266 102.358 -172.8425
246.694046 102.348 -172.9517
248.481689 102.339 -173.0604
250.282288 102.332 -173.1537
252.095932 102.329 -173.2226
253.922729 102.330 -173.2641
255.762756 102.334 -173.2841
257.616119 102.342 -173.2970
259.482910 102.351 -173.3212
261.363220 102.360 -173.3679
263.257172 102.368 -173.4371
265.164856 102.373 -173.5218
267.086365 102.375 -173.6124
269.021790 102.373 -173.6963
270.971222 102.368 -173.7606
272.934784 102.360 -173.8002
274.912567 102.352 -173.8189
276.904694 102.345 -173.8246
278.911255 102.342 -173.8266
280.932373 102.344 -173.8326
282.968140 102.350 -173.8485
285.018646 102.358 -173.8822
287.084015 102.368 -173.9417
289.164337 102.377 -174.0311
291.259735 102.386 -174.1481
293.370331 102.392 -174.2826
295.496216 102.395 -174.4186
297.637512 102.394 -174.5415
299.794312 102.391 -174.6440
301.966736 102.386 -174.7263
304.154907 102.381 -174.7951
306.358948 102.375 -174.8608
308.578949 102.369 -174.9329
310.815033 102.362 -175.0161
313.067322 102.354 -175.1087
315.335938 102.344 -175.2039
317.621002 102.334 -175.2931
319.922607 102.325 -175.3702
322.240906 102.316 -175.4341
324.575989 102.309 -175.4878
326.928009 102.304 -175.5354
329.297058 102.302 -175.5809
331.683289 102.301 -175.6275
334.086792 102.300 -175.6760
336.507721 102.298 -175.7238
338.946198 102.296 -175.7668
341.402344 102.293 -175.8029
343.876282 102.289 -175.8344
346.368164 102.284 -175.8659
348.878082 102.278 -175.9026
351.406189 102.272 -175.9476
353.952637 102.265 -176.0001
356.517517 102.259 -176.0549
359.100983 102.253 -176.1063
361.703186 102.246 -176.1521
364.324249 102.240 -176.1951
366.964294 102.233 -176.2400
369.623474 102.226 -176.2893
372.301910 102.218 -176.3428
374.999756 102.209 -176.3983
377.717163 102.200 -176.4520
380.454254 102.189 -176.5005
383.211182 102.178 -176.5420
385.988098 102.167 -176.5766
388.785126 102.157 -176.6044
391.602417 102.148 -176.6266
394.440125 102.140 -176.6456
397.298401 102.134 -176.6637
400.177399 102.129 -176.6823
403.077240 102.125 -176.7022
405.998108 102.121 -176.7232
408.940125 102.115 -176.7449
411.903473 102.109 -176.7665
414.888306 102.101 -176.7853
417.894745 102.092 -176.7972
420.922974 102.083 -176.8006
423.973145 102.075 -176.7987
427.045441 102.067 -176.7973
430.139984 102.060 -176.7997
433.256958 102.054 -176.8060
436.396515 102.049 -176.8144
439.558838 102.044 -176.8244
442.744049 102.040 -176.8376
445.952362 102.036 -176.8583
449.183929 102.032 -176.8913
452.438904 102.029 -176.9412
455.717468 102.026 -177.0099
459.019775 102.020 -177.0930
462.346008 102.012 -177.1792
465.696350 102.001 -177.2548
469.070984 101.988 -177.3120
472.470062 101.975 -177.3506
475.893768 101.961 -177.3745
479.342285 101.947 -177.3888
482.815796 101.933 -177.3987
486.314484 101.919 -177.4066
489.838531 101.902 -177.4097
493.388092 101.885 -177.4027
496.963379 101.867 -177.3832
500.564575 101.850 -177.3537
504.191864 101.834 -177.3208
507.845459 101.819 -177.2919
511.525513 101.805 -177.2724
515.232239 101.791 -177.2625
518.965820 101.776 -177.2575
522.726440 101.760 -177.2499
526.514343 101.743 -177.2330
530.329712 101.727 -177.2050
534.172729 101.711 -177.1694
538.043579 101.698 -177.1316
541.942444 101.685 -177.0927
545.869568 101.672 -177.0489
549.825134 101.660 -176.9976
553.809387 101.647 -176.9413
557.822510 101.633 -176.8862
561.864746 101.620 -176.8371
565.936279 101.606 -176.7931
570.037292 101.591 -176.7485
574.168030 101.575 -176.6971
578.328674 101.558 -176.6356
582.519470 101.541 -176.5648
586.740662 101.523 -176.4868
590.992432 101.504 -176.4021
595.275024 101.486 -176.3111
599.588623 101.469 -176.2161
603.933472 101.452 -176.1214
608.309814 101.437 -176.0284
612.717896 101.421 -175.9353
617.157898 101.405 -175.8360
621.630066 101.389 -175.7231
626.134644 101.372 -175.5919
630.671875 101.356 -175.4433
635.242004 101.342 -175.2833
639.845215 101.329 -175.1185
644.481812 101.317 -174.9513
649.151978 101.307 -174.7807
653.856018 101.299 -174.6086
658.594116 101.294 -174.4425
663.366577 101.292 -174.2940
668.173584 101.290 -174.1709
673.015442 101.288 -174.0714
677.892395 101.284 -173.9861
682.804688 101.278 -173.9046
687.752563 101.270 -173.8186
692.736328 101.259 -173.7211
697.756165 101.247 -173.6073
702.812378 101.234 -173.4765
707.905273 101.222 -173.3319
713.035034 101.211 -173.1782
718.201965 101.200 -173.0186
723.406372 101.190 -172.8539
728.648499 101.180 -172.6840
733.928589 101.170 -172.5093
739.246948 101.160 -172.3305
744.603821 101.151 -172.1470
749.999512 101.142 -171.9575
755.434326 101.134 -171.7608
760.908508 101.126 -171.5566
766.422363 101.120 -171.3448
771.976196 101.115 -171.1264
777.570251 101.110 -170.9026
783.204834 101.107 -170.6738
788.880249 101.104 -170.4387
794.596802 101.102 -170.1944
800.354797 101.102 -169.9396
806.154480 101.104 -169.6765
811.996216 101.110 -169.4113
817.880249 101.119 -169.1517
823.806946 101.132 -168.9055
829.776611 101.146 -168.6793
835.789490 101.160 -168.4752
841.845947 101.173 -168.2878
847.946289 101.184 -168.1082
854.090881 101.193 -167.9289
860.279968 101.201 -167.7466
866.513916 101.208 -167.5589
872.793030 101.216 -167.3627
879.117676 101.224 -167.1581
885.488098 101.234 -166.9485
891.904724 101.245 -166.7372
898.367859 101.256 -166.5237
904.877808 101.269 -166.3062
911.434937 101.283 -166.0848
918.039551 101.298 -165.8628
924.692017 101.315 -165.6441
931.392700 101.334 -165.4331
938.141968 101.354 -165.2346
944.940125 101.375 -165.0509
951.787537 101.396 -164.8815
958.684570 101.415 -164.7239
965.631592 101.434 -164.5740
972.628967 101.451 -164.4266
979.677063 101.467 -164.2768
986.776184 101.481 -164.1205
993.926758 101.494 -163.9526
1001.129150 101.507 -163.7659
1008.383728 101.521 -163.5550
1015.690918 101.537 -163.3205
1023.051025 101.558 -163.0693
1030.464478 101.583 -162.8127
1037.931641 101.614 -162.5664
1045.452881 101.650 -162.3470
1053.028687 101.687 -162.1637
1060.659424 101.725 -162.0156
1068.345459 101.761 -161.8951
1076.087158 101.796 -161.7928
1083.884888 101.830 -161.7022
1091.739136 101.862 -161.6213
1099.650269 101.893 -161.5499
1107.618774 101.924 -161.4865
1115.645020 101.953 -161.4289
1123.729492 101.982 -161.3750
1131.872559 102.009 -161.3241
1140.074585 102.035 -161.2764
1148.336060 102.060 -161.2320
1156.657349 102.084 -161.1907
1165.038940 102.107 -161.1514
1173.481323 102.129 -161.1122
1181.984863 102.152 -161.0728
1190.550049 102.175 -161.0374
1199.177246 102.200 -161.0164
1207.866943 102.224 -161.0208
1216.619629 102.246 -161.0561
1225.435791 102.264 -161.1182
1234.315796 102.277 -161.1969
1243.260132 102.283 -161.2809
1252.269287 102.284 -161.3592
1261.343750 102.278 -161.4238
1270.484009 102.267 -161.4695
1279.690430 102.250 -161.4906
1288.963623 102.229 -161.4796
1298.303955 102.205 -161.4303
1307.712036 102.178 -161.3391
1317.188232 102.149 -161.2048
1326.733154 102.120 -161.0274
1336.347168 102.091 -160.8058
1346.030884 102.063 -160.5385
1355.784790 102.037 -160.2248
1365.609375 102.014 -159.8654
1375.505127 101.995 -159.4609
1385.472656 101.982 -159.0124
1395.512329 101.977 -158.5257
1405.624756 101.981 -158.0128
1415.810547 101.994 -157.4925
1426.070068 102.017 -156.9861
1436.403931 102.046 -156.5086
1446.812744 102.081 -156.0645
1457.296997 102.118 -155.6506
1467.857178 102.157 -155.2616
1478.493896 102.198 -154.8933
1489.207642 102.239 -154.5416
1499.999023 102.280 -154.2026
1510.868652 102.321 -153.8716
1521.817017 102.363 -153.5439
1532.844727 102.405 -153.2155
1543.952393 102.448 -152.8828
1555.140503 102.493 -152.5446
1566.409668 102.542 -152.2047
1577.760498 102.596 -151.8732
1589.193604 102.653 -151.5630
1600.709595 102.712 -151.2818
1612.308960 102.771 -151.0290
1623.992432 102.829 -150.7989
1635.760498 102.885 -150.5840
1647.613892 102.940 -150.3775
1659.553223 102.994 -150.1743
1671.578979 103.046 -149.9706
1683.691895 103.099 -149.7651
1695.892578 103.151 -149.5589
1708.181763 103.203 -149.3531
1720.559937 103.255 -149.1474
1733.027832 103.306 -148.9388
1745.586060 103.357 -148.7219
1758.235352 103.408 -148.4896
1770.976196 103.460 -148.2360
1783.809448 103.515 -147.9620
1796.735718 103.574 -147.6772
1809.755615 103.638 -147.3962
1822.869873 103.706 -147.1295
1836.079102 103.776 -146.8802
1849.384033 103.848 -146.6468
1862.785400 103.921 -146.4259
1876.283936 103.995 -146.2130
1889.880249 104.069 -146.0023
1903.575073 104.143 -145.7878
1917.369141 104.220 -145.5644
1931.263184 104.299 -145.3300
1945.257935 104.382 -145.0875
1959.354126 104.472 -144.8474
1973.552368 104.568 -144.6237
1987.853516 104.669 -144.4273
2002.258301 104.774 -144.2615
2016.767456 104.881 -144.1249
2031.381836 104.991 -144.0154
2046.102051 105.104 -143.9325
2060.928955 105.219 -143.8792
2075.863281 105.338 -143.8617
2090.905762 105.459 -143.8878
2106.057373 105.581 -143.9626
2121.318848 105.702 -144.0860
2136.690918 105.821 -144.2524
2152.174316 105.938 -144.4527
2167.769775 106.053 -144.6812
2183.478271 106.166 -144.9392
2199.300537 106.277 -145.2323
2215.237549 106.385 -145.5631
2231.290039 106.488 -145.9287
2247.458984 106.585 -146.3216
2263.745117 106.676 -146.7309
2280.149170 106.760 -147.1429
2296.672119 106.838 -147.5422
2313.314697 106.912 -147.9146
2330.077881 106.985 -148.2517
2346.962646 107.060 -148.5558
2363.969727 107.140 -148.8377
2381.100098 107.225 -149.1106
2398.354492 107.316 -149.3872
2415.733887 107.415 -149.6805
2433.239258 107.520 -150.0049
2450.871582 107.632 -150.3764
2468.631592 107.750 -150.8117
2486.520264 107.870 -151.3239
2504.538574 107.990 -151.9181
2522.687500 108.107 -152.5907
2540.968018 108.220 -153.3339
2559.380859 108.329 -154.1437
2577.927246 108.433 -155.0221
2596.607910 108.530 -155.9733
2615.424072 108.618 -156.9985
2634.376465 108.696 -158.0944
2653.466309 108.761 -159.2519
2672.694336 108.812 -160.4565
2692.061768 108.847 -161.6900
2711.569580 108.867 -162.9356
2731.218750 108.872 -164.1829
2751.010254 108.864 -165.4275
2770.945312 108.842 -166.6659
2791.024658 108.807 -167.8917
2811.249512 108.756 -169.0952
2831.621094 108.692 -170.2654
2852.140137 108.614 -171.3915
2872.807861 108.522 -172.4630
2893.625488 108.417 -173.4673
2914.593994 108.300 -174.3898
2935.714355 108.174 -175.2180
2956.987793 108.042 -175.9480
2978.415283 107.907 -176.5841
2999.998047 107.771 -177.1347
3021.737305 107.634 -177.6081
3043.634033 107.497 -178.0097
3065.689453 107.360 -178.3400
3087.904785 107.226 -178.5979
3110.281006 107.094 -178.7864
3132.819336 106.968 -178.9165
3155.520996 106.847 -179.0043
3178.387207 106.732 -179.0652
3201.419189 106.620 -179.1104
3224.617920 106.511 -179.1459
3247.984863 106.402 -179.1727
3271.520996 106.292 -179.1852
3295.227783 106.177 -179.1695
3319.106445 106.059 -179.1079
3343.157959 105.940 -178.9866
3367.383789 105.820 -178.7995
3391.785156 105.703 -178.5464
3416.363525 105.588 -178.2290
3441.119873 105.477 -177.8480
3466.055664 105.372 -177.4012
3491.172119 105.273 -176.8887
3516.470703 105.184 -176.3179
3541.952393 105.106 -175.7040
3567.618896 105.041 -175.0657
3593.471436 104.987 -174.4211
3619.511230 104.943 -173.7862
3645.739746 104.908 -173.1721
3672.158203 104.880 -172.5809
3698.768066 104.855 -172.0057
3725.570801 104.835 -171.4374
3752.567871 104.819 -170.8712
3779.760498 104.808 -170.3074
3807.150146 104.801 -169.7470
3834.738281 104.797 -169.1870
3862.526367 104.799 -168.6196
3890.515869 104.806 -168.0387
3918.708252 104.821 -167.4467
3947.104736 104.846 -166.8551
3975.707031 104.883 -166.2815
4004.516602 104.930 -165.7461
4033.534912 104.986 -165.2688
4062.763672 105.051 -164.8632
4092.204102 105.122 -164.5365
4121.857910 105.197 -164.2951
4151.726562 105.277 -164.1501
4181.811523 105.357 -164.1164
4212.114746 105.434 -164.2079
4242.637695 105.504 -164.4316
4273.381836 105.561 -164.7877
4304.348633 105.600 -165.2720
4335.539551 105.613 -165.8714
4366.956543 105.590 -166.5540
4398.601074 105.523 -167.2549
4430.475098 105.402 -167.8598
4462.580078 105.224 -168.1924
4494.917969 104.999 -168.0258
4527.490234 104.756 -167.1378
4560.298340 104.544 -165.4153
4593.344238 104.419 -162.9693
4626.629395 104.421 -160.1615
4660.155762 104.560 -157.4718
4693.925293 104.806 -155.2907
4727.939453 105.118 -153.8024
4762.200195 105.453 -153.0069
4796.708984 105.782 -152.8051
4831.467773 106.087 -153.0694
4866.478516 106.357 -153.6787
4901.743164 106.592 -154.5341
4937.263184 106.790 -155.5628
4973.040527 106.953 -156.7134
5009.077148 107.081 -157.9455
5045.375000 107.176 -159.2226
5081.936035 107.241 -160.5123
5118.761719 107.276 -161.7885
5155.854492 107.286 -163.0326
5193.215820 107.274 -164.2336
5230.848145 107.240 -165.3843
5268.752930 107.188 -166.4760
5306.932617 107.117 -167.4995
5345.388672 107.030 -168.4481
5384.123535 106.927 -169.3159
5423.139160 106.809 -170.0930
5462.437500 106.677 -170.7650
5502.020508 106.532 -171.3163
5541.890625 106.379 -171.7362
5582.049316 106.220 -172.0220
5622.499023 106.057 -172.1777
5663.242188 105.895 -172.2094
5704.280273 105.734 -172.1249
5745.615723 105.577 -171.9343
5787.250977 105.423 -171.6476
5829.187988 105.274 -171.2694
5871.428711 105.128 -170.7973
5913.975586 104.988 -170.2260
5956.830566 104.855 -169.5531
5999.996094 104.731 -168.7823
6043.474609 104.616 -167.9216
6087.268066 104.514 -166.9803
6131.378906 104.424 -165.9696
6175.809570 104.347 -164.9017
6220.562012 104.283 -163.7855
6265.638672 104.233 -162.6234
6311.041992 104.195 -161.4132
6356.774414 104.170 -160.1534
6402.838379 104.161 -158.8468
6449.235840 104.169 -157.5000
6495.969727 104.195 -156.1219
6543.041992 104.239 -154.7244
6590.455566 104.302 -153.3192
6638.212891 104.385 -151.9140
6686.315918 104.487 -150.5118
6734.767578 104.609 -149.1150
6783.570312 104.753 -147.7296
6832.727051 104.922 -146.3661
6882.239746 105.116 -145.0400
6932.111328 105.337 -143.7733
6982.344238 105.585 -142.5906
7032.941406 105.860 -141.5144
7083.904785 106.161 -140.5617
7135.237793 106.487 -139.7456
7186.942871 106.840 -139.0757
7239.022461 107.222 -138.5596
7291.479492 107.636 -138.2103
7344.316406 108.088 -138.0611
7397.536133 108.583 -138.1804
7451.141602 109.119 -138.6736
7505.135742 109.686 -139.6604
7559.520996 110.268 -141.2401
7614.300293 110.842 -143.4723
7669.476562 111.387 -146.3771
7725.052734 111.880 -149.9423
7781.031738 112.297 -154.1229
7837.416504 112.617 -158.8363
7894.209473 112.821 -163.9595
7951.414062 112.894 -169.3353
8009.033203 112.829 -174.7826
8067.069824 112.626 179.8865
8125.527344 112.294 174.8472
8184.408203 111.847 170.2466
8243.715820 111.303 166.1979
8303.453125 110.683 162.7791
8363.623047 110.008 160.0333
8424.229492 109.298 157.9737
8485.275391 108.574 156.5849
8546.763672 107.854 155.8251
8608.697266 107.152 155.6321
8671.079102 106.480 155.9348
8733.913086 105.845 156.6641
8797.202148 105.251 157.7592
8860.950195 104.700 159.1705
8925.160156 104.194 160.8531
8989.835938 103.733 162.7629
9054.980469 103.317 164.8579
9120.596680 102.945 167.1029
9186.688477 102.615 169.4733
9253.258789 102.326 171.9558
9320.311523 102.076 174.5416
9387.850586 101.867 177.2179
9455.878906 101.699 179.9672
9524.400391 101.571 -177.2290
9593.417969 101.485 -174.3834
9662.935547 101.441 -171.5008
9732.957031 101.440 -168.5856
9803.486328 101.486 -165.6493
9874.526367 101.582 -162.7123
9946.081055 101.732 -159.8002
10018.154297 101.940 -156.9376
10090.750000 102.210 -154.1502
10163.872070 102.549 -151.4757
10237.523438 102.966 -148.9742
10311.708984 103.465 -146.7303
10386.431641 104.050 -144.8498
10461.696289 104.720 -143.4543
10537.505859 105.469 -142.6824
10613.865234 106.282 -142.6870
10690.777344 107.134 -143.6203
10768.247070 107.993 -145.6106
10846.278320 108.817 -148.7368
10924.875000 109.561 -153.0094
11004.041016 110.178 -158.3570
11083.781250 110.623 -164.6144
11164.098633 110.858 -171.5163
11244.998047 110.857 -178.7083
11326.484375 110.616 174.2101
11408.560547 110.149 167.6208
11491.231445 109.487 161.8289
11574.501953 108.672 157.0396
11658.375977 107.746 153.3658
11742.857422 106.753 150.8461
11827.951172 105.734 149.4588
11913.661133 104.724 149.1301
11999.992188 103.756 149.7446
12086.949219 102.854 151.1638
12174.536133 102.035 153.2456
12262.757812 101.310 155.8553
12351.619141 100.681 158.8697
12441.124023 100.151 162.1828
12531.277344 99.715 165.7116
12622.083984 99.370 169.3961
12713.548828 99.115 173.1894
12805.676758 98.949 177.0479
12898.471680 98.872 -179.0707
12991.939453 98.887 -175.2064
13086.083984 98.997 -171.4039
13180.911133 99.208 -167.7253
13276.425781 99.528 -164.2573
13372.631836 99.960 -161.1105
13469.535156 100.507 -158.4197
13567.140625 101.162 -156.3476
13665.454102 101.913 -155.0759
13764.479492 102.734 -154.7837
13864.222656 103.591 -155.6216
13964.688477 104.440 -157.6924
14065.882812 105.231 -161.0331
14167.809570 105.912 -165.5932
14270.475586 106.434 -171.2175
14373.885742 106.751 -177.6373
14478.044922 106.836 175.5164
14582.958984 106.678 168.6758
14688.632812 106.289 162.2717
14795.072266 105.705 156.6648
14902.283203 104.973 152.1049
15010.271484 104.153 148.7180
15119.041992 103.309 146.5056
15228.600586 102.508 145.3437
15338.953125 101.813 144.9805
15450.105469 101.280 145.0508
15562.063477 100.944 145.1118
15674.833008 100.806 144.7011
15788.418945 100.835 143.4057
15902.828125 100.967 140.9267
16018.066406 101.116 137.1230
16134.139648 101.194 132.0309
16251.054688 101.117 125.8692
16368.816406 100.820 119.0245
16487.431641 100.265 111.9963
16606.906250 99.445 105.2993
16727.246094 98.377 99.3744
16848.458984 97.094 94.5488
16970.550781 95.636 91.0353
17093.527344 94.044 88.9492
17217.394531 92.359 88.3262
17342.158203 90.617 89.1345
17467.826172 88.857 91.2794
17594.404297 87.112 94.6153
17721.900391 85.414 98.9665
17850.320312 83.789 104.1529
17979.671875 82.259 110.0178
18109.960938 80.833 116.4473
18241.193359 79.513 123.3533
18373.376953 78.295 130.6376
18506.517578 77.175 138.2041
18640.623047 76.148 145.9891
18775.701172 75.210 153.9668
18911.757812 74.358 162.1365
19048.800781 73.585 170.4948
19186.835938 72.890 179.0095
19325.871094 72.273 -172.4023
19465.914062 71.738 -163.9163
19606.972656 71.294 -155.8685
19749.052734 70.948 -148.8022
19892.162109 70.712 -143.4296
20036.308594 70.592 -140.4882
