* Measurement data measured by REW V5.31
* Source: EXCL: Microphone (USB Sound Device        ), MICROPHONE (Master Volume), L, volume: 0.560
* Format: 256k Log Swept Sine, 1 sweep at -5.0 dBFS with no timing reference
* Dated: Apr 29, 2024 11:19:00 PM
* REW Settings:
*  C-weighting compensation: Off
*  Target level: 75.0 dB
* Note: Tipsy TTROMSO L
* Measurement: L Tipsy TTROMSO
* Smoothing: 1/12 octave
* Frequency Step: 96 ppo
* Start Frequency: 0.36621094 Hz
*
* Freq(Hz) SPL(dB) Phase(degrees)
0.366211 80.595 169.0951
0.368865 80.591 169.0799
0.371538 80.586 169.0573
0.374230 80.579 169.0288
0.376942 80.571 168.9962
0.379673 80.562 168.9605
0.382424 80.553 168.9224
0.385196 80.544 168.8824
0.387987 80.535 168.8408
0.390798 80.526 168.7977
0.393630 80.516 168.7531
0.396483 80.507 168.7071
0.399356 80.497 168.6598
0.402250 80.487 168.6110
0.405165 80.478 168.5608
0.408101 80.468 168.5091
0.411058 80.458 168.4560
0.414037 80.448 168.4015
0.417037 80.438 168.3455
0.420059 80.428 168.2880
0.423103 80.418 168.2290
0.426169 80.407 168.1686
0.429257 80.397 168.1066
0.432368 80.387 168.0430
0.435501 80.376 167.9779
0.438656 80.366 167.9113
0.441835 80.355 167.8430
0.445037 80.344 167.7732
0.448262 80.334 167.7018
0.451510 80.323 167.6288
0.454782 80.312 167.5541
0.458077 80.301 167.4778
0.461397 80.290 167.3998
0.464740 80.279 167.3202
0.468108 80.267 167.2389
0.471500 80.256 167.1560
0.474917 80.244 167.0713
0.478358 80.233 166.9850
0.481825 80.221 166.8969
0.485316 80.210 166.8071
0.488833 80.198 166.7155
0.492375 80.186 166.6223
0.495943 80.174 166.5272
0.499537 80.162 166.4304
0.503157 80.150 166.3319
0.506803 80.138 166.2316
0.510475 80.126 166.1294
0.514175 80.113 166.0255
0.517900 80.101 165.9199
0.521653 80.088 165.8124
0.525434 80.076 165.7031
0.529241 80.063 165.5920
0.533076 80.050 165.4791
0.536939 80.037 165.3644
0.540830 80.024 165.2479
0.544749 80.011 165.1296
0.548696 79.998 165.0095
0.552673 79.985 164.8876
0.556677 79.971 164.7638
0.560711 79.958 164.6383
0.564774 79.944 164.5109
0.568867 79.930 164.3818
0.572989 79.917 164.2508
0.577141 79.903 164.1181
0.581324 79.889 163.9836
0.585536 79.875 163.8473
0.589779 79.860 163.7093
0.594053 79.846 163.5695
0.598358 79.832 163.4280
0.602694 79.817 163.2848
0.607061 79.803 163.1399
0.611460 79.788 162.9933
0.615891 79.773 162.8450
0.620354 79.758 162.6950
0.624849 79.743 162.5435
0.629377 79.728 162.3903
0.633938 79.713 162.2356
0.638532 79.697 162.0793
0.643159 79.682 161.9214
0.647819 79.666 161.7621
0.652514 79.651 161.6014
0.657242 79.635 161.4392
0.662005 79.619 161.2756
0.666802 79.603 161.1107
0.671634 79.587 160.9444
0.676501 79.571 160.7769
0.681403 79.554 160.6082
0.686341 79.538 160.4383
0.691314 79.521 160.2673
0.696324 79.504 160.0952
0.701370 79.487 159.9220
0.706452 79.470 159.7478
0.711571 79.452 159.5725
0.716728 79.434 159.3960
0.721921 79.414 159.2182
0.727153 79.394 159.0388
0.732422 79.372 158.8572
0.737729 79.348 158.6729
0.743075 79.322 158.4854
0.748460 79.296 158.2942
0.753883 79.268 158.0988
0.759346 79.239 157.8991
0.764849 79.210 157.6947
0.770391 79.180 157.4856
0.775974 79.149 157.2717
0.781597 79.119 157.0529
0.787261 79.087 156.8291
0.792966 79.056 156.6004
0.798712 79.023 156.3666
0.804500 78.991 156.1278
0.810329 78.958 155.8838
0.816201 78.924 155.6347
0.822116 78.890 155.3803
0.828073 78.855 155.1208
0.834074 78.820 154.8560
0.840118 78.784 154.5859
0.846206 78.747 154.3105
0.852338 78.710 154.0298
0.858514 78.672 153.7437
0.864735 78.634 153.4523
0.871001 78.595 153.1554
0.877313 78.555 152.8531
0.883670 78.514 152.5454
0.890074 78.472 152.2323
0.896524 78.430 151.9137
0.903020 78.387 151.5897
0.909564 78.343 151.2602
0.916155 78.298 150.9253
0.922794 78.252 150.5850
0.929481 78.205 150.2392
0.936216 78.157 149.8881
0.943000 78.107 149.5316
0.949834 78.057 149.1697
0.956717 78.006 148.8026
0.963649 77.953 148.4302
0.970632 77.900 148.0526
0.977666 77.845 147.6698
0.984750 77.788 147.2820
0.991886 77.730 146.8891
0.999074 77.671 146.4912
1.006314 77.611 146.0885
1.013606 77.549 145.6810
1.020951 77.485 145.2688
1.028349 77.420 144.8520
1.035801 77.353 144.4308
1.043307 77.285 144.0052
1.050867 77.214 143.5753
1.058482 77.142 143.1412
1.066152 77.068 142.7029
1.073878 76.991 142.2602
1.081660 76.913 141.8128
1.089498 76.831 141.3601
1.097393 76.747 140.9012
1.105345 76.660 140.4350
1.113355 76.569 139.9601
1.121423 76.475 139.4751
1.129549 76.376 138.9790
1.137734 76.273 138.4707
1.145979 76.166 137.9496
1.154283 76.055 137.4147
1.162647 75.941 136.8655
1.171072 75.822 136.3013
1.179558 75.700 135.7213
1.188106 75.574 135.1250
1.196715 75.446 134.5115
1.205387 75.314 133.8801
1.214122 75.179 133.2301
1.222920 75.042 132.5605
1.231782 74.902 131.8705
1.240708 74.760 131.1592
1.249699 74.617 130.4257
1.258754 74.471 129.6688
1.267876 74.325 128.8875
1.277063 74.177 128.0807
1.286318 74.029 127.2471
1.295639 73.880 126.3856
1.305027 73.732 125.4947
1.314484 73.584 124.5732
1.324009 73.436 123.6195
1.333604 73.290 122.6320
1.343268 73.145 121.6093
1.353002 73.002 120.5496
1.362806 72.861 119.4511
1.372681 72.724 118.3119
1.382628 72.589 117.1303
1.392647 72.459 115.9039
1.402739 72.333 114.6308
1.412904 72.211 113.3084
1.423142 72.095 111.9341
1.433455 71.984 110.5047
1.443843 71.878 109.0165
1.454305 71.778 107.4647
1.464844 71.683 105.8436
1.475459 71.593 104.1465
1.486150 71.506 102.3662
1.496920 71.422 100.4955
1.507767 71.340 98.5281
1.518693 71.261 96.4581
1.529698 71.184 94.2806
1.540783 71.110 91.9914
1.551948 71.038 89.5873
1.563194 70.969 87.0666
1.574521 70.904 84.4284
1.585931 70.842 81.6739
1.597423 70.783 78.8061
1.608999 70.729 75.8299
1.620658 70.679 72.7528
1.632402 70.635 69.5846
1.644232 70.595 66.3374
1.656146 70.561 63.0257
1.668147 70.534 59.6655
1.680235 70.513 56.2746
1.692411 70.499 52.8714
1.704675 70.492 49.4746
1.717028 70.494 46.1019
1.729470 70.504 42.7705
1.742003 70.523 39.4952
1.754626 70.552 36.2890
1.767341 70.592 33.1622
1.780147 70.642 30.1223
1.793047 70.705 27.1742
1.806040 70.781 24.3197
1.819128 70.871 21.5582
1.832310 70.977 18.8874
1.845587 71.100 16.3036
1.858961 71.241 13.8034
1.872432 71.399 11.3847
1.886001 71.576 9.0459
1.899667 71.770 6.7863
1.913433 71.981 4.6056
1.927299 72.207 2.5030
1.941265 72.448 0.4777
1.955332 72.701 -1.4714
1.969501 72.965 -3.3459
1.983773 73.239 -5.1477
1.998148 73.521 -6.8789
2.012627 73.809 -8.5417
2.027212 74.102 -10.1388
2.041902 74.398 -11.6726
2.056698 74.694 -13.1459
2.071602 74.990 -14.5614
2.086614 75.283 -15.9218
2.101734 75.571 -17.2299
2.116964 75.852 -18.4887
2.132304 76.125 -19.7012
2.147756 76.389 -20.8709
2.163320 76.642 -22.0014
2.178996 76.885 -23.0972
2.194786 77.117 -24.1628
2.210690 77.339 -25.2034
2.226710 77.554 -26.2231
2.242845 77.761 -27.2254
2.259098 77.963 -28.2121
2.275468 78.160 -29.1844
2.291957 78.352 -30.1422
2.308566 78.539 -31.0855
2.325295 78.723 -32.0137
2.342145 78.903 -32.9261
2.359117 79.079 -33.8221
2.376212 79.251 -34.7010
2.393431 79.421 -35.5620
2.410775 79.587 -36.4046
2.428244 79.751 -37.2282
2.445840 79.912 -38.0324
2.463564 80.070 -38.8168
2.481416 80.226 -39.5814
2.499397 80.380 -40.3263
2.517509 80.531 -41.0524
2.535752 80.680 -41.7610
2.554127 80.827 -42.4544
2.572635 80.971 -43.1352
2.591277 81.111 -43.8066
2.610055 81.248 -44.4708
2.628968 81.381 -45.1296
2.648019 81.511 -45.7836
2.667208 81.636 -46.4326
2.686535 81.758 -47.0762
2.706003 81.877 -47.7133
2.725612 81.992 -48.3429
2.745363 82.104 -48.9637
2.765257 82.214 -49.5744
2.785295 82.321 -50.1735
2.805478 82.426 -50.7598
2.825808 82.529 -51.3322
2.846285 82.630 -51.8895
2.866910 82.730 -52.4310
2.887685 82.828 -52.9566
2.908611 82.925 -53.4666
2.929688 83.020 -53.9623
2.950917 83.113 -54.4454
2.972301 83.203 -54.9178
2.993839 83.291 -55.3809
3.015534 83.376 -55.8356
3.037386 83.459 -56.2822
3.059396 83.539 -56.7205
3.081565 83.617 -57.1500
3.103896 83.693 -57.5698
3.126388 83.768 -57.9791
3.149043 83.840 -58.3768
3.171862 83.912 -58.7618
3.194847 83.983 -59.1329
3.217998 84.053 -59.4892
3.241317 84.123 -59.8297
3.264805 84.192 -60.1537
3.288463 84.261 -60.4611
3.312293 84.329 -60.7520
3.336295 84.396 -61.0270
3.360471 84.462 -61.2868
3.384822 84.527 -61.5324
3.409350 84.591 -61.7645
3.434056 84.654 -61.9839
3.458940 84.716 -62.1914
3.484005 84.779 -62.3876
3.509252 84.841 -62.5732
3.534681 84.903 -62.7485
3.560295 84.966 -62.9140
3.586094 85.029 -63.0698
3.612081 85.094 -63.2159
3.638255 85.159 -63.3519
3.664620 85.226 -63.4773
3.691175 85.294 -63.5915
3.717923 85.363 -63.6943
3.744864 85.433 -63.7859
3.772001 85.504 -63.8673
3.799335 85.575 -63.9400
3.826866 85.647 -64.0056
3.854597 85.721 -64.0662
3.882529 85.795 -64.1236
3.910664 85.871 -64.1799
3.939002 85.948 -64.2366
3.967546 86.027 -64.2949
3.996296 86.107 -64.3555
4.025255 86.189 -64.4183
4.054423 86.272 -64.4828
4.083804 86.357 -64.5483
4.113396 86.444 -64.6149
4.143204 86.532 -64.6829
4.173227 86.622 -64.7534
4.203468 86.713 -64.8279
4.233928 86.805 -64.9083
4.264609 86.898 -64.9964
4.295512 86.991 -65.0938
4.326639 87.085 -65.2020
4.357992 87.179 -65.3221
4.389572 87.273 -65.4545
4.421380 87.368 -65.5990
4.453419 87.464 -65.7552
4.485691 87.560 -65.9225
4.518196 87.656 -66.1003
4.550936 87.752 -66.2885
4.583914 87.849 -66.4869
4.617131 87.945 -66.6955
4.650589 88.040 -66.9146
4.684289 88.135 -67.1443
4.718233 88.228 -67.3851
4.752424 88.321 -67.6373
4.786862 88.412 -67.9010
4.821549 88.502 -68.1762
4.856488 88.591 -68.4622
4.891680 88.679 -68.7583
4.927127 88.765 -69.0631
4.962831 88.851 -69.3752
4.998794 88.934 -69.6933
5.035017 89.016 -70.0164
5.071503 89.097 -70.3436
5.108253 89.176 -70.6746
5.145270 89.253 -71.0094
5.182555 89.328 -71.3484
5.220110 89.401 -71.6912
5.257937 89.473 -72.0373
5.296038 89.543 -72.3856
5.334415 89.611 -72.7345
5.373071 89.678 -73.0825
5.412006 89.744 -73.4282
5.451224 89.808 -73.7705
5.490725 89.871 -74.1087
5.530514 89.932 -74.4429
5.570590 89.992 -74.7730
5.610957 90.051 -75.0993
5.651616 90.109 -75.4215
5.692570 90.167 -75.7392
5.733821 90.223 -76.0519
5.775370 90.279 -76.3588
5.817221 90.335 -76.6594
5.859375 90.391 -76.9533
5.901834 90.447 -77.2402
5.944602 90.502 -77.5206
5.987679 90.558 -77.7950
6.031068 90.614 -78.0641
6.074771 90.671 -78.3288
6.118792 90.728 -78.5899
6.163131 90.785 -78.8480
6.207792 90.844 -79.1035
6.252776 90.904 -79.3566
6.298086 90.964 -79.6077
6.343725 91.026 -79.8574
6.389694 91.089 -80.1067
6.435996 91.152 -80.3568
6.482634 91.217 -80.6093
6.529610 91.283 -80.8652
6.576926 91.349 -81.1256
6.624585 91.417 -81.3910
6.672590 91.486 -81.6617
6.720942 91.555 -81.9379
6.769645 91.625 -82.2201
6.818700 91.696 -82.5090
6.868111 91.767 -82.8052
6.917881 91.839 -83.1094
6.968010 91.910 -83.4219
7.018504 91.982 -83.7428
7.069362 92.053 -84.0718
7.120590 92.125 -84.4087
7.172189 92.196 -84.7527
7.224161 92.267 -85.1033
7.276511 92.337 -85.4600
7.329239 92.406 -85.8227
7.382350 92.475 -86.1908
7.435845 92.543 -86.5638
7.489729 92.610 -86.9409
7.544002 92.677 -87.3211
7.598669 92.742 -87.7030
7.653732 92.807 -88.0859
7.709194 92.871 -88.4688
7.765058 92.934 -88.8514
7.821327 92.996 -89.2331
7.878004 93.058 -89.6133
7.935091 93.119 -89.9912
7.992592 93.180 -90.3661
8.050510 93.240 -90.7374
8.108847 93.301 -91.1048
8.167607 93.361 -91.4681
8.226793 93.421 -91.8275
8.286408 93.481 -92.1831
8.346454 93.541 -92.5351
8.406936 93.602 -92.8835
8.467856 93.663 -93.2286
8.529218 93.725 -93.5708
8.591024 93.787 -93.9106
8.653278 93.850 -94.2487
8.715983 93.913 -94.5858
8.779143 93.977 -94.9226
8.842760 94.041 -95.2597
8.906839 94.106 -95.5973
8.971381 94.172 -95.9361
9.036392 94.238 -96.2765
9.101873 94.304 -96.6190
9.167829 94.371 -96.9641
9.234263 94.438 -97.3118
9.301178 94.504 -97.6623
9.368578 94.571 -98.0153
9.436467 94.637 -98.3708
9.504847 94.703 -98.7284
9.573723 94.768 -99.0880
9.643099 94.833 -99.4492
9.712976 94.895 -99.8115
9.783361 94.956 -100.1742
9.854255 95.014 -100.5368
9.925663 95.070 -100.8987
9.997588 95.123 -101.2595
10.070035 95.172 -101.6187
10.143007 95.220 -101.9759
10.216507 95.265 -102.3306
10.290540 95.309 -102.6825
10.365109 95.351 -103.0315
10.440219 95.391 -103.3775
10.515873 95.431 -103.7207
10.592076 95.470 -104.0610
10.668830 95.509 -104.3987
10.746141 95.548 -104.7340
10.824012 95.587 -105.0674
10.902447 95.625 -105.3991
10.981451 95.664 -105.7298
11.061027 95.702 -106.0596
11.141180 95.740 -106.3891
11.221913 95.778 -106.7184
11.303232 95.815 -107.0480
11.385140 95.853 -107.3781
11.467641 95.890 -107.7087
11.550741 95.926 -108.0399
11.634442 95.963 -108.3717
11.718750 95.999 -108.7040
11.803669 96.035 -109.0366
11.889203 96.071 -109.3693
11.975357 96.107 -109.7020
12.062136 96.142 -110.0342
12.149543 96.177 -110.3660
12.237583 96.212 -110.6970
12.326262 96.246 -111.0273
12.415583 96.280 -111.3567
12.505552 96.314 -111.6852
12.596172 96.347 -112.0130
12.687449 96.380 -112.3403
12.779387 96.413 -112.6673
12.871992 96.445 -112.9943
12.965268 96.477 -113.3217
13.059220 96.508 -113.6497
13.153852 96.540 -113.9789
13.249170 96.572 -114.3095
13.345179 96.603 -114.6417
13.441884 96.635 -114.9757
13.539289 96.666 -115.3117
13.637401 96.697 -115.6497
13.736223 96.728 -115.9897
13.835761 96.759 -116.3315
13.936021 96.789 -116.6750
14.037007 96.818 -117.0200
14.138725 96.847 -117.3662
14.241180 96.876 -117.7135
14.344377 96.904 -118.0616
14.448323 96.931 -118.4105
14.553021 96.958 -118.7600
14.658478 96.985 -119.1101
14.764700 97.011 -119.4610
14.871691 97.038 -119.8126
14.979457 97.064 -120.1653
15.088005 97.090 -120.5191
15.197339 97.117 -120.8742
15.307465 97.143 -121.2308
15.418389 97.169 -121.5890
15.530117 97.195 -121.9489
15.642655 97.221 -122.3103
15.756008 97.246 -122.6733
15.870182 97.272 -123.0376
15.985184 97.297 -123.4031
16.101019 97.322 -123.7694
16.217694 97.346 -124.1363
16.335214 97.371 -124.5035
16.453586 97.395 -124.8709
16.572815 97.419 -125.2383
16.692909 97.444 -125.6056
16.813872 97.468 -125.9727
16.935713 97.493 -126.3397
17.058436 97.518 -126.7065
17.182048 97.544 -127.0734
17.306556 97.569 -127.4403
17.431967 97.595 -127.8072
17.558286 97.620 -128.1742
17.685521 97.646 -128.5411
17.813677 97.671 -128.9077
17.942762 97.695 -129.2738
18.072783 97.720 -129.6391
18.203746 97.744 -130.0032
18.335658 97.768 -130.3659
18.468526 97.791 -130.7269
18.602356 97.815 -131.0860
18.737156 97.838 -131.4430
18.872934 97.861 -131.7980
19.009695 97.885 -132.1510
19.147447 97.908 -132.5022
19.286197 97.931 -132.8517
19.425953 97.955 -133.1999
19.566721 97.978 -133.5468
19.708510 98.000 -133.8926
19.851326 98.023 -134.2375
19.995177 98.045 -134.5815
20.140070 98.066 -134.9244
20.286013 98.087 -135.2663
20.433014 98.108 -135.6071
20.581080 98.128 -135.9468
20.730219 98.147 -136.2853
20.880439 98.167 -136.6227
21.031747 98.185 -136.9592
21.184152 98.204 -137.2950
21.337661 98.223 -137.6302
21.492282 98.241 -137.9652
21.648024 98.259 -138.3002
21.804895 98.277 -138.6354
21.962902 98.294 -138.9710
22.122054 98.311 -139.3070
22.282360 98.328 -139.6435
22.443827 98.344 -139.9804
22.606464 98.360 -140.3177
22.770280 98.375 -140.6555
22.935283 98.389 -140.9936
23.101481 98.403 -141.3322
23.268884 98.417 -141.6713
23.437500 98.430 -142.0109
23.607338 98.443 -142.3513
23.778406 98.456 -142.6924
23.950714 98.468 -143.0343
24.124271 98.479 -143.3768
24.299086 98.490 -143.7200
24.475167 98.501 -144.0636
24.652524 98.511 -144.4074
24.831166 98.521 -144.7513
25.011103 98.531 -145.0950
25.192344 98.541 -145.4386
25.374898 98.550 -145.7819
25.558775 98.560 -146.1248
25.743984 98.569 -146.4673
25.930536 98.578 -146.8094
26.118439 98.587 -147.1511
26.307704 98.596 -147.4922
26.498341 98.604 -147.8327
26.690359 98.613 -148.1721
26.883768 98.621 -148.5104
27.078579 98.629 -148.8473
27.274801 98.637 -149.1826
27.472446 98.644 -149.5160
27.671522 98.652 -149.8475
27.872042 98.659 -150.1771
28.074014 98.666 -150.5049
28.277450 98.672 -150.8310
28.482360 98.678 -151.1557
28.688755 98.685 -151.4793
28.896645 98.690 -151.8021
29.106042 98.696 -152.1241
29.316957 98.701 -152.4455
29.529400 98.706 -152.7664
29.743382 98.711 -153.0864
29.958915 98.715 -153.4057
30.176009 98.719 -153.7240
30.394677 98.723 -154.0414
30.614929 98.726 -154.3582
30.836778 98.730 -154.6745
31.060234 98.733 -154.9910
31.285309 98.737 -155.3082
31.512015 98.740 -155.6264
31.740364 98.742 -155.9459
31.970368 98.745 -156.2666
32.202039 98.746 -156.5885
32.435388 98.748 -156.9111
32.670428 98.749 -157.2340
32.907171 98.750 -157.5568
33.145630 98.750 -157.8792
33.385817 98.751 -158.2013
33.627745 98.751 -158.5231
33.871425 98.751 -158.8449
34.116871 98.751 -159.1668
34.364096 98.750 -159.4887
34.613113 98.750 -159.8107
34.863934 98.749 -160.1322
35.116572 98.748 -160.4530
35.371041 98.746 -160.7727
35.627354 98.744 -161.0908
35.885525 98.742 -161.4073
36.145566 98.740 -161.7220
36.407492 98.737 -162.0349
36.671316 98.734 -162.3461
36.937051 98.731 -162.6555
37.204712 98.727 -162.9632
37.474313 98.723 -163.2693
37.745867 98.720 -163.5739
38.019389 98.715 -163.8771
38.294893 98.711 -164.1791
38.572394 98.707 -164.4802
38.851905 98.702 -164.7807
39.133442 98.697 -165.0808
39.417019 98.692 -165.3807
39.702651 98.687 -165.6804
39.990353 98.681 -165.9797
40.280140 98.675 -166.2784
40.572026 98.668 -166.5761
40.866028 98.661 -166.8726
41.162160 98.654 -167.1678
41.460438 98.647 -167.4620
41.760877 98.640 -167.7553
42.063494 98.632 -168.0482
42.368303 98.625 -168.3408
42.675322 98.617 -168.6333
42.984565 98.609 -168.9256
43.296048 98.600 -169.2175
43.609789 98.592 -169.5088
43.925804 98.583 -169.7993
44.244108 98.574 -170.0891
44.564719 98.564 -170.3782
44.887654 98.555 -170.6667
45.212928 98.545 -170.9546
45.540560 98.535 -171.2417
45.870565 98.525 -171.5277
46.202962 98.514 -171.8123
46.537768 98.503 -172.0954
46.875000 98.492 -172.3768
47.214676 98.481 -172.6565
47.556813 98.470 -172.9346
47.901429 98.459 -173.2110
48.248542 98.448 -173.4857
48.598171 98.437 -173.7585
48.950334 98.425 -174.0297
49.305048 98.414 -174.2993
49.662333 98.402 -174.5675
50.022206 98.390 -174.8344
50.384688 98.378 -175.0998
50.749796 98.366 -175.3635
51.117550 98.353 -175.6257
51.487969 98.341 -175.8865
51.861072 98.328 -176.1464
52.236879 98.315 -176.4058
52.615409 98.301 -176.6650
52.996681 98.288 -176.9239
53.380717 98.274 -177.1823
53.767536 98.261 -177.4398
54.157158 98.247 -177.6967
54.549603 98.234 -177.9533
54.944892 98.221 -178.2103
55.343045 98.208 -178.4684
55.744084 98.195 -178.7280
56.148028 98.183 -178.9893
56.554900 98.170 -179.2525
56.964720 98.158 -179.5175
57.377510 98.145 -179.7842
57.793291 98.133 179.9474
58.212085 98.119 179.6784
58.633914 98.105 179.4098
59.058799 98.091 179.1429
59.486764 98.076 178.8784
59.917829 98.060 178.6160
60.352019 98.044 178.3550
60.789354 98.028 178.0947
61.229859 98.010 177.8350
61.673556 97.991 177.5765
62.120468 97.972 177.3199
62.570618 97.952 177.0659
63.024031 97.932 176.8143
63.480729 97.911 176.5649
63.940736 97.889 176.3171
64.404077 97.868 176.0706
64.870776 97.847 175.8249
65.340856 97.825 175.5797
65.814343 97.803 175.3350
66.291261 97.781 175.0912
66.771635 97.759 174.8493
67.255489 97.736 174.6104
67.742850 97.713 174.3758
68.233743 97.690 174.1459
68.728193 97.666 173.9205
69.226226 97.643 173.6989
69.727867 97.620 173.4802
70.233144 97.596 173.2640
70.742083 97.572 173.0495
71.254709 97.549 172.8345
71.771050 97.526 172.6159
72.291132 97.502 172.3911
72.814984 97.478 172.1599
73.342631 97.452 171.9249
73.874102 97.426 171.6896
74.409424 97.398 171.4567
74.948626 97.371 171.2267
75.491734 97.343 170.9998
76.038779 97.314 170.7756
76.589787 97.286 170.5545
77.144788 97.257 170.3367
77.703811 97.229 170.1223
78.266885 97.199 169.9109
78.834039 97.170 169.7017
79.405303 97.140 169.4931
79.980706 97.108 169.2838
80.560280 97.075 169.0724
81.144053 97.040 168.8606
81.732056 97.002 168.6527
82.324320 96.961 168.4547
82.920876 96.917 168.2714
83.521755 96.873 168.1053
84.126988 96.827 167.9576
84.736607 96.781 167.8300
85.350643 96.736 167.7236
85.969129 96.692 167.6384
86.592097 96.650 167.5726
87.219579 96.610 167.5230
87.851608 96.573 167.4863
88.488217 96.537 167.4596
89.129439 96.503 167.4416
89.775308 96.469 167.4335
90.425856 96.435 167.4388
91.081119 96.402 167.4619
91.741131 96.368 167.5059
92.405925 96.335 167.5712
93.075536 96.304 167.6573
93.750000 96.276 167.7641
94.429351 96.251 167.8905
95.113625 96.231 168.0341
95.802858 96.216 168.1921
96.497085 96.209 168.3612
97.196342 96.211 168.5349
97.900667 96.223 168.7003
98.610096 96.244 168.8394
99.324665 96.274 168.9351
100.044413 96.309 168.9761
100.769376 96.348 168.9578
101.499592 96.388 168.8802
102.235100 96.428 168.7444
102.975938 96.465 168.5497
103.722144 96.499 168.2951
104.473757 96.528 167.9828
105.230817 96.550 167.6215
105.993363 96.564 167.2247
106.761435 96.570 166.8065
107.535072 96.568 166.3791
108.314315 96.560 165.9513
109.099206 96.546 165.5297
109.889783 96.526 165.1190
110.686090 96.501 164.7225
111.488167 96.473 164.3413
112.296056 96.441 163.9760
113.109800 96.406 163.6264
113.929440 96.368 163.2923
114.755020 96.329 162.9736
115.586582 96.289 162.6712
116.424170 96.249 162.3860
117.267827 96.209 162.1190
118.117598 96.169 161.8712
118.973527 96.130 161.6454
119.835658 96.091 161.4454
120.704037 96.053 161.2724
121.578708 96.016 161.1202
122.459718 95.982 160.9779
123.347111 95.949 160.8360
124.240935 95.916 160.6895
125.141236 95.882 160.5371
126.048061 95.847 160.3807
126.961458 95.811 160.2227
127.881473 95.774 160.0653
128.808154 95.737 159.9104
129.741551 95.699 159.7594
130.681712 95.660 159.6128
131.628686 95.622 159.4703
132.582521 95.582 159.3316
133.543269 95.542 159.1964
134.510979 95.502 159.0654
135.485701 95.461 158.9401
136.467486 95.420 158.8231
137.456386 95.378 158.7171
138.452451 95.337 158.6244
139.455735 95.296 158.5463
140.466288 95.255 158.4827
141.484165 95.216 158.4317
142.509418 95.178 158.3897
143.542100 95.142 158.3524
144.582265 95.107 158.3151
145.629968 95.073 158.2747
146.685262 95.040 158.2294
147.748204 95.008 158.1780
148.818849 94.978 158.1187
149.897251 94.947 158.0506
150.983469 94.917 157.9743
152.077557 94.887 157.8925
153.179574 94.855 157.8083
154.289576 94.823 157.7246
155.407622 94.790 157.6418
156.533770 94.756 157.5585
157.668078 94.722 157.4718
158.810606 94.688 157.3791
159.961413 94.653 157.2790
161.120559 94.616 157.1725
162.288105 94.579 157.0625
163.464112 94.539 156.9527
164.648640 94.499 156.8463
165.841752 94.457 156.7459
167.043510 94.414 156.6531
168.253976 94.371 156.5701
169.473213 94.326 156.4998
170.701286 94.282 156.4435
171.938258 94.238 156.4000
173.184194 94.194 156.3652
174.439158 94.152 156.3347
175.703216 94.110 156.3050
176.976434 94.069 156.2744
178.258878 94.029 156.2430
179.550615 93.988 156.2119
180.851713 93.947 156.1822
182.162239 93.907 156.1542
183.482262 93.866 156.1273
184.811850 93.825 156.1002
186.151073 93.783 156.0721
187.500000 93.741 156.0435
188.858702 93.698 156.0162
190.227250 93.655 155.9922
191.605715 93.612 155.9731
192.994169 93.569 155.9597
194.392685 93.525 155.9529
195.801334 93.482 155.9537
197.220191 93.438 155.9633
198.649330 93.395 155.9826
200.088825 93.352 156.0122
201.538751 93.309 156.0518
202.999184 93.268 156.0991
204.470200 93.228 156.1500
205.951875 93.190 156.1999
207.444287 93.152 156.2454
208.947514 93.114 156.2861
210.461634 93.075 156.3241
211.986726 93.034 156.3638
213.522869 92.991 156.4109
215.070144 92.947 156.4713
216.628631 92.903 156.5497
218.198411 92.859 156.6479
219.779567 92.817 156.7634
221.372180 92.777 156.8898
222.976334 92.741 157.0188
224.592112 92.708 157.1430
226.219600 92.677 157.2570
227.858880 92.648 157.3571
229.510039 92.621 157.4410
231.173164 92.593 157.5079
232.848340 92.566 157.5580
234.535655 92.537 157.5925
236.235197 92.507 157.6136
237.947054 92.476 157.6240
239.671317 92.442 157.6273
241.408074 92.406 157.6282
243.157416 92.368 157.6319
244.919435 92.326 157.6429
246.694223 92.283 157.6657
248.481871 92.239 157.7047
250.282473 92.193 157.7633
252.096123 92.148 157.8436
253.922915 92.104 157.9439
255.762945 92.062 158.0577
257.616309 92.024 158.1742
259.483103 91.987 158.2824
261.363424 91.952 158.3768
263.257372 91.916 158.4588
265.165043 91.879 158.5352
267.086538 91.840 158.6138
269.021957 91.800 158.7014
270.971401 91.759 158.8016
272.934972 91.719 158.9152
274.912771 91.679 159.0405
276.904902 91.641 159.1748
278.911469 91.605 159.3157
280.932577 91.570 159.4606
282.968330 91.536 159.6060
285.018835 91.506 159.7460
287.084199 91.476 159.8737
289.164530 91.448 159.9832
291.259935 91.418 160.0731
293.370525 91.387 160.1486
295.496408 91.353 160.2195
297.637697 91.316 160.2957
299.794503 91.277 160.3833
301.966937 91.236 160.4843
304.155114 91.195 160.5974
306.359147 91.154 160.7192
308.579152 91.114 160.8465
310.815244 91.073 160.9763
313.067539 91.032 161.1076
315.336156 90.990 161.2414
317.621211 90.948 161.3816
319.922826 90.906 161.5327
322.241118 90.863 161.6970
324.576210 90.821 161.8732
326.928223 90.780 162.0580
329.297280 90.740 162.2473
331.683504 90.701 162.4378
334.087019 90.663 162.6268
336.507952 90.626 162.8127
338.946427 90.589 162.9955
341.402572 90.551 163.1768
343.876516 90.512 163.3591
346.368387 90.473 163.5450
348.878315 90.434 163.7360
351.406431 90.395 163.9326
353.952867 90.355 164.1342
356.517756 90.316 164.3399
359.101230 90.277 164.5489
361.703426 90.239 164.7607
364.324478 90.200 164.9753
366.964523 90.162 165.1928
369.623699 90.124 165.4137
372.302145 90.086 165.6381
375.000000 90.048 165.8663
377.717405 90.011 166.0982
380.454501 89.973 166.3335
383.211431 89.936 166.5720
385.988339 89.900 166.8133
388.785369 89.863 167.0577
391.602668 89.828 167.3057
394.440383 89.792 167.5574
397.298660 89.757 167.8129
400.177650 89.723 168.0714
403.077502 89.689 168.3313
405.998368 89.655 168.5908
408.940400 89.621 168.8493
411.903750 89.587 169.1084
414.888575 89.553 169.3714
417.895028 89.518 169.6421
420.923268 89.483 169.9233
423.973452 89.448 170.2162
427.045738 89.415 170.5194
430.140287 89.383 170.8289
433.257261 89.354 171.1397
436.396822 89.325 171.4483
439.559133 89.298 171.7535
442.744360 89.272 172.0551
445.952668 89.247 172.3515
449.184225 89.223 172.6382
452.439199 89.200 172.9097
455.717760 89.177 173.1628
459.020079 89.151 173.4012
462.346327 89.122 173.6353
465.696680 89.091 173.8774
469.071310 89.057 174.1353
472.470394 89.023 174.4108
475.894109 88.988 174.7010
479.342634 88.955 175.0002
482.816148 88.922 175.3027
486.314833 88.888 175.6063
489.838871 88.854 175.9150
493.388445 88.819 176.2365
496.963741 88.784 176.5746
500.564945 88.751 176.9260
504.192245 88.720 177.2831
507.845830 88.690 177.6392
511.525890 88.661 177.9910
515.232618 88.632 178.3400
518.966206 88.603 178.6895
522.726849 88.573 179.0445
526.514743 88.543 179.4093
530.330086 88.513 179.7861
534.173076 88.484 -179.8275
538.043915 88.457 -179.4363
541.942803 88.430 -179.0429
545.869944 88.405 -178.6467
549.825542 88.381 -178.2470
553.809805 88.357 -177.8451
557.822939 88.334 -177.4437
561.865154 88.312 -177.0451
565.936660 88.290 -176.6486
570.037671 88.267 -176.2515
574.168399 88.244 -175.8500
578.329060 88.221 -175.4419
582.519870 88.198 -175.0274
586.741049 88.175 -174.6071
590.992817 88.152 -174.1794
595.275394 88.130 -173.7421
599.589005 88.108 -173.2960
603.933874 88.088 -172.8449
608.310228 88.069 -172.3925
612.718295 88.050 -171.9399
617.158304 88.031 -171.4845
621.630488 88.012 -171.0205
626.135079 87.993 -170.5415
630.672311 87.975 -170.0460
635.242423 87.960 -169.5384
639.845651 87.946 -169.0254
644.482237 87.935 -168.5094
649.152421 87.926 -167.9892
653.856447 87.920 -167.4657
658.594560 87.916 -166.9451
663.367008 87.916 -166.4371
668.174039 87.917 -165.9497
673.015903 87.918 -165.4829
677.892854 87.917 -165.0293
682.805145 87.914 -164.5806
687.753032 87.909 -164.1297
692.736774 87.902 -163.6707
697.756631 87.895 -163.1989
702.812863 87.887 -162.7122
707.905735 87.881 -162.2130
713.035511 87.876 -161.7056
718.202461 87.872 -161.1935
723.406852 87.868 -160.6774
728.648956 87.866 -160.1564
733.929047 87.864 -159.6296
739.247399 87.863 -159.0969
744.604290 87.863 -158.5585
750.000000 87.863 -158.0146
755.434809 87.864 -157.4647
760.909001 87.867 -156.9087
766.422861 87.870 -156.3465
771.976677 87.875 -155.7785
777.570739 87.881 -155.2057
783.205337 87.888 -154.6289
788.880766 87.897 -154.0472
794.597321 87.907 -153.4578
800.355301 87.919 -152.8585
806.155005 87.934 -152.2500
811.996736 87.953 -151.6380
817.880799 87.976 -151.0313
823.807501 88.002 -150.4396
829.777150 88.031 -149.8715
835.790057 88.060 -149.3294
841.846536 88.088 -148.8066
847.946903 88.114 -148.2924
854.091476 88.139 -147.7785
860.280575 88.162 -147.2611
866.514523 88.186 -146.7372
872.793644 88.209 -146.2033
879.118267 88.233 -145.6599
885.488720 88.258 -145.1111
891.905336 88.285 -144.5605
898.368450 88.313 -144.0079
904.878398 88.342 -143.4511
911.435520 88.373 -142.8892
918.040157 88.406 -142.3243
924.692655 88.441 -141.7597
931.393359 88.478 -141.1991
938.142619 88.518 -140.6463
944.940787 88.558 -140.1035
951.788218 88.600 -139.5696
958.685268 88.642 -139.0422
965.632296 88.686 -138.5183
972.629666 88.730 -137.9955
979.677741 88.776 -137.4732
986.776890 88.822 -136.9516
993.927482 88.870 -136.4293
1001.129891 88.919 -135.9017
1008.384491 88.970 -135.3650
1015.691660 89.024 -134.8207
1023.051781 89.081 -134.2745
1030.465236 89.143 -133.7345
1037.932411 89.210 -133.2122
1045.453698 89.279 -132.7200
1053.029486 89.350 -132.2639
1060.660172 89.421 -131.8406
1068.346153 89.491 -131.4414
1076.087829 89.559 -131.0570
1083.885605 89.626 -130.6812
1091.739887 89.692 -130.3129
1099.651084 89.758 -129.9530
1107.619609 89.824 -129.6025
1115.645878 89.889 -129.2617
1123.730308 89.954 -128.9303
1131.873321 90.017 -128.6079
1140.075341 90.079 -128.2925
1148.336797 90.138 -127.9800
1156.658119 90.195 -127.6622
1165.039741 90.251 -127.3281
1173.482099 90.307 -126.9677
1181.985634 90.366 -126.5797
1190.550789 90.429 -126.1755
1199.178011 90.499 -125.7748
1207.867749 90.574 -125.3974
1216.620457 90.652 -125.0550
1225.436590 90.730 -124.7473
1234.316609 90.807 -124.4673
1243.260976 90.882 -124.2059
1252.270157 90.955 -123.9545
1261.344623 91.026 -123.7076
1270.484846 91.095 -123.4626
1279.691303 91.164 -123.2173
1288.964474 91.232 -122.9696
1298.304842 91.300 -122.7192
1307.712894 91.368 -122.4682
1317.189120 91.436 -122.2196
1326.734016 91.505 -121.9755
1336.348077 91.575 -121.7353
1346.031806 91.644 -121.4961
1355.785708 91.715 -121.2540
1365.610290 91.786 -121.0049
1375.506065 91.859 -120.7441
1385.473549 91.934 -120.4667
1395.513261 92.013 -120.1712
1405.625726 92.095 -119.8629
1415.811469 92.183 -119.5540
1426.071023 92.274 -119.2588
1436.404921 92.368 -118.9865
1446.813703 92.463 -118.7374
1457.297912 92.557 -118.5058
1467.858093 92.650 -118.2853
1478.494798 92.741 -118.0718
1489.208581 92.831 -117.8624
1500.000000 92.918 -117.6551
1510.869618 93.003 -117.4481
1521.818002 93.085 -117.2398
1532.845723 93.164 -117.0291
1543.953355 93.241 -116.8155
1555.141477 93.317 -116.5999
1566.410674 93.394 -116.3869
1577.761531 93.473 -116.1875
1589.194642 93.555 -116.0149
1600.710601 93.637 -115.8773
1612.310010 93.718 -115.7740
1623.993473 93.798 -115.6988
1635.761599 93.875 -115.6435
1647.615002 93.950 -115.6017
1659.554299 94.024 -115.5680
1671.580114 94.097 -115.5388
1683.693072 94.169 -115.5132
1695.893807 94.241 -115.4929
1708.182952 94.312 -115.4799
1720.561150 94.382 -115.4745
1733.029045 94.450 -115.4739
1745.587288 94.516 -115.4731
1758.236533 94.580 -115.4657
1770.977440 94.645 -115.4469
1783.810673 94.711 -115.4178
1796.736900 94.780 -115.3880
1809.756796 94.853 -115.3725
1822.871040 94.928 -115.3827
1836.080315 95.005 -115.4233
1849.385310 95.082 -115.4933
1862.786718 95.160 -115.5895
1876.285239 95.237 -115.7073
1889.881575 95.314 -115.8413
1903.576436 95.393 -115.9862
1917.370535 95.474 -116.1369
1931.264593 95.559 -116.2907
1945.259332 95.649 -116.4493
1959.355483 95.745 -116.6217
1973.553781 95.845 -116.8221
1987.854965 95.948 -117.0611
2002.259781 96.052 -117.3429
2016.768981 96.153 -117.6654
2031.383320 96.252 -118.0239
2046.103561 96.347 -118.4128
2060.930471 96.439 -118.8274
2075.864823 96.526 -119.2654
2090.907395 96.610 -119.7257
2106.058972 96.688 -120.2057
2121.320344 96.761 -120.7000
2136.692305 96.827 -121.2004
2152.175658 96.889 -121.6987
2167.771210 96.946 -122.1917
2183.479774 97.001 -122.6848
2199.302169 97.054 -123.1882
2215.239219 97.104 -123.7098
2231.291755 97.150 -124.2528
2247.460615 97.191 -124.8155
2263.746641 97.226 -125.3929
2280.150683 97.255 -125.9765
2296.673595 97.278 -126.5568
2313.316238 97.295 -127.1246
2330.079481 97.309 -127.6760
2346.964198 97.319 -128.2146
2363.971268 97.327 -128.7488
2381.101578 97.332 -129.2848
2398.356022 97.332 -129.8234
2415.735498 97.327 -130.3606
2433.240913 97.315 -130.8894
2450.873180 97.297 -131.4021
2468.633217 97.273 -131.8921
2486.521951 97.242 -132.3525
2504.540314 97.206 -132.7742
2522.689246 97.164 -133.1451
2540.969692 97.119 -133.4542
2559.382606 97.074 -133.6976
2577.928947 97.030 -133.8814
2596.609683 96.990 -134.0171
2615.425787 96.954 -134.1167
2634.378241 96.922 -134.1900
2653.468031 96.893 -134.2442
2672.696154 96.868 -134.2833
2692.063613 96.847 -134.3106
2711.571415 96.831 -134.3324
2731.220579 96.819 -134.3608
2751.012130 96.811 -134.4117
2770.947098 96.805 -134.4968
2791.026522 96.798 -134.6199
2811.251451 96.788 -134.7765
2831.622938 96.773 -134.9564
2852.142045 96.752 -135.1473
2872.809842 96.724 -135.3356
2893.627406 96.689 -135.5061
2914.595823 96.648 -135.6414
2935.716186 96.602 -135.7278
2956.989596 96.554 -135.7605
2978.417161 96.505 -135.7431
3000.000000 96.457 -135.6822
3021.739237 96.410 -135.5835
3043.636005 96.363 -135.4477
3065.691446 96.317 -135.2703
3087.906710 96.273 -135.0441
3110.282955 96.231 -134.7664
3132.821347 96.195 -134.4424
3155.523062 96.166 -134.0833
3178.389283 96.142 -133.7015
3201.421202 96.126 -133.3081
3224.620020 96.115 -132.9122
3247.986946 96.108 -132.5209
3271.523198 96.106 -132.1366
3295.230004 96.105 -131.7549
3319.108599 96.106 -131.3673
3343.160228 96.110 -130.9687
3367.386145 96.117 -130.5601
3391.787613 96.128 -130.1451
3416.365904 96.142 -129.7258
3441.122300 96.158 -129.2982
3466.058091 96.177 -128.8528
3491.174576 96.199 -128.3798
3516.473066 96.227 -127.8763
3541.954880 96.261 -127.3477
3567.621345 96.303 -126.8043
3593.473800 96.353 -126.2578
3619.513592 96.411 -125.7199
3645.742080 96.475 -125.1998
3672.160630 96.544 -124.7005
3698.770620 96.618 -124.2178
3725.573436 96.695 -123.7468
3752.570477 96.777 -123.2872
3779.763150 96.863 -122.8427
3807.152872 96.952 -122.4168
3834.741071 97.043 -122.0077
3862.529185 97.137 -121.6079
3890.518664 97.234 -121.2108
3918.710966 97.336 -120.8164
3947.107561 97.445 -120.4319
3975.709929 97.561 -120.0689
4004.519563 97.685 -119.7409
4033.537962 97.816 -119.4599
4062.766641 97.952 -119.2316
4092.207123 98.092 -119.0549
4121.860942 98.237 -118.9279
4151.729646 98.386 -118.8527
4181.814790 98.539 -118.8351
4212.117944 98.694 -118.8791
4242.640687 98.850 -118.9834
4273.384610 99.008 -119.1431
4304.351317 99.166 -119.3552
4335.542421 99.325 -119.6192
4366.959549 99.486 -119.9342
4398.604338 99.648 -120.2974
4430.478438 99.815 -120.7052
4462.583511 99.989 -121.1591
4494.921231 100.174 -121.6796
4527.493283 100.373 -122.3137
4560.301365 100.583 -123.1236
4593.347189 100.796 -124.1616
4626.632476 101.005 -125.4509
4660.158962 101.201 -126.9861
4693.928395 101.380 -128.7466
4727.942535 101.537 -130.7083
4762.203156 101.672 -132.8496
4796.712043 101.781 -135.1517
4831.470996 101.861 -137.5947
4866.481826 101.911 -140.1519
4901.746360 101.927 -142.7901
4937.266434 101.909 -145.4734
4973.043902 101.856 -148.1650
5009.080628 101.768 -150.8252
5045.378492 101.644 -153.4106
5081.939384 101.487 -155.8780
5118.765212 101.300 -158.1901
5155.857894 101.087 -160.3196
5193.219366 100.852 -162.2517
5230.851574 100.599 -163.9806
5268.756481 100.332 -165.5047
5306.936062 100.053 -166.8257
5345.392309 99.765 -167.9498
5384.127225 99.470 -168.8861
5423.142830 99.170 -169.6406
5462.441159 98.866 -170.2148
5502.024259 98.559 -170.6078
5541.894195 98.252 -170.8211
5582.053045 97.949 -170.8633
5622.502902 97.652 -170.7482
5663.245876 97.364 -170.4914
5704.284090 97.085 -170.1088
5745.619684 96.818 -169.6181
5787.254813 96.562 -169.0356
5829.191647 96.316 -168.3714
5871.432373 96.080 -167.6273
5913.979192 95.854 -166.8005
5956.834323 95.639 -165.8893
6000.000000 95.436 -164.8969
6043.478473 95.246 -163.8296
6087.272010 95.070 -162.6953
6131.382892 94.909 -161.5043
6175.813420 94.762 -160.2684
6220.565910 94.630 -158.9955
6265.642695 94.512 -157.6867
6311.046124 94.408 -156.3381
6356.778566 94.317 -154.9461
6402.842404 94.242 -153.5111
6449.240040 94.183 -152.0368
6495.973891 94.143 -150.5300
6543.046396 94.121 -149.0016
6590.460007 94.119 -147.4630
6638.217197 94.136 -145.9212
6686.320456 94.172 -144.3778
6734.772290 94.229 -142.8327
6783.575226 94.308 -141.2883
6832.731809 94.409 -139.7511
6882.244600 94.535 -138.2326
6932.116181 94.687 -136.7503
6982.349153 94.865 -135.3249
7032.946133 95.070 -133.9754
7083.909760 95.304 -132.7184
7135.242690 95.569 -131.5721
7186.947600 95.867 -130.5613
7239.027185 96.201 -129.7196
7291.484160 96.571 -129.0932
7344.321260 96.978 -128.7409
7397.541239 97.420 -128.7292
7451.146872 97.890 -129.1267
7505.140954 98.383 -130.0017
7559.526299 98.888 -131.4223
7614.305743 99.394 -133.4528
7669.482141 99.884 -136.1477
7725.058371 100.340 -139.5453
7781.037328 100.740 -143.6545
7837.421932 101.062 -148.4413
7894.215122 101.285 -153.8178
7951.419859 101.391 -159.6410
8009.039125 101.370 -165.7184
8067.075924 101.217 -171.8256
8125.533282 100.937 -177.7343
8184.414245 100.539 176.7605
8243.721885 100.037 171.8217
8303.459292 99.447 167.5627
8363.629581 98.789 164.0496
8424.235888 98.083 161.3074
8485.281374 97.350 159.3252
8546.769221 96.608 158.0584
8608.702634 95.876 157.4360
8671.084842 95.169 157.3716
8733.919097 94.497 157.7759
8797.208675 93.866 158.5678
8860.956876 93.280 159.6783
8925.167022 92.741 161.0479
8989.842461 92.250 162.6218
9054.986566 91.805 164.3521
9120.602731 91.405 166.2013
9186.694378 91.046 168.1449
9253.264952 90.727 170.1707
9320.317925 90.447 172.2711
9387.856790 90.206 174.4347
9455.885071 90.004 176.6457
9524.406312 89.841 178.8879
9593.424086 89.718 -178.8502
9662.941992 89.634 -176.5730
9732.963653 89.592 -174.2847
9803.492719 89.595 -171.9964
9874.532869 89.643 -169.7278
9946.087805 89.740 -167.5034
10018.161257 89.888 -165.3467
10090.756983 90.089 -163.2809
10163.878768 90.348 -161.3386
10237.530423 90.668 -159.5698
10311.715789 91.055 -158.0439
10386.438732 91.507 -156.8446
10461.703149 92.024 -156.0659
10537.512962 92.601 -155.8131
10613.872125 93.227 -156.2020
10690.784618 93.885 -157.3505
10768.254450 94.552 -159.3615
10846.285661 95.199 -162.3037
10924.882318 95.795 -166.2013
11004.048518 96.304 -171.0267
11083.788390 96.695 -176.6900
11164.106090 96.934 176.9731
11245.005805 96.998 170.2078
11326.491752 96.872 163.3235
11408.568180 96.558 156.6515
11491.239368 96.071 150.4943
11574.509626 95.434 145.0856
11658.383294 94.679 140.5769
11742.864745 93.838 137.0425
11827.958384 92.946 134.4915
11913.668646 92.034 132.8793
12000.000000 91.130 132.1205
12086.956947 90.259 132.1069
12174.544019 89.437 132.7229
12262.765784 88.675 133.8557
12351.626840 87.982 135.3972
12441.131819 87.360 137.2487
12531.285389 86.809 139.3289
12622.092249 86.326 141.5782
12713.557132 85.907 143.9550
12805.684808 85.552 146.4280
12898.480079 85.257 148.9749
12991.947783 85.025 151.5798
13086.092792 84.857 154.2221
13180.920015 84.758 156.8614
13276.434395 84.734 159.4313
13372.640911 84.785 161.8469
13469.544580 84.910 164.0157
13567.150452 85.106 165.8423
13665.463617 85.363 167.2353
13764.489200 85.670 168.1180
13864.232362 86.014 168.4380
13964.698305 86.381 168.1671
14065.892266 86.757 167.2969
14167.819519 87.133 165.8343
14270.485380 87.498 163.7902
14373.895200 87.843 161.1642
14478.054370 88.156 157.9412
14582.968320 88.417 154.1130
14688.642520 88.599 149.7153
14795.082478 88.674 144.8541
14902.293745 88.622 139.7077
15010.281908 88.431 134.5064
15119.052599 88.103 129.4958
15228.611486 87.655 124.8957
15338.964283 87.116 120.8693
15450.116741 86.521 117.5083
15562.074656 85.911 114.8271
15674.843864 85.326 112.7587
15788.430244 84.808 111.1514
15902.839718 84.390 109.7740
16018.078250 84.090 108.3347
16134.151848 83.906 106.5189
16251.066563 83.812 104.0436
16368.828491 83.758 100.7166
16487.443769 83.680 96.4781
16606.918584 83.512 91.4202
16727.259161 83.194 85.7857
16848.471777 82.684 79.9406
16970.562748 81.963 74.3136
17093.538442 81.035 69.3249
17217.405268 79.922 65.3337
17342.169684 78.661 62.6105
17467.838194 77.293 61.3281
17594.417350 75.870 61.5590
17721.913751 74.442 63.2730
17850.334044 73.061 66.3352
17979.684923 71.779 70.5191
18109.973131 70.636 75.5397
18241.205462 69.665 81.0875
18373.388756 68.885 86.8465
18506.529905 68.299 92.4904
18640.635849 67.896 97.6732
18775.713581 67.642 102.0679
18911.770141 67.486 105.4635
19048.812624 67.364 107.8418
19186.848172 67.222 109.3727
19325.883983 67.026 110.3381
19465.927305 66.773 111.0285
19606.985439 66.483 111.6584
19749.065738 66.201 112.3118
19892.175609 65.978 112.9217
20036.322514 65.855 113.3093
