* Measurement data measured by REW V5.31
* Source: EXCL: Microphone (USB Sound Device        ), MICROPHONE (Master Volume), L, volume: 0.390
* Format: 256k Log Swept Sine, 1 sweep at -15.0 dBFS with no timing reference
* Dated: Oct 29, 2024 11:38:52 PM
* REW Settings:
*  C-weighting compensation: Off
*  Target level: 75.0 dB
* Note: Tripowin x 0diBi: Vivace L
* Measurement: L Tripowin x 0diBi: Vivace
* Smoothing: 1/12 octave
* Frequency Step: 96 ppo
* Start Frequency: 0.36621094 Hz
*
* Freq(Hz)	SPL(dB)	Phase(degrees)
0.366211	82.613	164.0201
0.368865	82.607	164.0020
0.371538	82.599	163.9749
0.374230	82.589	163.9408
0.376942	82.578	163.9016
0.379673	82.566	163.8585
0.382424	82.553	163.8125
0.385196	82.540	163.7640
0.387987	82.527	163.7134
0.390798	82.513	163.6608
0.393630	82.500	163.6063
0.396483	82.486	163.5499
0.399356	82.473	163.4917
0.402250	82.459	163.4316
0.405165	82.445	163.3696
0.408101	82.431	163.3057
0.411058	82.417	163.2399
0.414037	82.402	163.1721
0.417037	82.388	163.1024
0.420059	82.374	163.0307
0.423103	82.359	162.9570
0.426169	82.344	162.8813
0.429257	82.330	162.8036
0.432368	82.315	162.7238
0.435501	82.300	162.6420
0.438656	82.285	162.5581
0.441835	82.269	162.4721
0.445037	82.254	162.3840
0.448262	82.239	162.2937
0.451510	82.223	162.2013
0.454782	82.208	162.1068
0.458077	82.192	162.0101
0.461397	82.176	161.9111
0.464740	82.160	161.8100
0.468108	82.144	161.7067
0.471500	82.128	161.6011
0.474917	82.111	161.4933
0.478358	82.095	161.3832
0.481825	82.078	161.2708
0.485316	82.062	161.1562
0.488833	82.045	161.0393
0.492375	82.028	160.9200
0.495943	82.011	160.7985
0.499537	81.993	160.6747
0.503157	81.976	160.5485
0.506803	81.959	160.4200
0.510475	81.941	160.2892
0.514175	81.923	160.1560
0.517900	81.906	160.0205
0.521653	81.888	159.8826
0.525434	81.870	159.7424
0.529241	81.851	159.5999
0.533076	81.833	159.4550
0.536939	81.815	159.3078
0.540830	81.796	159.1583
0.544749	81.777	159.0064
0.548696	81.758	158.8523
0.552673	81.739	158.6958
0.556677	81.720	158.5370
0.560711	81.701	158.3760
0.564774	81.682	158.2126
0.568867	81.662	158.0471
0.572989	81.642	157.8793
0.577141	81.622	157.7094
0.581324	81.602	157.5372
0.585536	81.582	157.3629
0.589779	81.562	157.1864
0.594053	81.542	157.0079
0.598358	81.521	156.8274
0.602694	81.500	156.6448
0.607061	81.479	156.4603
0.611460	81.458	156.2738
0.615891	81.437	156.0854
0.620354	81.416	155.8952
0.624849	81.394	155.7033
0.629377	81.373	155.5096
0.633938	81.351	155.3143
0.638532	81.329	155.1174
0.643159	81.307	154.9190
0.647819	81.284	154.7192
0.652514	81.262	154.5180
0.657242	81.239	154.3156
0.662005	81.217	154.1120
0.666802	81.194	153.9073
0.671634	81.171	153.7016
0.676501	81.147	153.4951
0.681403	81.124	153.2878
0.686341	81.100	153.0799
0.691314	81.076	152.8714
0.696324	81.052	152.6626
0.701370	81.028	152.4534
0.706452	81.003	152.2441
0.711571	80.978	152.0345
0.716728	80.952	151.8246
0.721921	80.925	151.6143
0.727153	80.896	151.4032
0.732422	80.866	151.1906
0.737729	80.833	150.9759
0.743075	80.798	150.7583
0.748460	80.762	150.5370
0.753883	80.724	150.3116
0.759346	80.685	150.0816
0.764849	80.646	149.8468
0.770391	80.606	149.6070
0.775974	80.565	149.3620
0.781597	80.524	149.1119
0.787261	80.482	148.8564
0.792966	80.440	148.5956
0.798712	80.397	148.3293
0.804500	80.353	148.0575
0.810329	80.309	147.7802
0.816201	80.264	147.4972
0.822116	80.219	147.2085
0.828073	80.172	146.9141
0.834074	80.126	146.6139
0.840118	80.078	146.3080
0.846206	80.030	145.9961
0.852338	79.980	145.6783
0.858514	79.930	145.3546
0.864735	79.880	145.0249
0.871001	79.828	144.6892
0.877313	79.775	144.3475
0.883670	79.721	143.9997
0.890074	79.667	143.6459
0.896524	79.611	143.2860
0.903020	79.554	142.9200
0.909564	79.496	142.5480
0.916155	79.437	142.1700
0.922794	79.376	141.7859
0.929481	79.315	141.3958
0.936216	79.252	140.9999
0.943000	79.187	140.5980
0.949834	79.122	140.1904
0.956717	79.055	139.7770
0.963649	78.986	139.3580
0.970632	78.916	138.9334
0.977666	78.844	138.5035
0.984750	78.770	138.0683
0.991886	78.695	137.6281
0.999074	78.618	137.1829
1.006314	78.539	136.7330
1.013606	78.458	136.2786
1.020951	78.375	135.8200
1.028349	78.290	135.3575
1.035801	78.203	134.8912
1.043307	78.114	134.4216
1.050867	78.023	133.9489
1.058482	77.929	133.4735
1.066152	77.832	132.9955
1.073878	77.733	132.5153
1.081660	77.631	132.0327
1.089498	77.525	131.5477
1.097393	77.416	131.0595
1.105345	77.303	130.5674
1.113355	77.185	130.0703
1.121423	77.062	129.5671
1.129549	76.934	129.0568
1.137734	76.801	128.5385
1.145979	76.662	128.0112
1.154283	76.518	127.4743
1.162647	76.368	126.9268
1.171072	76.214	126.3681
1.179558	76.055	125.7974
1.188106	75.892	125.2137
1.196715	75.725	124.6161
1.205387	75.553	124.0037
1.214122	75.378	123.3754
1.222920	75.200	122.7302
1.231782	75.018	122.0668
1.240708	74.834	121.3840
1.249699	74.647	120.6805
1.258754	74.458	119.9547
1.267876	74.268	119.2052
1.277063	74.077	118.4301
1.286318	73.884	117.6279
1.295639	73.692	116.7964
1.305027	73.499	115.9338
1.314484	73.307	115.0376
1.324009	73.116	114.1057
1.333604	72.927	113.1355
1.343268	72.739	112.1242
1.353002	72.555	111.0691
1.362806	72.374	109.9670
1.372681	72.196	108.8148
1.382628	72.024	107.6089
1.392647	71.856	106.3459
1.402739	71.695	105.0218
1.412904	71.540	103.6327
1.423142	71.392	102.1743
1.433455	71.252	100.6420
1.443843	71.120	99.0307
1.454305	70.995	97.3348
1.464844	70.878	95.5476
1.475459	70.768	93.6616
1.486150	70.664	91.6684
1.496920	70.565	89.5591
1.507767	70.472	87.3248
1.518693	70.382	84.9568
1.529698	70.298	82.4469
1.540783	70.218	79.7875
1.551948	70.143	76.9727
1.563194	70.072	73.9981
1.574521	70.006	70.8618
1.585931	69.946	67.5651
1.597423	69.891	64.1131
1.608999	69.842	60.5151
1.620658	69.799	56.7856
1.632402	69.761	52.9439
1.644232	69.731	49.0142
1.656146	69.707	45.0246
1.668147	69.690	41.0063
1.680235	69.681	36.9919
1.692411	69.679	33.0136
1.704675	69.685	29.1019
1.717028	69.699	25.2840
1.729470	69.722	21.5828
1.742003	69.754	18.0159
1.754626	69.796	14.5962
1.767341	69.848	11.3315
1.780147	69.910	8.2248
1.793047	69.984	5.2752
1.806040	70.070	2.4781
1.819128	70.170	-0.1740
1.832310	70.286	-2.6904
1.845587	70.418	-5.0819
1.858961	70.568	-7.3585
1.872432	70.737	-9.5292
1.886001	70.924	-11.6014
1.899667	71.129	-13.5812
1.913433	71.351	-15.4739
1.927299	71.588	-17.2840
1.941265	71.841	-19.0155
1.955332	72.106	-20.6723
1.969501	72.382	-22.2579
1.983773	72.669	-23.7757
1.998148	72.963	-25.2287
2.012627	73.263	-26.6199
2.027212	73.568	-27.9521
2.041902	73.875	-29.2280
2.056698	74.182	-30.4500
2.071602	74.487	-31.6204
2.086614	74.789	-32.7416
2.101734	75.085	-33.8156
2.116964	75.374	-34.8447
2.132304	75.653	-35.8311
2.147756	75.922	-36.7774
2.163320	76.178	-37.6863
2.178996	76.422	-38.5613
2.194786	76.654	-39.4065
2.210690	76.875	-40.2259
2.226710	77.086	-41.0238
2.242845	77.289	-41.8034
2.259098	77.484	-42.5670
2.275468	77.672	-43.3159
2.291957	77.855	-44.0510
2.308566	78.032	-44.7724
2.325295	78.204	-45.4803
2.342145	78.371	-46.1744
2.359117	78.533	-46.8544
2.376212	78.692	-47.5200
2.393431	78.847	-48.1708
2.410775	78.999	-48.8063
2.428244	79.148	-49.4261
2.445840	79.295	-50.0298
2.463564	79.439	-50.6171
2.481416	79.582	-51.1877
2.499397	79.723	-51.7416
2.517509	79.863	-52.2789
2.535752	80.002	-52.8003
2.554127	80.140	-53.3070
2.572635	80.275	-53.8007
2.591277	80.408	-54.2831
2.610055	80.539	-54.7560
2.628968	80.666	-55.2207
2.648019	80.790	-55.6779
2.667208	80.910	-56.1281
2.686535	81.028	-56.5713
2.706003	81.143	-57.0074
2.725612	81.255	-57.4361
2.745363	81.364	-57.8572
2.765257	81.472	-58.2703
2.785295	81.577	-58.6748
2.805478	81.681	-59.0703
2.825808	81.784	-59.4565
2.846285	81.886	-59.8328
2.866910	81.987	-60.1991
2.887685	82.087	-60.5551
2.908611	82.186	-60.9010
2.929688	82.285	-61.2372
2.950917	82.382	-61.5643
2.972301	82.478	-61.8831
2.993839	82.573	-62.1942
3.015534	82.665	-62.4983
3.037386	82.756	-62.7955
3.059396	82.846	-63.0863
3.081565	82.933	-63.3706
3.103896	83.020	-63.6485
3.126388	83.105	-63.9199
3.149043	83.190	-64.1848
3.171862	83.274	-64.4430
3.194847	83.357	-64.6944
3.217998	83.441	-64.9388
3.241317	83.524	-65.1759
3.264805	83.607	-65.4056
3.288463	83.690	-65.6276
3.312293	83.772	-65.8418
3.336295	83.855	-66.0483
3.360471	83.937	-66.2472
3.384822	84.018	-66.4390
3.409350	84.099	-66.6245
3.434056	84.179	-66.8043
3.458940	84.259	-66.9792
3.484005	84.339	-67.1502
3.509252	84.418	-67.3181
3.534681	84.497	-67.4837
3.560295	84.577	-67.6477
3.586094	84.656	-67.8106
3.612081	84.736	-67.9730
3.638255	84.816	-68.1348
3.664620	84.897	-68.2959
3.691175	84.978	-68.4560
3.717923	85.058	-68.6147
3.744864	85.140	-68.7721
3.772001	85.221	-68.9284
3.799335	85.302	-69.0840
3.826866	85.383	-69.2396
3.854597	85.465	-69.3960
3.882529	85.546	-69.5541
3.910664	85.628	-69.7145
3.939002	85.710	-69.8781
3.967546	85.791	-70.0453
3.996296	85.873	-70.2165
4.025255	85.955	-70.3919
4.054423	86.036	-70.5711
4.083804	86.118	-70.7541
4.113396	86.200	-70.9406
4.143204	86.282	-71.1306
4.173227	86.364	-71.3244
4.203468	86.446	-71.5223
4.233928	86.527	-71.7247
4.264609	86.608	-71.9320
4.295512	86.689	-72.1448
4.326639	86.770	-72.3635
4.357992	86.849	-72.5884
4.389572	86.929	-72.8199
4.421380	87.008	-73.0581
4.453419	87.086	-73.3027
4.485691	87.163	-73.5537
4.518196	87.240	-73.8108
4.550936	87.317	-74.0734
4.583914	87.393	-74.3413
4.617131	87.468	-74.6142
4.650589	87.542	-74.8916
4.684289	87.615	-75.1735
4.718233	87.687	-75.4599
4.752424	87.759	-75.7507
4.786862	87.829	-76.0462
4.821549	87.899	-76.3464
4.856488	87.967	-76.6514
4.891680	88.034	-76.9607
4.927127	88.101	-77.2739
4.962831	88.166	-77.5903
4.998794	88.230	-77.9091
5.035017	88.294	-78.2298
5.071503	88.356	-78.5520
5.108253	88.418	-78.8754
5.145270	88.479	-79.2000
5.182555	88.538	-79.5259
5.220110	88.597	-79.8533
5.257937	88.654	-80.1819
5.296038	88.711	-80.5116
5.334415	88.767	-80.8419
5.373071	88.822	-81.1721
5.412006	88.876	-81.5020
5.451224	88.930	-81.8309
5.490725	88.984	-82.1588
5.530514	89.037	-82.4857
5.570590	89.089	-82.8115
5.610957	89.141	-83.1365
5.651616	89.192	-83.4608
5.692570	89.244	-83.7845
5.733821	89.294	-84.1076
5.775370	89.345	-84.4301
5.817221	89.396	-84.7519
5.859375	89.447	-85.0730
5.901834	89.498	-85.3934
5.944602	89.549	-85.7132
5.987679	89.600	-86.0328
6.031068	89.651	-86.3526
6.074771	89.703	-86.6731
6.118792	89.754	-86.9948
6.163131	89.806	-87.3182
6.207792	89.859	-87.6434
6.252776	89.912	-87.9709
6.298086	89.965	-88.3005
6.343725	90.018	-88.6326
6.389694	90.072	-88.9675
6.435996	90.127	-89.3056
6.482634	90.181	-89.6473
6.529610	90.236	-89.9932
6.576926	90.291	-90.3434
6.624585	90.346	-90.6983
6.672590	90.402	-91.0579
6.720942	90.458	-91.4222
6.769645	90.514	-91.7912
6.818700	90.570	-92.1648
6.868111	90.626	-92.5432
6.917881	90.682	-92.9263
6.968010	90.738	-93.3143
7.018504	90.793	-93.7070
7.069362	90.849	-94.1043
7.120590	90.904	-94.5058
7.172189	90.959	-94.9111
7.224161	91.014	-95.3196
7.276511	91.069	-95.7310
7.329239	91.123	-96.1449
7.382350	91.177	-96.5612
7.435845	91.230	-96.9795
7.489729	91.283	-97.3995
7.544002	91.336	-97.8204
7.598669	91.389	-98.2419
7.653732	91.441	-98.6632
7.709194	91.493	-99.0842
7.765058	91.545	-99.5044
7.821327	91.596	-99.9237
7.878004	91.648	-100.3418
7.935091	91.699	-100.7585
7.992592	91.750	-101.1735
8.050510	91.802	-101.5864
8.108847	91.853	-101.9973
8.167607	91.905	-102.4060
8.226793	91.956	-102.8127
8.286408	92.008	-103.2175
8.346454	92.061	-103.6206
8.406936	92.113	-104.0219
8.467856	92.166	-104.4218
8.529218	92.220	-104.8202
8.591024	92.273	-105.2175
8.653278	92.327	-105.6140
8.715983	92.382	-106.0099
8.779143	92.436	-106.4056
8.842760	92.491	-106.8012
8.906839	92.546	-107.1968
8.971381	92.602	-107.5926
9.036392	92.657	-107.9887
9.101873	92.712	-108.3852
9.167829	92.768	-108.7820
9.234263	92.823	-109.1793
9.301178	92.878	-109.5768
9.368578	92.933	-109.9743
9.436467	92.988	-110.3716
9.504847	93.042	-110.7684
9.573723	93.096	-111.1645
9.643099	93.148	-111.5596
9.712976	93.199	-111.9532
9.783361	93.249	-112.3451
9.854255	93.295	-112.7347
9.925663	93.340	-113.1217
9.997588	93.381	-113.5059
10.070035	93.420	-113.8869
10.143007	93.456	-114.2646
10.216507	93.491	-114.6387
10.290540	93.523	-115.0091
10.365109	93.555	-115.3758
10.440219	93.585	-115.7387
10.515873	93.614	-116.0980
10.592076	93.642	-116.4539
10.668830	93.670	-116.8066
10.746141	93.698	-117.1563
10.824012	93.726	-117.5033
10.902447	93.753	-117.8482
10.981451	93.780	-118.1912
11.061027	93.807	-118.5327
11.141180	93.834	-118.8731
11.221913	93.860	-119.2127
11.303232	93.886	-119.5519
11.385140	93.912	-119.8911
11.467641	93.938	-120.2303
11.550741	93.963	-120.5698
11.634442	93.988	-120.9098
11.718750	94.012	-121.2503
11.803669	94.037	-121.5913
11.889203	94.061	-121.9328
11.975357	94.084	-122.2748
12.062136	94.108	-122.6172
12.149543	94.131	-122.9598
12.237583	94.154	-123.3028
12.326262	94.176	-123.6458
12.415583	94.198	-123.9890
12.505552	94.219	-124.3323
12.596172	94.239	-124.6756
12.687449	94.259	-125.0190
12.779387	94.278	-125.3627
12.871992	94.296	-125.7067
12.965268	94.314	-126.0512
13.059220	94.332	-126.3964
13.153852	94.349	-126.7424
13.249170	94.366	-127.0895
13.345179	94.383	-127.4378
13.441884	94.400	-127.7874
13.539289	94.417	-128.1386
13.637401	94.433	-128.4915
13.736223	94.449	-128.8462
13.835761	94.465	-129.2026
13.936021	94.481	-129.5609
14.037007	94.496	-129.9211
14.138725	94.511	-130.2831
14.241180	94.525	-130.6470
14.344377	94.539	-131.0126
14.448323	94.553	-131.3802
14.553021	94.566	-131.7495
14.658478	94.579	-132.1207
14.764700	94.592	-132.4937
14.871691	94.605	-132.8686
14.979457	94.618	-133.2455
15.088005	94.631	-133.6243
15.197339	94.644	-134.0050
15.307465	94.657	-134.3876
15.418389	94.670	-134.7721
15.530117	94.683	-135.1583
15.642655	94.696	-135.5461
15.756008	94.709	-135.9352
15.870182	94.722	-136.3256
15.985184	94.735	-136.7167
16.101019	94.747	-137.1085
16.217694	94.760	-137.5005
16.335214	94.773	-137.8925
16.453586	94.785	-138.2843
16.572815	94.798	-138.6756
16.692909	94.812	-139.0662
16.813872	94.825	-139.4562
16.935713	94.840	-139.8453
17.058436	94.854	-140.2336
17.182048	94.870	-140.6211
17.306556	94.885	-141.0079
17.431967	94.901	-141.3938
17.558286	94.916	-141.7790
17.685521	94.932	-142.1633
17.813677	94.948	-142.5466
17.942762	94.963	-142.9287
18.072783	94.979	-143.3094
18.203746	94.994	-143.6884
18.335658	95.009	-144.0654
18.468526	95.024	-144.4400
18.602356	95.038	-144.8121
18.737156	95.053	-145.1814
18.872934	95.067	-145.5478
19.009695	95.082	-145.9111
19.147447	95.096	-146.2715
19.286197	95.110	-146.6291
19.425953	95.124	-146.9840
19.566721	95.138	-147.3364
19.708510	95.151	-147.6867
19.851326	95.164	-148.0350
19.995177	95.177	-148.3816
20.140070	95.189	-148.7266
20.286013	95.201	-149.0702
20.433014	95.212	-149.4126
20.581080	95.222	-149.7536
20.730219	95.232	-150.0936
20.880439	95.241	-150.4326
21.031747	95.250	-150.7707
21.184152	95.259	-151.1081
21.337661	95.268	-151.4453
21.492282	95.276	-151.7823
21.648024	95.284	-152.1198
21.804895	95.292	-152.4580
21.962902	95.299	-152.7973
22.122054	95.306	-153.1380
22.282360	95.312	-153.4802
22.443827	95.318	-153.8240
22.606464	95.323	-154.1694
22.770280	95.328	-154.5163
22.935283	95.332	-154.8645
23.101481	95.336	-155.2136
23.268884	95.339	-155.5636
23.437500	95.342	-155.9142
23.607338	95.345	-156.2653
23.778406	95.347	-156.6171
23.950714	95.349	-156.9694
24.124271	95.350	-157.3226
24.299086	95.352	-157.6766
24.475167	95.353	-158.0314
24.652524	95.354	-158.3870
24.831166	95.355	-158.7430
25.011103	95.355	-159.0990
25.192344	95.356	-159.4544
25.374898	95.356	-159.8084
25.558775	95.356	-160.1602
25.743984	95.356	-160.5092
25.930536	95.355	-160.8546
26.118439	95.355	-161.1961
26.307704	95.355	-161.5334
26.498341	95.355	-161.8664
26.690359	95.355	-162.1953
26.883768	95.356	-162.5202
27.078579	95.356	-162.8414
27.274801	95.357	-163.1589
27.472446	95.358	-163.4731
27.671522	95.359	-163.7840
27.872042	95.361	-164.0920
28.074014	95.362	-164.3976
28.277450	95.364	-164.7014
28.482360	95.366	-165.0045
28.688755	95.369	-165.3079
28.896645	95.371	-165.6129
29.106042	95.374	-165.9206
29.316957	95.376	-166.2321
29.529400	95.378	-166.5478
29.743382	95.380	-166.8678
29.958915	95.381	-167.1915
30.176009	95.381	-167.5181
30.394677	95.380	-167.8466
30.614929	95.378	-168.1760
30.836778	95.376	-168.5052
31.060234	95.373	-168.8339
31.285309	95.369	-169.1620
31.512015	95.365	-169.4899
31.740364	95.361	-169.8179
31.970368	95.356	-170.1467
32.202039	95.352	-170.4767
32.435388	95.347	-170.8080
32.670428	95.341	-171.1404
32.907171	95.335	-171.4735
33.145630	95.329	-171.8068
33.385817	95.323	-172.1396
33.627745	95.317	-172.4716
33.871425	95.310	-172.8028
34.116871	95.304	-173.1332
34.364096	95.297	-173.4633
34.613113	95.291	-173.7934
34.863934	95.284	-174.1239
35.116572	95.278	-174.4547
35.371041	95.271	-174.7854
35.627354	95.263	-175.1151
35.885525	95.254	-175.4429
36.145566	95.246	-175.7679
36.407492	95.236	-176.0891
36.671316	95.226	-176.4064
36.937051	95.216	-176.7199
37.204712	95.206	-177.0301
37.474313	95.196	-177.3379
37.745867	95.185	-177.6442
38.019389	95.175	-177.9497
38.294893	95.164	-178.2547
38.572394	95.153	-178.5592
38.851905	95.141	-178.8633
39.133442	95.129	-179.1666
39.417019	95.117	-179.4691
39.702651	95.104	-179.7706
39.990353	95.092	179.9286
40.280140	95.078	179.6285
40.572026	95.065	179.3290
40.866028	95.051	179.0300
41.162160	95.038	178.7318
41.460438	95.023	178.4345
41.760877	95.009	178.1386
42.063494	94.995	177.8441
42.368303	94.980	177.5510
42.675322	94.966	177.2590
42.984565	94.951	176.9675
43.296048	94.936	176.6760
43.609789	94.921	176.3844
43.925804	94.906	176.0928
44.244108	94.890	175.8019
44.564719	94.874	175.5125
44.887654	94.858	175.2255
45.212928	94.841	174.9410
45.540560	94.824	174.6589
45.870565	94.807	174.3786
46.202962	94.790	174.0992
46.537768	94.772	173.8201
46.875000	94.755	173.5411
47.214676	94.738	173.2625
47.556813	94.720	172.9846
47.901429	94.702	172.7078
48.248542	94.684	172.4322
48.598171	94.666	172.1581
48.950334	94.648	171.8857
49.305048	94.629	171.6153
49.662333	94.610	171.3472
50.022206	94.592	171.0814
50.384688	94.573	170.8175
50.749796	94.554	170.5548
51.117550	94.535	170.2928
51.487969	94.516	170.0312
51.861072	94.497	169.7701
52.236879	94.477	169.5099
52.615409	94.457	169.2513
52.996681	94.436	168.9950
53.380717	94.415	168.7418
53.767536	94.394	168.4922
54.157158	94.373	168.2465
54.549603	94.352	168.0040
54.944892	94.332	167.7635
55.343045	94.312	167.5231
55.744084	94.293	167.2811
56.148028	94.274	167.0360
56.554900	94.256	166.7871
56.964720	94.237	166.5345
57.377510	94.217	166.2786
57.793291	94.198	166.0200
58.212085	94.177	165.7600
58.633914	94.156	165.5001
59.058799	94.134	165.2418
59.486764	94.111	164.9866
59.917829	94.088	164.7347
60.352019	94.064	164.4856
60.789354	94.040	164.2382
61.229859	94.016	163.9916
61.673556	93.991	163.7457
62.120468	93.965	163.5008
62.570618	93.940	163.2574
63.024031	93.913	163.0160
63.480729	93.887	162.7767
63.940736	93.860	162.5396
64.404077	93.834	162.3045
64.870776	93.807	162.0714
65.340856	93.780	161.8399
65.814343	93.753	161.6099
66.291261	93.726	161.3812
66.771635	93.699	161.1542
67.255489	93.671	160.9294
67.742850	93.644	160.7067
68.233743	93.616	160.4865
68.728193	93.587	160.2685
69.226226	93.558	160.0533
69.727867	93.529	159.8413
70.233144	93.499	159.6326
70.742083	93.470	159.4269
71.254709	93.440	159.2241
71.771050	93.410	159.0243
72.291132	93.381	158.8269
72.814984	93.352	158.6298
73.342631	93.324	158.4300
73.874102	93.295	158.2258
74.409424	93.267	158.0192
74.948626	93.237	157.8153
75.491734	93.208	157.6180
76.038779	93.178	157.4273
76.589787	93.150	157.2403
77.144788	93.122	157.0536
77.703811	93.095	156.8657
78.266885	93.068	156.6761
78.834039	93.042	156.4836
79.405303	93.015	156.2870
79.980706	92.988	156.0855
80.560280	92.961	155.8785
81.144053	92.933	155.6652
81.732056	92.904	155.4442
82.324320	92.874	155.2155
82.920876	92.843	154.9808
83.521755	92.810	154.7437
84.126988	92.775	154.5087
84.736607	92.737	154.2812
85.350643	92.699	154.0654
85.969129	92.660	153.8636
86.592097	92.620	153.6761
87.219579	92.581	153.5017
87.851608	92.542	153.3383
88.488217	92.503	153.1835
89.129439	92.465	153.0350
89.775308	92.428	152.8910
90.425856	92.391	152.7495
91.081119	92.354	152.6082
91.741131	92.318	152.4643
92.405925	92.282	152.3161
93.075536	92.246	152.1639
93.750000	92.209	152.0098
94.429351	92.172	151.8574
95.113625	92.133	151.7097
95.802858	92.095	151.5680
96.497085	92.056	151.4321
97.196342	92.017	151.3017
97.900667	91.978	151.1769
98.610096	91.938	151.0581
99.324665	91.898	150.9449
100.044413	91.857	150.8372
100.769376	91.817	150.7354
101.499592	91.776	150.6404
102.235100	91.736	150.5533
102.975938	91.697	150.4741
103.722144	91.659	150.4025
104.473757	91.622	150.3391
105.230817	91.586	150.2845
105.993363	91.550	150.2399
106.761435	91.515	150.2050
107.535072	91.482	150.1778
108.314315	91.450	150.1541
109.099206	91.419	150.1287
109.889783	91.391	150.0967
110.686090	91.365	150.0542
111.488167	91.340	149.9998
112.296056	91.318	149.9359
113.109800	91.296	149.8665
113.929440	91.276	149.7950
114.755020	91.255	149.7222
115.586582	91.234	149.6485
116.424170	91.212	149.5765
117.267827	91.187	149.5084
118.117598	91.160	149.4412
118.973527	91.133	149.3625
119.835658	91.105	149.2537
120.704037	91.075	149.1033
121.578708	91.043	148.9175
122.459718	91.007	148.7137
123.347111	90.969	148.5080
124.240935	90.931	148.3111
125.141236	90.894	148.1294
126.048061	90.857	147.9666
126.961458	90.821	147.8239
127.881473	90.784	147.6999
128.808154	90.748	147.5908
129.741551	90.710	147.4909
130.681712	90.672	147.3946
131.628686	90.634	147.2977
132.582521	90.594	147.1994
133.543269	90.554	147.1009
134.510979	90.513	147.0049
135.485701	90.472	146.9138
136.467486	90.432	146.8288
137.456386	90.390	146.7500
138.452451	90.349	146.6758
139.455735	90.309	146.6037
140.466288	90.268	146.5323
141.484165	90.227	146.4612
142.509418	90.186	146.3915
143.542100	90.146	146.3246
144.582265	90.105	146.2620
145.629968	90.064	146.2047
146.685262	90.023	146.1529
147.748204	89.980	146.1068
148.818849	89.936	146.0665
149.897251	89.892	146.0319
150.983469	89.847	146.0034
152.077557	89.802	145.9821
153.179574	89.757	145.9697
154.289576	89.713	145.9675
155.407622	89.669	145.9755
156.533770	89.627	145.9902
157.668078	89.586	146.0049
158.810606	89.547	146.0132
159.961413	89.507	146.0106
161.120559	89.468	145.9968
162.288105	89.427	145.9745
163.464112	89.386	145.9478
164.648640	89.343	145.9209
165.841752	89.299	145.8979
167.043510	89.254	145.8826
168.253976	89.208	145.8779
169.473213	89.162	145.8860
170.701286	89.116	145.9080
171.938258	89.071	145.9425
173.184194	89.027	145.9862
174.439158	88.984	146.0349
175.703216	88.942	146.0853
176.976434	88.901	146.1362
178.258878	88.860	146.1879
179.550615	88.819	146.2421
180.851713	88.779	146.3011
182.162239	88.739	146.3674
183.482262	88.699	146.4439
184.811850	88.658	146.5329
186.151073	88.616	146.6365
187.500000	88.574	146.7553
188.858702	88.533	146.8877
190.227250	88.494	147.0302
191.605715	88.458	147.1799
192.994169	88.426	147.3352
194.392685	88.398	147.4948
195.801334	88.373	147.6556
197.220191	88.353	147.8140
198.649330	88.337	147.9652
200.088825	88.325	148.1027
201.538751	88.316	148.2197
202.999184	88.309	148.3100
204.470200	88.305	148.3686
205.951875	88.300	148.3922
207.444287	88.295	148.3806
208.947514	88.286	148.3373
210.461634	88.274	148.2695
211.986726	88.256	148.1867
213.522869	88.233	148.0998
215.070144	88.205	148.0191
216.628631	88.173	147.9533
218.198411	88.138	147.9072
219.779567	88.102	147.8803
221.372180	88.066	147.8681
222.976334	88.029	147.8641
224.592112	87.992	147.8636
226.219600	87.955	147.8655
227.858880	87.917	147.8715
229.510039	87.879	147.8852
231.173164	87.840	147.9099
232.848340	87.802	147.9465
234.535655	87.763	147.9933
236.235197	87.725	148.0472
237.947054	87.687	148.1066
239.671317	87.648	148.1717
241.408074	87.609	148.2438
243.157416	87.570	148.3253
244.919435	87.530	148.4182
246.694223	87.491	148.5250
248.481871	87.451	148.6479
250.282473	87.414	148.7884
252.096123	87.379	148.9461
253.922915	87.347	149.1175
255.762945	87.320	149.2948
257.616309	87.298	149.4659
259.483103	87.279	149.6180
261.363424	87.263	149.7426
263.257372	87.248	149.8391
265.165043	87.232	149.9132
267.086538	87.214	149.9739
269.021957	87.194	150.0293
270.971401	87.172	150.0851
272.934972	87.149	150.1436
274.912771	87.126	150.2047
276.904902	87.103	150.2681
278.911469	87.080	150.3342
280.932577	87.058	150.4034
282.968330	87.036	150.4750
285.018835	87.017	150.5450
287.084199	86.997	150.6073
289.164530	86.978	150.6550
291.259935	86.958	150.6853
293.370525	86.935	150.7021
295.496408	86.910	150.7146
297.637697	86.881	150.7332
299.794503	86.850	150.7652
301.966937	86.818	150.8132
304.155114	86.785	150.8759
306.359147	86.753	150.9498
308.579152	86.721	151.0308
310.815244	86.689	151.1150
313.067539	86.657	151.2003
315.336156	86.625	151.2873
317.621211	86.592	151.3795
319.922826	86.559	151.4813
322.241118	86.526	151.5955
324.576210	86.494	151.7216
326.928223	86.463	151.8568
329.297280	86.433	151.9968
331.683504	86.404	152.1373
334.087019	86.377	152.2749
336.507952	86.350	152.4076
338.946427	86.323	152.5352
341.402572	86.297	152.6597
343.876516	86.269	152.7845
346.368387	86.242	152.9130
348.878315	86.214	153.0471
351.406431	86.185	153.1868
353.952867	86.157	153.3312
356.517756	86.129	153.4788
359.101230	86.101	153.6280
361.703426	86.073	153.7779
364.324478	86.046	153.9284
366.964523	86.019	154.0799
369.623699	85.992	154.2329
372.302145	85.966	154.3882
375.000000	85.940	154.5460
377.717405	85.915	154.7060
380.454501	85.890	154.8677
383.211431	85.865	155.0307
385.988339	85.841	155.1949
388.785369	85.817	155.3610
391.602668	85.794	155.5294
394.440383	85.771	155.7002
397.298660	85.749	155.8730
400.177650	85.727	156.0473
403.077502	85.706	156.2222
405.998368	85.685	156.3965
408.940400	85.664	156.5692
411.903750	85.642	156.7413
414.888575	85.620	156.9157
417.895028	85.598	157.0956
420.923268	85.576	157.2836
423.973452	85.554	157.4803
427.045738	85.534	157.6849
430.140287	85.516	157.8939
433.257261	85.500	158.1030
436.396822	85.485	158.3089
439.559133	85.472	158.5108
442.744360	85.459	158.7085
445.952668	85.448	158.9000
449.184225	85.437	159.0804
452.439199	85.428	159.2437
455.717760	85.417	159.3870
459.020079	85.404	159.5141
462.346327	85.388	159.6357
465.696680	85.370	159.7636
469.071310	85.349	159.9052
472.470394	85.327	160.0618
475.894109	85.306	160.2305
479.342634	85.285	160.4060
482.816148	85.265	160.5831
486.314833	85.244	160.7602
489.838871	85.223	160.9415
493.388445	85.201	161.1348
496.963741	85.180	161.3439
500.564945	85.160	161.5656
504.192245	85.143	161.7919
507.845830	85.126	162.0152
511.525890	85.110	162.2320
515.232618	85.094	162.4431
518.966206	85.078	162.6523
522.726849	85.060	162.8652
526.514743	85.043	163.0869
530.330086	85.025	163.3194
534.173076	85.009	163.5603
538.043915	84.994	163.8050
541.942803	84.980	164.0508
545.869944	84.967	164.2983
549.825542	84.954	164.5476
553.809805	84.943	164.7967
557.822939	84.933	165.0426
561.865154	84.923	165.2836
565.936660	84.913	165.5208
570.037671	84.903	165.7574
574.168399	84.892	165.9970
578.329060	84.881	166.2415
582.519870	84.869	166.4902
586.741049	84.858	166.7425
590.992817	84.847	167.0003
595.275394	84.836	167.2663
599.589005	84.825	167.5398
603.933874	84.816	167.8169
608.310228	84.808	168.0941
612.718295	84.800	168.3700
617.158304	84.793	168.6475
621.630488	84.785	168.9326
626.135079	84.777	169.2313
630.672311	84.770	169.5460
635.242423	84.765	169.8723
639.845651	84.762	170.2042
644.482237	84.762	170.5388
649.152421	84.764	170.8768
653.856447	84.768	171.2168
658.594560	84.775	171.5521
663.367008	84.785	171.8719
668.174039	84.795	172.1678
673.015903	84.806	172.4410
677.892854	84.814	172.7001
682.805145	84.820	172.9548
687.753032	84.825	173.2123
692.736774	84.828	173.4780
697.756631	84.830	173.7559
702.812863	84.831	174.0470
707.905735	84.834	174.3484
713.035511	84.837	174.6557
718.202461	84.841	174.9653
723.406852	84.846	175.2767
728.648956	84.851	175.5912
733.929047	84.857	175.9103
739.247399	84.863	176.2350
744.604290	84.870	176.5660
750.000000	84.878	176.9033
755.434809	84.886	177.2464
760.909001	84.895	177.5948
766.422861	84.906	177.9479
771.976677	84.918	178.3053
777.570739	84.931	178.6663
783.205337	84.945	179.0306
788.880766	84.960	179.3990
794.597321	84.976	179.7744
800.355301	84.994	-179.8409
806.155005	85.015	-179.4475
811.996736	85.039	-179.0515
817.880799	85.066	-178.6620
823.807501	85.097	-178.2891
829.777150	85.130	-177.9407
835.790057	85.162	-177.6182
841.846536	85.193	-177.3144
847.946903	85.222	-177.0185
854.091476	85.249	-176.7227
860.280575	85.274	-176.4226
866.514523	85.298	-176.1145
872.793644	85.320	-175.7942
879.118267	85.342	-175.4604
885.488720	85.364	-175.1150
891.905336	85.385	-174.7584
898.368450	85.406	-174.3861
904.878398	85.426	-173.9890
911.435520	85.446	-173.5569
918.040157	85.467	-173.0800
924.692655	85.492	-172.5492
931.393359	85.524	-171.9575
938.142619	85.566	-171.3052
944.940787	85.624	-170.6046
951.788218	85.702	-169.8862
958.685268	85.802	-169.2027
965.632296	85.922	-168.6214
972.629666	86.053	-168.1972
979.677741	86.186	-167.9464
986.776890	86.313	-167.8441
993.927482	86.429	-167.8475
1001.129891	86.533	-167.9176
1008.384491	86.624	-168.0248
1015.691660	86.705	-168.1439
1023.051781	86.777	-168.2514
1030.465236	86.843	-168.3307
1037.932411	86.905	-168.3782
1045.453698	86.967	-168.4019
1053.029486	87.028	-168.4117
1060.660172	87.088	-168.4129
1068.346153	87.149	-168.4071
1076.087829	87.209	-168.3951
1083.885605	87.270	-168.3795
1091.739887	87.333	-168.3662
1099.651084	87.396	-168.3613
1107.619609	87.459	-168.3688
1115.645878	87.522	-168.3896
1123.730308	87.584	-168.4226
1131.873321	87.644	-168.4653
1140.075341	87.702	-168.5142
1148.336797	87.759	-168.5659
1156.658119	87.815	-168.6174
1165.039741	87.870	-168.6655
1173.482099	87.924	-168.7075
1181.985634	87.979	-168.7430
1190.550789	88.036	-168.7775
1199.178011	88.096	-168.8213
1207.867749	88.157	-168.8857
1216.620457	88.218	-168.9760
1225.436590	88.278	-169.0893
1234.316609	88.334	-169.2174
1243.260976	88.387	-169.3518
1252.270157	88.437	-169.4850
1261.344623	88.485	-169.6130
1270.484846	88.531	-169.7346
1279.691303	88.575	-169.8485
1288.964474	88.618	-169.9535
1298.304842	88.661	-170.0500
1307.712894	88.704	-170.1405
1317.189120	88.747	-170.2287
1326.734016	88.790	-170.3169
1336.348077	88.833	-170.4048
1346.031806	88.876	-170.4901
1355.785708	88.920	-170.5694
1365.610290	88.964	-170.6390
1375.506065	89.010	-170.6948
1385.473549	89.057	-170.7317
1395.513261	89.107	-170.7486
1405.625726	89.161	-170.7507
1415.811469	89.219	-170.7494
1426.071023	89.281	-170.7592
1436.404921	89.344	-170.7895
1446.813703	89.408	-170.8409
1457.297912	89.471	-170.9083
1467.858093	89.532	-170.9854
1478.494798	89.590	-171.0677
1489.208581	89.646	-171.1520
1500.000000	89.699	-171.2354
1510.869618	89.748	-171.3148
1521.818002	89.792	-171.3876
1532.845723	89.832	-171.4520
1543.953355	89.869	-171.5062
1555.141477	89.904	-171.5499
1566.410674	89.938	-171.5862
1577.761531	89.974	-171.6248
1589.194642	90.012	-171.6784
1600.710601	90.050	-171.7556
1612.310010	90.087	-171.8567
1623.993473	90.122	-171.9762
1635.761599	90.154	-172.1062
1647.615002	90.183	-172.2396
1659.554299	90.210	-172.3705
1671.580114	90.236	-172.4940
1683.693072	90.260	-172.6080
1695.893807	90.284	-172.7128
1708.182952	90.308	-172.8093
1720.561150	90.330	-172.8965
1733.029045	90.351	-172.9714
1745.587288	90.371	-173.0294
1758.236533	90.390	-173.0659
1770.977440	90.412	-173.0784
1783.810673	90.437	-173.0719
1796.736900	90.467	-173.0609
1809.756796	90.504	-173.0654
1822.871040	90.545	-173.1028
1836.080315	90.589	-173.1815
1849.385310	90.633	-173.3030
1862.786718	90.676	-173.4633
1876.285239	90.716	-173.6548
1889.881575	90.752	-173.8668
1903.576436	90.787	-174.0867
1917.370535	90.819	-174.3021
1931.264593	90.851	-174.5019
1945.259332	90.883	-174.6802
1959.355483	90.918	-174.8388
1973.553781	90.954	-174.9850
1987.854965	90.990	-175.1231
2002.259781	91.024	-175.2505
2016.768981	91.056	-175.3580
2031.383320	91.085	-175.4334
2046.103561	91.113	-175.4639
2060.930471	91.140	-175.4390
2075.864823	91.171	-175.3536
2090.907395	91.205	-175.2078
2106.058972	91.247	-175.0054
2121.320344	91.299	-174.7534
2136.692305	91.361	-174.4622
2152.175658	91.437	-174.1480
2167.771210	91.529	-173.8365
2183.479774	91.637	-173.5639
2199.302169	91.760	-173.3681
2215.239219	91.892	-173.2784
2231.291755	92.030	-173.3092
2247.460615	92.168	-173.4601
2263.746641	92.302	-173.7183
2280.150683	92.428	-174.0617
2296.673595	92.548	-174.4644
2313.316238	92.660	-174.9029
2330.079481	92.767	-175.3624
2346.964198	92.872	-175.8423
2363.971268	92.976	-176.3521
2381.101578	93.078	-176.9038
2398.356022	93.177	-177.5057
2415.735498	93.271	-178.1612
2433.240913	93.359	-178.8685
2450.873180	93.439	-179.6221
2468.633217	93.509	179.5857
2486.521951	93.568	178.7659
2504.540314	93.616	177.9338
2522.689246	93.653	177.1082
2540.969692	93.680	176.3068
2559.382606	93.700	175.5396
2577.928947	93.714	174.8063
2596.609683	93.725	174.1015
2615.425787	93.733	173.4195
2634.378241	93.737	172.7569
2653.468031	93.738	172.1141
2672.696154	93.735	171.4948
2692.063613	93.730	170.9039
2711.571415	93.724	170.3438
2731.220579	93.718	169.8094
2751.012130	93.713	169.2897
2770.947098	93.709	168.7735
2791.026522	93.705	168.2533
2811.251451	93.700	167.7266
2831.622938	93.692	167.1941
2852.142045	93.681	166.6580
2872.809842	93.665	166.1223
2893.627406	93.644	165.5954
2914.595823	93.618	165.0894
2935.716186	93.589	164.6154
2956.989596	93.556	164.1777
2978.417161	93.524	163.7736
3000.000000	93.491	163.3977
3021.739237	93.458	163.0452
3043.636005	93.425	162.7149
3065.691446	93.392	162.4096
3087.906710	93.360	162.1336
3110.282955	93.330	161.8864
3132.821347	93.303	161.6596
3155.523062	93.281	161.4396
3178.389283	93.261	161.2129
3201.421202	93.244	160.9700
3224.620020	93.227	160.7057
3247.986946	93.208	160.4194
3271.523198	93.186	160.1164
3295.230004	93.158	159.8100
3319.108599	93.124	159.5173
3343.160228	93.086	159.2521
3367.386145	93.044	159.0214
3391.787613	93.001	158.8271
3416.365904	92.957	158.6702
3441.122300	92.913	158.5540
3466.058091	92.870	158.4847
3491.174576	92.828	158.4668
3516.473066	92.792	158.4971
3541.954880	92.761	158.5650
3567.621345	92.736	158.6564
3593.473800	92.718	158.7575
3619.513592	92.706	158.8567
3645.742080	92.697	158.9463
3672.160630	92.691	159.0258
3698.770620	92.687	159.1017
3725.573436	92.683	159.1812
3752.570477	92.681	159.2661
3779.763150	92.681	159.3533
3807.152872	92.681	159.4390
3834.741071	92.683	159.5236
3862.529185	92.684	159.6132
3890.518664	92.686	159.7134
3918.710966	92.690	159.8237
3947.107561	92.699	159.9367
3975.709929	92.711	160.0417
4004.519563	92.728	160.1264
4033.537962	92.748	160.1811
4062.766641	92.769	160.2025
4092.207123	92.790	160.1957
4121.860942	92.810	160.1669
4151.729646	92.830	160.1191
4181.814790	92.849	160.0520
4212.117944	92.865	159.9672
4242.640687	92.879	159.8719
4273.384610	92.890	159.7763
4304.351317	92.900	159.6864
4335.542421	92.910	159.6010
4366.959549	92.920	159.5125
4398.604338	92.932	159.4093
4430.478438	92.945	159.2798
4462.583511	92.958	159.1191
4494.921231	92.968	158.9286
4527.493283	92.976	158.7115
4560.301365	92.981	158.4684
4593.347189	92.982	158.2010
4626.632476	92.978	157.9162
4660.158962	92.967	157.6265
4693.928395	92.952	157.3437
4727.942535	92.933	157.0738
4762.203156	92.911	156.8158
4796.712043	92.889	156.5626
4831.470996	92.864	156.3058
4866.481826	92.838	156.0418
4901.746360	92.809	155.7713
4937.266434	92.776	155.4951
4973.043902	92.740	155.2134
5009.080628	92.697	154.9300
5045.378492	92.648	154.6555
5081.939384	92.591	154.4034
5118.765212	92.529	154.1846
5155.857894	92.463	154.0037
5193.219366	92.394	153.8576
5230.851574	92.322	153.7407
5268.756481	92.247	153.6498
5306.936062	92.169	153.5844
5345.392309	92.087	153.5435
5384.127225	92.000	153.5281
5423.142830	91.907	153.5463
5462.441159	91.807	153.6152
5502.024259	91.701	153.7559
5541.894195	91.591	153.9876
5582.053045	91.482	154.3203
5622.502902	91.380	154.7498
5663.245876	91.288	155.2534
5704.284090	91.212	155.7859
5745.619684	91.149	156.2881
5787.254813	91.094	156.7168
5829.191647	91.036	157.0739
5871.432373	90.971	157.4002
5913.979192	90.897	157.7461
5956.834323	90.816	158.1480
6000.000000	90.733	158.6214
6043.478473	90.651	159.1663
6087.272010	90.574	159.7750
6131.382892	90.503	160.4346
6175.813420	90.438	161.1310
6220.565910	90.379	161.8547
6265.642695	90.327	162.6039
6311.046124	90.279	163.3816
6356.778566	90.238	164.1906
6402.842404	90.204	165.0303
6449.240040	90.178	165.8971
6495.973891	90.162	166.7844
6543.046396	90.155	167.6819
6590.460007	90.159	168.5798
6638.217197	90.171	169.4724
6686.320456	90.193	170.3592
6734.772290	90.224	171.2421
6783.575226	90.265	172.1203
6832.731809	90.316	172.9901
6882.244600	90.379	173.8430
6932.116181	90.453	174.6658
6982.349153	90.539	175.4427
7032.946133	90.636	176.1608
7083.909760	90.745	176.8115
7135.242690	90.865	177.3870
7186.947600	90.997	177.8773
7239.027185	91.142	178.2688
7291.484160	91.302	178.5416
7344.321260	91.474	178.6696
7397.541239	91.659	178.6249
7451.146872	91.852	178.3830
7505.140954	92.051	177.9236
7559.526299	92.253	177.2274
7614.305743	92.455	176.2752
7669.482141	92.651	175.0469
7725.058371	92.835	173.5212
7781.037328	93.000	171.6815
7837.421932	93.135	169.5246
7894.215122	93.230	167.0673
7951.419859	93.272	164.3470
8009.039125	93.254	161.4214
8067.075924	93.166	158.3647
8125.533282	93.004	155.2620
8184.414245	92.765	152.2047
8243.721885	92.448	149.2891
8303.459292	92.057	146.6122
8363.629581	91.597	144.2654
8424.235888	91.077	142.3280
8485.281374	90.509	140.8592
8546.769221	89.908	139.8903
8608.702634	89.287	139.4238
8671.084842	88.659	139.4404
8733.919097	88.037	139.9071
8797.208675	87.427	140.7848
8860.956876	86.839	142.0323
8925.167022	86.277	143.6044
8989.842461	85.747	145.4498
9054.986566	85.248	147.5176
9120.602731	84.782	149.7646
9186.694378	84.347	152.1617
9253.264952	83.940	154.6957
9320.317925	83.561	157.3620
9387.856790	83.208	160.1557
9455.885071	82.883	163.0685
9524.406312	82.584	166.0925
9593.424086	82.312	169.2251
9662.941992	82.067	172.4744
9732.963653	81.850	175.8533
9803.492719	81.664	179.3730
9874.532869	81.511	-176.9585
9946.087805	81.396	-173.1322
10018.161257	81.323	-169.1320
10090.756983	81.300	-164.9356
10163.878768	81.337	-160.5298
10237.530423	81.450	-155.9276
10311.715789	81.654	-151.1817
10386.438732	81.962	-146.3904
10461.703149	82.386	-141.6999
10537.512962	82.929	-137.3053
10613.872125	83.583	-133.4361
10690.784618	84.329	-130.3193
10768.254450	85.139	-128.1334
10846.285661	85.982	-126.9765
10924.882318	86.826	-126.8673
11004.048518	87.645	-127.7675
11083.788390	88.417	-129.6090
11164.106090	89.124	-132.3127
11245.005805	89.751	-135.7969
11326.491752	90.283	-139.9783
11408.568180	90.703	-144.7689
11491.239368	90.998	-150.0658
11574.509626	91.150	-155.7386
11658.383294	91.145	-161.6175
11742.864745	90.976	-167.4972
11827.958384	90.643	-173.1557
11913.668646	90.156	-178.3823
12000.000000	89.532	176.9982
12086.956947	88.793	173.1147
12174.544019	87.963	170.0493
12262.765784	87.069	167.8392
12351.626840	86.136	166.4805
12441.131819	85.185	165.9362
12531.285389	84.237	166.1474
12622.092249	83.309	167.0441
12713.557132	82.412	168.5493
12805.684808	81.558	170.5799
12898.480079	80.753	173.0521
12991.947783	80.001	175.8906
13086.092792	79.303	179.0318
13180.920015	78.661	-177.5805
13276.434395	78.073	-173.9977
13372.640911	77.538	-170.2625
13469.544580	77.053	-166.4052
13567.150452	76.619	-162.4502
13665.463617	76.232	-158.4215
13764.489200	75.893	-154.3413
13864.232362	75.601	-150.2262
13964.698305	75.359	-146.0912
14065.892266	75.168	-141.9568
14167.819519	75.031	-137.8508
14270.485380	74.955	-133.8082
14373.895200	74.943	-129.8770
14478.054370	75.002	-126.1276
14582.968320	75.136	-122.6522
14688.642520	75.349	-119.5602
14795.082478	75.641	-116.9805
14902.293745	76.007	-115.0611
15010.281908	76.435	-113.9558
15119.052599	76.903	-113.8054
15228.611486	77.380	-114.7186
15338.964283	77.828	-116.7512
15450.116741	78.200	-119.8834
15562.074656	78.451	-124.0044
15674.843864	78.538	-128.9076
15788.430244	78.428	-134.3000
15902.839718	78.102	-139.8305
16018.078250	77.560	-145.1356
16134.151848	76.816	-149.8901
16251.066563	75.896	-153.8402
16368.828491	74.834	-156.8145
16487.443769	73.664	-158.7218
16606.918584	72.422	-159.5458
16727.259161	71.140	-159.3337
16848.471777	69.848	-158.1788
16970.562748	68.568	-156.2024
17093.538442	67.320	-153.5357
17217.405268	66.115	-150.3009
17342.169684	64.960	-146.5994
17467.838194	63.857	-142.5112
17594.417350	62.806	-138.0951
17721.913751	61.802	-133.3916
17850.334044	60.842	-128.4326
17979.684923	59.920	-123.2487
18109.973131	59.035	-117.8706
18241.205462	58.184	-112.3323
18373.388756	57.367	-106.6759
18506.529905	56.581	-100.9457
18640.635849	55.823	-95.1841
18775.713581	55.088	-89.4311
18911.770141	54.368	-83.7123
19048.812624	53.656	-78.0280
19186.848172	52.947	-72.3571
19325.883983	52.245	-66.6774
19465.927305	51.565	-61.0192
19606.985439	50.940	-55.5429
19749.065738	50.410	-50.5903
19892.175609	50.025	-46.6940
20036.322514	49.822	-44.5004
