* Measurement data measured by REW V5.31
* Source: EXCL: Microphone (USB Sound Device        ), MICROPHONE (Master Volume), L, volume: 0.390
* Format: 256k Log Swept Sine, 1 sweep at -15.0 dBFS with no timing reference
* Dated: Oct 29, 2024 11:39:55 PM
* REW Settings:
*  C-weighting compensation: Off
*  Target level: 75.0 dB
* Note: Tripowin x 0diBi Vivace R
* Measurement: R Tripowin x 0diBi: Vivace
* Smoothing: 1/12 octave
* Frequency Step: 96 ppo
* Start Frequency: 0.36621094 Hz
*
* Freq(Hz)	SPL(dB)	Phase(degrees)
0.366211	84.283	162.4869
0.368865	84.277	162.4677
0.371538	84.269	162.4390
0.374230	84.258	162.4029
0.376942	84.247	162.3613
0.379673	84.234	162.3157
0.382424	84.221	162.2668
0.385196	84.207	162.2154
0.387987	84.194	162.1616
0.390798	84.180	162.1057
0.393630	84.166	162.0478
0.396483	84.151	161.9878
0.399356	84.137	161.9258
0.402250	84.123	161.8618
0.405165	84.108	161.7957
0.408101	84.094	161.7276
0.411058	84.079	161.6574
0.414037	84.064	161.5851
0.417037	84.049	161.5107
0.420059	84.034	161.4342
0.423103	84.019	161.3555
0.426169	84.004	161.2747
0.429257	83.988	161.1917
0.432368	83.973	161.1064
0.435501	83.957	161.0190
0.438656	83.942	160.9293
0.441835	83.926	160.8373
0.445037	83.910	160.7430
0.448262	83.894	160.6465
0.451510	83.878	160.5476
0.454782	83.861	160.4464
0.458077	83.845	160.3428
0.461397	83.828	160.2369
0.464740	83.812	160.1286
0.468108	83.795	160.0179
0.471500	83.778	159.9048
0.474917	83.761	159.7893
0.478358	83.744	159.6713
0.481825	83.727	159.5509
0.485316	83.709	159.4280
0.488833	83.692	159.3027
0.492375	83.674	159.1749
0.495943	83.656	159.0445
0.499537	83.638	158.9118
0.503157	83.620	158.7765
0.506803	83.602	158.6387
0.510475	83.584	158.4983
0.514175	83.566	158.3555
0.517900	83.547	158.2102
0.521653	83.528	158.0623
0.525434	83.510	157.9119
0.529241	83.491	157.7591
0.533076	83.471	157.6037
0.536939	83.452	157.4458
0.540830	83.433	157.2854
0.544749	83.413	157.1225
0.548696	83.394	156.9572
0.552673	83.374	156.7894
0.556677	83.354	156.6191
0.560711	83.334	156.4465
0.564774	83.314	156.2714
0.568867	83.293	156.0939
0.572989	83.273	155.9141
0.577141	83.252	155.7319
0.581324	83.231	155.5475
0.585536	83.210	155.3608
0.589779	83.189	155.1718
0.594053	83.168	154.9807
0.598358	83.147	154.7874
0.602694	83.125	154.5920
0.607061	83.103	154.3946
0.611460	83.081	154.1951
0.615891	83.059	153.9938
0.620354	83.037	153.7905
0.624849	83.015	153.5854
0.629377	82.992	153.3786
0.633938	82.969	153.1702
0.638532	82.947	152.9602
0.643159	82.924	152.7486
0.647819	82.900	152.5357
0.652514	82.877	152.3215
0.657242	82.853	152.1060
0.662005	82.830	151.8895
0.666802	82.806	151.6720
0.671634	82.782	151.4536
0.676501	82.758	151.2345
0.681403	82.733	151.0148
0.686341	82.708	150.7947
0.691314	82.684	150.5742
0.696324	82.659	150.3536
0.701370	82.633	150.1329
0.706452	82.608	149.9123
0.711571	82.581	149.6917
0.716728	82.554	149.4712
0.721921	82.526	149.2505
0.727153	82.496	149.0293
0.732422	82.465	148.8068
0.737729	82.431	148.5824
0.743075	82.395	148.3552
0.748460	82.358	148.1244
0.753883	82.319	147.8895
0.759346	82.279	147.6500
0.764849	82.238	147.4057
0.770391	82.197	147.1564
0.775974	82.155	146.9019
0.781597	82.113	146.6422
0.787261	82.070	146.3770
0.792966	82.026	146.1065
0.798712	81.982	145.8305
0.804500	81.938	145.5489
0.810329	81.892	145.2617
0.816201	81.846	144.9688
0.822116	81.800	144.6702
0.828073	81.752	144.3659
0.834074	81.704	144.0557
0.840118	81.656	143.7397
0.846206	81.606	143.4178
0.852338	81.556	143.0900
0.858514	81.505	142.7562
0.864735	81.452	142.4164
0.871001	81.399	142.0706
0.877313	81.345	141.7188
0.883670	81.290	141.3610
0.890074	81.234	140.9972
0.896524	81.177	140.6273
0.903020	81.119	140.2515
0.909564	81.060	139.8697
0.916155	80.999	139.4819
0.922794	80.937	139.0883
0.929481	80.874	138.6888
0.936216	80.810	138.2836
0.943000	80.744	137.8728
0.949834	80.677	137.4564
0.956717	80.608	137.0345
0.963649	80.537	136.6073
0.970632	80.465	136.1750
0.977666	80.392	135.7377
0.984750	80.316	135.2955
0.991886	80.239	134.8489
0.999074	80.160	134.3979
1.006314	80.079	133.9428
1.013606	79.996	133.4840
1.020951	79.911	133.0218
1.028349	79.824	132.5564
1.035801	79.735	132.0884
1.043307	79.643	131.6181
1.050867	79.549	131.1459
1.058482	79.453	130.6722
1.066152	79.354	130.1975
1.073878	79.252	129.7220
1.081660	79.147	129.2460
1.089498	79.039	128.7693
1.097393	78.928	128.2916
1.105345	78.812	127.8123
1.113355	78.692	127.3303
1.121423	78.568	126.8449
1.129549	78.439	126.3550
1.137734	78.304	125.8599
1.145979	78.165	125.3588
1.154283	78.022	124.8511
1.162647	77.873	124.3360
1.171072	77.720	123.8129
1.179558	77.562	123.2811
1.188106	77.401	122.7399
1.196715	77.235	122.1883
1.205387	77.065	121.6257
1.214122	76.892	121.0511
1.222920	76.716	120.4636
1.231782	76.536	119.8622
1.240708	76.354	119.2458
1.249699	76.169	118.6131
1.258754	75.981	117.9631
1.267876	75.792	117.2942
1.277063	75.601	116.6052
1.286318	75.409	115.8944
1.295639	75.215	115.1602
1.305027	75.021	114.4008
1.314484	74.827	113.6143
1.324009	74.633	112.7987
1.333604	74.439	111.9517
1.343268	74.247	111.0711
1.353002	74.055	110.1544
1.362806	73.866	109.1988
1.372681	73.679	108.2015
1.382628	73.495	107.1596
1.392647	73.315	106.0698
1.402739	73.138	104.9288
1.412904	72.966	103.7331
1.423142	72.798	102.4789
1.433455	72.635	101.1622
1.443843	72.478	99.7788
1.454305	72.325	98.3236
1.464844	72.176	96.7913
1.475459	72.031	95.1751
1.486150	71.888	93.4677
1.496920	71.746	91.6604
1.507767	71.605	89.7437
1.518693	71.465	87.7075
1.529698	71.325	85.5411
1.540783	71.186	83.2330
1.551948	71.048	80.7717
1.563194	70.911	78.1458
1.574521	70.777	75.3440
1.585931	70.644	72.3565
1.597423	70.515	69.1752
1.608999	70.390	65.7949
1.620658	70.269	62.2146
1.632402	70.152	58.4384
1.644232	70.042	54.4770
1.656146	69.937	50.3487
1.668147	69.839	46.0792
1.680235	69.749	41.7023
1.692411	69.668	37.2578
1.704675	69.596	32.7900
1.717028	69.534	28.3446
1.729470	69.484	23.9664
1.742003	69.445	19.6955
1.754626	69.420	15.5663
1.767341	69.409	11.6050
1.780147	69.414	7.8296
1.793047	69.435	4.2498
1.806040	69.475	0.8679
1.819128	69.535	-2.3208
1.832310	69.616	-5.3259
1.845587	69.721	-8.1601
1.858961	69.850	-10.8373
1.872432	70.003	-13.3700
1.886001	70.181	-15.7695
1.899667	70.382	-18.0451
1.913433	70.605	-20.2052
1.927299	70.848	-22.2567
1.941265	71.111	-24.2062
1.955332	71.390	-26.0594
1.969501	71.683	-27.8216
1.983773	71.989	-29.4977
1.998148	72.305	-31.0922
2.012627	72.629	-32.6093
2.027212	72.959	-34.0528
2.041902	73.292	-35.4262
2.056698	73.625	-36.7327
2.071602	73.957	-37.9753
2.086614	74.284	-39.1569
2.101734	74.604	-40.2801
2.116964	74.914	-41.3475
2.132304	75.213	-42.3617
2.147756	75.499	-43.3257
2.163320	75.770	-44.2431
2.178996	76.026	-45.1178
2.194786	76.267	-45.9547
2.210690	76.494	-46.7592
2.226710	76.710	-47.5365
2.242845	76.915	-48.2908
2.259098	77.112	-49.0253
2.275468	77.300	-49.7419
2.291957	77.482	-50.4417
2.308566	77.657	-51.1255
2.325295	77.826	-51.7933
2.342145	77.990	-52.4451
2.359117	78.148	-53.0807
2.376212	78.302	-53.6997
2.393431	78.452	-54.3016
2.410775	78.598	-54.8860
2.428244	78.742	-55.4524
2.445840	78.882	-56.0001
2.463564	79.021	-56.5287
2.481416	79.158	-57.0376
2.499397	79.293	-57.5267
2.517509	79.428	-57.9959
2.535752	79.562	-58.4456
2.554127	79.694	-58.8768
2.572635	79.824	-59.2909
2.591277	79.953	-59.6898
2.610055	80.078	-60.0751
2.628968	80.200	-60.4484
2.648019	80.319	-60.8107
2.667208	80.435	-61.1628
2.686535	80.547	-61.5051
2.706003	80.656	-61.8378
2.725612	80.763	-62.1612
2.745363	80.867	-62.4753
2.765257	80.970	-62.7799
2.785295	81.070	-63.0751
2.805478	81.170	-63.3607
2.825808	81.268	-63.6365
2.846285	81.366	-63.9023
2.866910	81.463	-64.1580
2.887685	81.561	-64.4034
2.908611	81.658	-64.6383
2.929688	81.754	-64.8629
2.950917	81.850	-65.0772
2.972301	81.946	-65.2815
2.993839	82.040	-65.4764
3.015534	82.133	-65.6623
3.037386	82.224	-65.8397
3.059396	82.315	-66.0094
3.081565	82.404	-66.1718
3.103896	82.493	-66.3277
3.126388	82.581	-66.4774
3.149043	82.668	-66.6216
3.171862	82.756	-66.7607
3.194847	82.843	-66.8951
3.217998	82.930	-67.0251
3.241317	83.018	-67.1509
3.264805	83.106	-67.2722
3.288463	83.195	-67.3888
3.312293	83.283	-67.5002
3.336295	83.373	-67.6061
3.360471	83.462	-67.7064
3.384822	83.551	-67.8014
3.409350	83.640	-67.8918
3.434056	83.729	-67.9787
3.458940	83.819	-68.0633
3.484005	83.908	-68.1468
3.509252	83.997	-68.2306
3.534681	84.087	-68.3159
3.560295	84.176	-68.4040
3.586094	84.266	-68.4958
3.612081	84.355	-68.5920
3.638255	84.446	-68.6931
3.664620	84.536	-68.7989
3.691175	84.626	-68.9089
3.717923	84.717	-69.0227
3.744864	84.808	-69.1400
3.772001	84.899	-69.2607
3.799335	84.990	-69.3849
3.826866	85.081	-69.5130
3.854597	85.172	-69.6456
3.882529	85.263	-69.7831
3.910664	85.353	-69.9261
3.939002	85.443	-70.0752
3.967546	85.532	-70.2309
3.996296	85.621	-70.3934
4.025255	85.710	-70.5631
4.054423	85.798	-70.7397
4.083804	85.885	-70.9232
4.113396	85.972	-71.1133
4.143204	86.059	-71.3098
4.173227	86.144	-71.5124
4.203468	86.229	-71.7209
4.233928	86.314	-71.9351
4.264609	86.397	-72.1549
4.295512	86.479	-72.3802
4.326639	86.561	-72.6112
4.357992	86.641	-72.8478
4.389572	86.721	-73.0905
4.421380	86.799	-73.3394
4.453419	86.876	-73.5945
4.485691	86.951	-73.8557
4.518196	87.026	-74.1226
4.550936	87.099	-74.3945
4.583914	87.172	-74.6707
4.617131	87.243	-74.9504
4.650589	87.313	-75.2329
4.684289	87.381	-75.5174
4.718233	87.449	-75.8038
4.752424	87.515	-76.0918
4.786862	87.580	-76.3816
4.821549	87.644	-76.6734
4.856488	87.707	-76.9674
4.891680	87.768	-77.2633
4.927127	87.828	-77.5607
4.962831	87.887	-77.8590
4.998794	87.945	-78.1575
5.035017	88.003	-78.4556
5.071503	88.059	-78.7528
5.108253	88.115	-79.0487
5.145270	88.169	-79.3433
5.182555	88.223	-79.6366
5.220110	88.277	-79.9289
5.257937	88.329	-80.2203
5.296038	88.381	-80.5109
5.334415	88.432	-80.8007
5.373071	88.483	-81.0895
5.412006	88.533	-81.3773
5.451224	88.584	-81.6639
5.490725	88.634	-81.9491
5.530514	88.684	-82.2331
5.570590	88.734	-82.5159
5.610957	88.784	-82.7978
5.651616	88.834	-83.0792
5.692570	88.884	-83.3607
5.733821	88.934	-83.6427
5.775370	88.985	-83.9257
5.817221	89.035	-84.2099
5.859375	89.087	-84.4957
5.901834	89.138	-84.7830
5.944602	89.190	-85.0721
5.987679	89.242	-85.3633
6.031068	89.294	-85.6570
6.074771	89.347	-85.9538
6.118792	89.400	-86.2546
6.163131	89.454	-86.5597
6.207792	89.508	-86.8697
6.252776	89.562	-87.1848
6.298086	89.616	-87.5051
6.343725	89.671	-87.8307
6.389694	89.726	-88.1616
6.435996	89.781	-88.4980
6.482634	89.837	-88.8401
6.529610	89.892	-89.1880
6.576926	89.947	-89.5419
6.624585	90.002	-89.9020
6.672590	90.058	-90.2682
6.720942	90.113	-90.6403
6.769645	90.167	-91.0179
6.818700	90.222	-91.4008
6.868111	90.277	-91.7884
6.917881	90.331	-92.1806
6.968010	90.384	-92.5772
7.018504	90.438	-92.9780
7.069362	90.491	-93.3828
7.120590	90.543	-93.7909
7.172189	90.595	-94.2019
7.224161	90.647	-94.6151
7.276511	90.699	-95.0298
7.329239	90.750	-95.4456
7.382350	90.800	-95.8623
7.435845	90.851	-96.2796
7.489729	90.901	-96.6970
7.544002	90.951	-97.1143
7.598669	91.001	-97.5309
7.653732	91.050	-97.9464
7.709194	91.100	-98.3604
7.765058	91.150	-98.7727
7.821327	91.199	-99.1834
7.878004	91.249	-99.5924
7.935091	91.299	-99.9996
7.992592	91.349	-100.4049
8.050510	91.400	-100.8083
8.108847	91.451	-101.2098
8.167607	91.502	-101.6095
8.226793	91.554	-102.0075
8.286408	91.606	-102.4042
8.346454	91.659	-102.7997
8.406936	91.712	-103.1943
8.467856	91.766	-103.5882
8.529218	91.820	-103.9815
8.591024	91.874	-104.3743
8.653278	91.929	-104.7670
8.715983	91.984	-105.1597
8.779143	92.040	-105.5525
8.842760	92.096	-105.9456
8.906839	92.152	-106.3391
8.971381	92.208	-106.7327
9.036392	92.264	-107.1266
9.101873	92.321	-107.5205
9.167829	92.377	-107.9144
9.234263	92.433	-108.3081
9.301178	92.489	-108.7015
9.368578	92.545	-109.0941
9.436467	92.600	-109.4857
9.504847	92.655	-109.8759
9.573723	92.710	-110.2645
9.643099	92.763	-110.6511
9.712976	92.816	-111.0355
9.783361	92.866	-111.4173
9.854255	92.914	-111.7962
9.925663	92.960	-112.1720
9.997588	93.004	-112.5445
10.070035	93.044	-112.9136
10.143007	93.083	-113.2793
10.216507	93.120	-113.6414
10.290540	93.155	-114.0000
10.365109	93.188	-114.3552
10.440219	93.221	-114.7071
10.515873	93.253	-115.0559
10.592076	93.284	-115.4019
10.668830	93.315	-115.7454
10.746141	93.345	-116.0865
10.824012	93.376	-116.4256
10.902447	93.406	-116.7630
10.981451	93.435	-117.0990
11.061027	93.465	-117.4339
11.141180	93.494	-117.7680
11.221913	93.522	-118.1014
11.303232	93.550	-118.4343
11.385140	93.578	-118.7669
11.467641	93.605	-119.0993
11.550741	93.631	-119.4315
11.634442	93.658	-119.7636
11.718750	93.683	-120.0954
11.803669	93.709	-120.4271
11.889203	93.734	-120.7585
11.975357	93.759	-121.0896
12.062136	93.783	-121.4203
12.149543	93.807	-121.7505
12.237583	93.831	-122.0802
12.326262	93.854	-122.4094
12.415583	93.876	-122.7382
12.505552	93.898	-123.0666
12.596172	93.919	-123.3947
12.687449	93.940	-123.7225
12.779387	93.959	-124.0505
12.871992	93.979	-124.3786
12.965268	93.998	-124.7071
13.059220	94.016	-125.0364
13.153852	94.034	-125.3665
13.249170	94.052	-125.6979
13.345179	94.070	-126.0306
13.441884	94.088	-126.3650
13.539289	94.105	-126.7012
13.637401	94.122	-127.0393
13.736223	94.139	-127.3796
13.835761	94.156	-127.7221
13.936021	94.173	-128.0668
14.037007	94.188	-128.4138
14.138725	94.204	-128.7631
14.241180	94.219	-129.1146
14.344377	94.234	-129.4684
14.448323	94.248	-129.8242
14.553021	94.262	-130.1822
14.658478	94.276	-130.5422
14.764700	94.289	-130.9041
14.871691	94.302	-131.2679
14.979457	94.316	-131.6336
15.088005	94.329	-132.0009
15.197339	94.343	-132.3700
15.307465	94.356	-132.7408
15.418389	94.370	-133.1130
15.530117	94.384	-133.4868
15.642655	94.398	-133.8620
15.756008	94.411	-134.2386
15.870182	94.425	-134.6164
15.985184	94.439	-134.9953
16.101019	94.454	-135.3753
16.217694	94.468	-135.7563
16.335214	94.482	-136.1381
16.453586	94.497	-136.5206
16.572815	94.512	-136.9038
16.692909	94.528	-137.2874
16.813872	94.544	-137.6713
16.935713	94.561	-138.0555
17.058436	94.577	-138.4396
17.182048	94.595	-138.8235
17.306556	94.612	-139.2071
17.431967	94.630	-139.5899
17.558286	94.648	-139.9718
17.685521	94.665	-140.3524
17.813677	94.683	-140.7314
17.942762	94.700	-141.1086
18.072783	94.717	-141.4834
18.203746	94.735	-141.8558
18.335658	94.751	-142.2253
18.468526	94.768	-142.5918
18.602356	94.785	-142.9551
18.737156	94.802	-143.3151
18.872934	94.819	-143.6718
19.009695	94.835	-144.0253
19.147447	94.852	-144.3756
19.286197	94.869	-144.7229
19.425953	94.885	-145.0674
19.566721	94.902	-145.4093
19.708510	94.918	-145.7489
19.851326	94.933	-146.0863
19.995177	94.949	-146.4219
20.140070	94.963	-146.7557
20.286013	94.978	-147.0880
20.433014	94.991	-147.4189
20.581080	95.004	-147.7484
20.730219	95.017	-148.0768
20.880439	95.029	-148.4042
21.031747	95.040	-148.7308
21.184152	95.052	-149.0569
21.337661	95.063	-149.3826
21.492282	95.073	-149.7083
21.648024	95.084	-150.0343
21.804895	95.094	-150.3610
21.962902	95.103	-150.6887
22.122054	95.113	-151.0177
22.282360	95.121	-151.3484
22.443827	95.130	-151.6807
22.606464	95.138	-152.0149
22.770280	95.145	-152.3510
22.935283	95.152	-152.6888
23.101481	95.158	-153.0283
23.268884	95.164	-153.3694
23.437500	95.170	-153.7120
23.607338	95.175	-154.0561
23.778406	95.180	-154.4017
23.950714	95.185	-154.7488
24.124271	95.189	-155.0976
24.299086	95.193	-155.4482
24.475167	95.197	-155.8006
24.652524	95.201	-156.1546
24.831166	95.205	-156.5100
25.011103	95.208	-156.8663
25.192344	95.212	-157.2226
25.374898	95.215	-157.5781
25.558775	95.217	-157.9318
25.743984	95.220	-158.2829
25.930536	95.222	-158.6305
26.118439	95.225	-158.9743
26.307704	95.227	-159.3141
26.498341	95.230	-159.6501
26.690359	95.234	-159.9831
26.883768	95.237	-160.3137
27.078579	95.241	-160.6428
27.274801	95.246	-160.9711
27.472446	95.250	-161.2991
27.671522	95.254	-161.6270
27.872042	95.257	-161.9546
28.074014	95.260	-162.2813
28.277450	95.263	-162.6066
28.482360	95.265	-162.9299
28.688755	95.266	-163.2506
28.896645	95.267	-163.5685
29.106042	95.267	-163.8838
29.316957	95.267	-164.1969
29.529400	95.267	-164.5082
29.743382	95.266	-164.8187
29.958915	95.266	-165.1289
30.176009	95.265	-165.4395
30.394677	95.263	-165.7507
30.614929	95.262	-166.0628
30.836778	95.260	-166.3759
31.060234	95.258	-166.6900
31.285309	95.255	-167.0052
31.512015	95.252	-167.3214
31.740364	95.249	-167.6387
31.970368	95.245	-167.9572
32.202039	95.241	-168.2766
32.435388	95.237	-168.5970
32.670428	95.233	-168.9181
32.907171	95.228	-169.2397
33.145630	95.223	-169.5613
33.385817	95.218	-169.8828
33.627745	95.213	-170.2039
33.871425	95.208	-170.5244
34.116871	95.203	-170.8441
34.364096	95.198	-171.1627
34.613113	95.194	-171.4803
34.863934	95.189	-171.7965
35.116572	95.184	-172.1114
35.371041	95.179	-172.4249
35.627354	95.173	-172.7370
35.885525	95.168	-173.0480
36.145566	95.163	-173.3579
36.407492	95.157	-173.6670
36.671316	95.151	-173.9751
36.937051	95.145	-174.2822
37.204712	95.138	-174.5881
37.474313	95.131	-174.8926
37.745867	95.124	-175.1956
38.019389	95.116	-175.4972
38.294893	95.108	-175.7975
38.572394	95.100	-176.0968
38.851905	95.091	-176.3955
39.133442	95.082	-176.6937
39.417019	95.073	-176.9919
39.702651	95.063	-177.2901
39.990353	95.053	-177.5886
40.280140	95.043	-177.8874
40.572026	95.033	-178.1866
40.866028	95.022	-178.4860
41.162160	95.011	-178.7855
41.460438	95.000	-179.0844
41.760877	94.988	-179.3823
42.063494	94.976	-179.6787
42.368303	94.964	-179.9732
42.675322	94.951	179.7344
42.984565	94.938	179.4438
43.296048	94.925	179.1550
43.609789	94.912	178.8679
43.925804	94.898	178.5826
44.244108	94.884	178.2995
44.564719	94.870	178.0190
44.887654	94.855	177.7412
45.212928	94.841	177.4658
45.540560	94.826	177.1920
45.870565	94.812	176.9190
46.202962	94.797	176.6460
46.537768	94.782	176.3724
46.875000	94.767	176.0983
47.214676	94.752	175.8238
47.556813	94.736	175.5493
47.901429	94.721	175.2754
48.248542	94.705	175.0023
48.598171	94.688	174.7304
48.950334	94.672	174.4598
49.305048	94.655	174.1908
49.662333	94.639	173.9234
50.022206	94.622	173.6577
50.384688	94.604	173.3939
50.749796	94.587	173.1321
51.117550	94.569	172.8726
51.487969	94.551	172.6156
51.861072	94.534	172.3614
52.236879	94.516	172.1099
52.615409	94.498	171.8607
52.996681	94.480	171.6136
53.380717	94.462	171.3682
53.767536	94.444	171.1240
54.157158	94.426	170.8810
54.549603	94.409	170.6393
54.944892	94.391	170.3989
55.343045	94.374	170.1596
55.744084	94.357	169.9207
56.148028	94.341	169.6815
56.554900	94.324	169.4407
56.964720	94.308	169.1975
57.377510	94.292	168.9513
57.793291	94.276	168.7020
58.212085	94.260	168.4500
58.633914	94.243	168.1958
59.058799	94.226	167.9404
59.486764	94.208	167.6850
59.917829	94.189	167.4305
60.352019	94.169	167.1779
60.789354	94.149	166.9276
61.229859	94.128	166.6795
61.673556	94.107	166.4329
62.120468	94.086	166.1871
62.570618	94.065	165.9413
63.024031	94.043	165.6957
63.480729	94.020	165.4509
63.940736	93.997	165.2078
64.404077	93.974	164.9672
64.870776	93.951	164.7290
65.340856	93.928	164.4925
65.814343	93.905	164.2569
66.291261	93.882	164.0218
66.771635	93.858	163.7875
67.255489	93.834	163.5553
67.742850	93.809	163.3259
68.233743	93.784	163.0997
68.728193	93.759	162.8761
69.226226	93.734	162.6542
69.727867	93.708	162.4335
70.233144	93.683	162.2137
70.742083	93.657	161.9948
71.254709	93.631	161.7762
71.771050	93.606	161.5570
72.291132	93.580	161.3364
72.814984	93.555	161.1139
73.342631	93.529	160.8904
73.874102	93.503	160.6675
74.409424	93.478	160.4467
74.948626	93.452	160.2283
75.491734	93.427	160.0118
76.038779	93.402	159.7956
76.589787	93.377	159.5783
77.144788	93.352	159.3600
77.703811	93.326	159.1429
78.266885	93.298	158.9307
78.834039	93.270	158.7255
79.405303	93.243	158.5252
79.980706	93.216	158.3245
80.560280	93.188	158.1177
81.144053	93.161	157.9019
81.732056	93.132	157.6776
82.324320	93.102	157.4464
82.920876	93.071	157.2106
83.521755	93.037	156.9736
84.126988	93.002	156.7392
84.736607	92.965	156.5114
85.350643	92.928	156.2930
85.969129	92.890	156.0850
86.592097	92.852	155.8869
87.219579	92.814	155.6981
87.851608	92.777	155.5179
88.488217	92.739	155.3456
89.129439	92.702	155.1811
89.775308	92.666	155.0244
90.425856	92.629	154.8756
91.081119	92.593	154.7341
91.741131	92.557	154.5985
92.405925	92.522	154.4675
93.075536	92.486	154.3401
93.750000	92.451	154.2163
94.429351	92.416	154.0962
95.113625	92.381	153.9795
95.802858	92.346	153.8659
96.497085	92.312	153.7553
97.196342	92.278	153.6478
97.900667	92.245	153.5432
98.610096	92.213	153.4407
99.324665	92.181	153.3400
100.044413	92.151	153.2412
100.769376	92.122	153.1440
101.499592	92.093	153.0477
102.235100	92.066	152.9505
102.975938	92.040	152.8497
103.722144	92.015	152.7418
104.473757	91.990	152.6241
105.230817	91.966	152.4953
105.993363	91.941	152.3557
106.761435	91.916	152.2060
107.535072	91.889	152.0485
108.314315	91.861	151.8860
109.099206	91.832	151.7213
109.889783	91.801	151.5557
110.686090	91.769	151.3889
111.488167	91.736	151.2197
112.296056	91.699	151.0473
113.109800	91.660	150.8717
113.929440	91.618	150.6942
114.755020	91.573	150.5179
115.586582	91.525	150.3481
116.424170	91.475	150.1910
117.267827	91.424	150.0525
118.117598	91.374	149.9382
118.973527	91.325	149.8525
119.835658	91.280	149.7974
120.704037	91.240	149.7695
121.578708	91.204	149.7596
122.459718	91.172	149.7581
123.347111	91.142	149.7595
124.240935	91.113	149.7617
125.141236	91.084	149.7642
126.048061	91.054	149.7664
126.961458	91.025	149.7674
127.881473	90.997	149.7655
128.808154	90.970	149.7585
129.741551	90.946	149.7427
130.681712	90.924	149.7137
131.628686	90.904	149.6666
132.582521	90.886	149.5983
133.543269	90.867	149.5089
134.510979	90.847	149.4009
135.485701	90.825	149.2790
136.467486	90.800	149.1472
137.456386	90.773	149.0097
138.452451	90.743	148.8701
139.455735	90.711	148.7318
140.466288	90.677	148.5977
141.484165	90.642	148.4695
142.509418	90.606	148.3481
143.542100	90.569	148.2335
144.582265	90.531	148.1253
145.629968	90.493	148.0233
146.685262	90.453	147.9268
147.748204	90.413	147.8358
148.818849	90.371	147.7508
149.897251	90.329	147.6729
150.983469	90.286	147.6040
152.077557	90.243	147.5464
153.179574	90.199	147.5021
154.289576	90.156	147.4717
155.407622	90.115	147.4531
156.533770	90.075	147.4417
157.668078	90.037	147.4312
158.810606	90.000	147.4158
159.961413	89.964	147.3920
161.120559	89.927	147.3588
162.288105	89.891	147.3175
163.464112	89.853	147.2707
164.648640	89.814	147.2214
165.841752	89.774	147.1732
167.043510	89.734	147.1297
168.253976	89.692	147.0943
169.473213	89.650	147.0696
170.701286	89.608	147.0564
171.938258	89.566	147.0534
173.184194	89.526	147.0580
174.439158	89.487	147.0665
175.703216	89.449	147.0760
176.976434	89.413	147.0839
178.258878	89.377	147.0885
179.550615	89.341	147.0892
180.851713	89.305	147.0861
182.162239	89.269	147.0804
183.482262	89.233	147.0731
184.811850	89.197	147.0646
186.151073	89.160	147.0556
187.500000	89.124	147.0467
188.858702	89.088	147.0390
190.227250	89.051	147.0333
191.605715	89.014	147.0303
192.994169	88.977	147.0308
194.392685	88.940	147.0358
195.801334	88.903	147.0465
197.220191	88.866	147.0640
198.649330	88.829	147.0894
200.088825	88.793	147.1232
201.538751	88.757	147.1647
202.999184	88.723	147.2112
204.470200	88.690	147.2580
205.951875	88.657	147.3004
207.444287	88.626	147.3351
208.947514	88.594	147.3618
210.461634	88.561	147.3828
211.986726	88.526	147.4024
213.522869	88.490	147.4259
215.070144	88.452	147.4586
216.628631	88.413	147.5042
218.198411	88.374	147.5640
219.779567	88.337	147.6354
221.372180	88.300	147.7134
222.976334	88.265	147.7924
224.592112	88.231	147.8686
226.219600	88.198	147.9402
227.858880	88.165	148.0073
229.510039	88.132	148.0710
231.173164	88.100	148.1322
232.848340	88.067	148.1917
234.535655	88.034	148.2496
236.235197	88.001	148.3062
237.947054	87.968	148.3618
239.671317	87.934	148.4170
241.408074	87.900	148.4732
243.157416	87.865	148.5326
244.919435	87.829	148.5974
246.694223	87.793	148.6706
248.481871	87.756	148.7552
250.282473	87.719	148.8540
252.096123	87.683	148.9683
253.922915	87.650	149.0959
255.762945	87.619	149.2307
257.616309	87.590	149.3623
259.483103	87.564	149.4812
261.363424	87.539	149.5824
263.257372	87.514	149.6681
265.165043	87.487	149.7448
267.086538	87.458	149.8205
269.021957	87.429	149.9017
270.971401	87.399	149.9924
272.934972	87.369	150.0939
274.912771	87.340	150.2047
276.904902	87.313	150.3226
278.911469	87.287	150.4453
280.932577	87.263	150.5710
282.968330	87.241	150.6968
285.018835	87.221	150.8172
287.084199	87.202	150.9249
289.164530	87.184	151.0134
291.259935	87.165	151.0813
293.370525	87.144	151.1339
295.496408	87.120	151.1806
297.637697	87.094	151.2309
299.794503	87.065	151.2906
301.966937	87.036	151.3619
304.155114	87.006	151.4433
306.359147	86.977	151.5321
308.579152	86.947	151.6251
310.815244	86.918	151.7195
313.067539	86.889	151.8146
315.336156	86.859	151.9117
317.621211	86.828	152.0142
319.922826	86.797	152.1260
322.241118	86.766	152.2495
324.576210	86.735	152.3837
326.928223	86.706	152.5258
329.297280	86.677	152.6717
331.683504	86.650	152.8177
334.087019	86.624	152.9610
336.507952	86.599	153.0999
338.946427	86.574	153.2339
341.402572	86.548	153.3642
343.876516	86.523	153.4934
346.368387	86.496	153.6245
348.878315	86.470	153.7597
351.406431	86.443	153.8996
353.952867	86.416	154.0438
356.517756	86.390	154.1914
359.101230	86.363	154.3416
361.703426	86.337	154.4938
364.324478	86.311	154.6478
366.964523	86.285	154.8033
369.623699	86.259	154.9606
372.302145	86.233	155.1202
375.000000	86.208	155.2830
377.717405	86.184	155.4486
380.454501	86.160	155.6166
383.211431	86.136	155.7858
385.988339	86.113	155.9558
388.785369	86.091	156.1266
391.602668	86.068	156.2986
394.440383	86.046	156.4724
397.298660	86.025	156.6479
400.177650	86.003	156.8248
403.077502	85.982	157.0015
405.998368	85.962	157.1766
408.940400	85.941	157.3499
411.903750	85.920	157.5227
414.888575	85.899	157.6982
417.895028	85.877	157.8800
420.923268	85.856	158.0710
423.973452	85.835	158.2722
427.045738	85.816	158.4817
430.140287	85.798	158.6951
433.257261	85.782	158.9070
436.396822	85.767	159.1141
439.559133	85.754	159.3163
442.744360	85.741	159.5142
445.952668	85.730	159.7066
449.184225	85.720	159.8891
452.439199	85.711	160.0554
455.717760	85.701	160.2018
459.020079	85.688	160.3318
462.346327	85.673	160.4558
465.696680	85.654	160.5862
469.071310	85.634	160.7308
472.470394	85.613	160.8914
475.894109	85.593	161.0652
479.342634	85.573	161.2468
482.816148	85.554	161.4305
486.314833	85.534	161.6139
489.838871	85.513	161.8008
493.388445	85.492	161.9989
496.963741	85.471	162.2125
500.564945	85.451	162.4382
504.192245	85.433	162.6685
507.845830	85.417	162.8958
511.525890	85.401	163.1169
515.232618	85.385	163.3327
518.966206	85.368	163.5471
522.726849	85.352	163.7654
526.514743	85.335	163.9922
530.330086	85.318	164.2296
534.173076	85.302	164.4752
538.043915	85.288	164.7244
541.942803	85.275	164.9748
545.869944	85.263	165.2274
549.825542	85.252	165.4829
553.809805	85.241	165.7397
557.822939	85.232	165.9947
561.865154	85.223	166.2457
565.936660	85.213	166.4931
570.037671	85.203	166.7397
574.168399	85.192	166.9891
578.329060	85.182	167.2432
582.519870	85.171	167.5014
586.741049	85.160	167.7633
590.992817	85.149	168.0309
595.275394	85.139	168.3072
599.589005	85.130	168.5919
603.933874	85.122	168.8815
608.310228	85.115	169.1719
612.718295	85.109	169.4613
617.158304	85.102	169.7518
621.630488	85.095	170.0493
626.135079	85.089	170.3604
630.672311	85.083	170.6873
635.242423	85.079	171.0258
639.845651	85.078	171.3696
644.482237	85.079	171.7164
649.152421	85.081	172.0670
653.856447	85.087	172.4200
658.594560	85.095	172.7689
663.367008	85.106	173.1026
668.174039	85.118	173.4128
673.015903	85.130	173.6998
677.892854	85.140	173.9717
682.805145	85.149	174.2385
687.753032	85.155	174.5081
692.736774	85.160	174.7865
697.756631	85.164	175.0782
702.812863	85.169	175.3842
707.905735	85.174	175.7016
713.035511	85.181	176.0257
718.202461	85.188	176.3529
723.406852	85.197	176.6824
728.648956	85.205	177.0150
733.929047	85.215	177.3513
739.247399	85.225	177.6917
744.604290	85.236	178.0367
750.000000	85.248	178.3867
755.434809	85.261	178.7418
760.909001	85.275	179.1018
766.422861	85.291	179.4664
771.976677	85.308	179.8348
777.570739	85.327	-179.7937
783.205337	85.347	-179.4198
788.880766	85.368	-179.0430
794.597321	85.391	-178.6617
800.355301	85.416	-178.2742
806.155005	85.444	-177.8822
811.996736	85.476	-177.4912
817.880799	85.513	-177.1094
823.807501	85.552	-176.7462
829.777150	85.594	-176.4097
835.790057	85.636	-176.1022
841.846536	85.677	-175.8169
847.946903	85.716	-175.5427
854.091476	85.753	-175.2711
860.280575	85.788	-174.9978
866.514523	85.823	-174.7198
872.793644	85.857	-174.4341
879.118267	85.892	-174.1405
885.488720	85.929	-173.8434
891.905336	85.966	-173.5468
898.368450	86.006	-173.2517
904.878398	86.046	-172.9569
911.435520	86.088	-172.6627
918.040157	86.132	-172.3719
924.692655	86.177	-172.0880
931.393359	86.225	-171.8141
938.142619	86.274	-171.5534
944.940787	86.323	-171.3071
951.788218	86.373	-171.0738
958.685268	86.423	-170.8508
965.632296	86.472	-170.6356
972.629666	86.521	-170.4258
979.677741	86.570	-170.2201
986.776890	86.618	-170.0184
993.927482	86.666	-169.8186
1001.129891	86.712	-169.6159
1008.384491	86.756	-169.4052
1015.691660	86.801	-169.1845
1023.051781	86.844	-168.9532
1030.465236	86.888	-168.7102
1037.932411	86.931	-168.4534
1045.453698	86.974	-168.1757
1053.029486	87.015	-167.8576
1060.660172	87.059	-167.4692
1068.346153	87.111	-166.9846
1076.087829	87.181	-166.4046
1083.885605	87.278	-165.7789
1091.739887	87.407	-165.2106
1099.651084	87.562	-164.8223
1107.619609	87.726	-164.6966
1115.645878	87.882	-164.8321
1123.730308	88.014	-165.1553
1131.873321	88.120	-165.5676
1140.075341	88.202	-165.9863
1148.336797	88.265	-166.3607
1156.658119	88.317	-166.6689
1165.039741	88.363	-166.9072
1173.482099	88.407	-167.0816
1181.985634	88.452	-167.2035
1190.550789	88.501	-167.2896
1199.178011	88.554	-167.3604
1207.867749	88.609	-167.4350
1216.620457	88.667	-167.5248
1225.436590	88.724	-167.6307
1234.316609	88.778	-167.7475
1243.260976	88.831	-167.8681
1252.270157	88.881	-167.9863
1261.344623	88.930	-168.0987
1270.484846	88.978	-168.2047
1279.691303	89.024	-168.3031
1288.964474	89.070	-168.3926
1298.304842	89.116	-168.4739
1307.712894	89.162	-168.5497
1317.189120	89.208	-168.6239
1326.734016	89.255	-168.6992
1336.348077	89.302	-168.7753
1346.031806	89.349	-168.8496
1355.785708	89.397	-168.9183
1365.610290	89.446	-168.9779
1375.506065	89.497	-169.0239
1385.473549	89.549	-169.0513
1395.513261	89.605	-169.0589
1405.625726	89.664	-169.0521
1415.811469	89.728	-169.0426
1426.071023	89.796	-169.0453
1436.404921	89.866	-169.0697
1446.813703	89.936	-169.1163
1457.297912	90.005	-169.1799
1467.858093	90.073	-169.2542
1478.494798	90.139	-169.3347
1489.208581	90.201	-169.4180
1500.000000	90.261	-169.5012
1510.869618	90.317	-169.5811
1521.818002	90.369	-169.6551
1532.845723	90.417	-169.7208
1543.953355	90.462	-169.7766
1555.141477	90.505	-169.8222
1566.410674	90.549	-169.8617
1577.761531	90.594	-169.9056
1589.194642	90.642	-169.9676
1600.710601	90.691	-170.0567
1612.310010	90.739	-170.1739
1623.993473	90.785	-170.3140
1635.761599	90.830	-170.4699
1647.615002	90.872	-170.6358
1659.554299	90.913	-170.8070
1671.580114	90.952	-170.9801
1683.693072	90.991	-171.1541
1695.893807	91.028	-171.3308
1708.182952	91.065	-171.5121
1720.561150	91.100	-171.6977
1733.029045	91.133	-171.8845
1745.587288	91.162	-172.0672
1758.236533	91.189	-172.2392
1770.977440	91.215	-172.3948
1783.810673	91.241	-172.5342
1796.736900	91.270	-172.6661
1809.756796	91.302	-172.8043
1822.871040	91.336	-172.9594
1836.080315	91.370	-173.1352
1849.385310	91.403	-173.3297
1862.786718	91.436	-173.5387
1876.285239	91.467	-173.7563
1889.881575	91.497	-173.9759
1903.576436	91.527	-174.1901
1917.370535	91.558	-174.3920
1931.264593	91.592	-174.5757
1945.259332	91.630	-174.7397
1959.355483	91.673	-174.8895
1973.553781	91.720	-175.0351
1987.854965	91.771	-175.1841
2002.259781	91.823	-175.3375
2016.768981	91.876	-175.4913
2031.383320	91.929	-175.6401
2046.103561	91.983	-175.7803
2060.930471	92.040	-175.9122
2075.864823	92.100	-176.0420
2090.907395	92.164	-176.1802
2106.058972	92.231	-176.3379
2121.320344	92.299	-176.5233
2136.692305	92.367	-176.7401
2152.175658	92.434	-176.9877
2167.771210	92.500	-177.2653
2183.479774	92.562	-177.5757
2199.302169	92.621	-177.9215
2215.239219	92.674	-178.2995
2231.291755	92.719	-178.6993
2247.460615	92.756	-179.1055
2263.746641	92.784	-179.4991
2280.150683	92.804	-179.8599
2296.673595	92.818	179.8322
2313.316238	92.828	179.5933
2330.079481	92.838	179.4314
2346.964198	92.853	179.3420
2363.971268	92.876	179.3107
2381.101578	92.908	179.3196
2398.356022	92.950	179.3514
2415.735498	93.004	179.3885
2433.240913	93.069	179.4129
2450.873180	93.145	179.4052
2468.633217	93.232	179.3445
2486.521951	93.326	179.2133
2504.540314	93.425	178.9998
2522.689246	93.526	178.7006
2540.969692	93.628	178.3177
2559.382606	93.728	177.8524
2577.928947	93.824	177.3037
2596.609683	93.914	176.6723
2615.425787	93.996	175.9651
2634.378241	94.067	175.1953
2653.468031	94.125	174.3819
2672.696154	94.169	173.5476
2692.063613	94.201	172.7151
2711.571415	94.223	171.9022
2731.220579	94.237	171.1161
2751.012130	94.244	170.3552
2770.947098	94.246	169.6146
2791.026522	94.244	168.8907
2811.251451	94.236	168.1826
2831.622938	94.224	167.4914
2852.142045	94.206	166.8182
2872.809842	94.183	166.1653
2893.627406	94.154	165.5383
2914.595823	94.121	164.9460
2935.716186	94.084	164.3962
2956.989596	94.045	163.8889
2978.417161	94.006	163.4171
3000.000000	93.966	162.9710
3021.739237	93.927	162.5430
3043.636005	93.886	162.1306
3065.691446	93.843	161.7372
3087.906710	93.797	161.3708
3110.282955	93.751	161.0369
3132.821347	93.703	160.7357
3155.523062	93.656	160.4641
3178.389283	93.608	160.2195
3201.421202	93.561	160.0008
3224.620020	93.514	159.8074
3247.986946	93.467	159.6381
3271.523198	93.419	159.4931
3295.230004	93.372	159.3763
3319.108599	93.325	159.2938
3343.160228	93.280	159.2476
3367.386145	93.238	159.2338
3391.787613	93.200	159.2456
3416.365904	93.165	159.2776
3441.122300	93.134	159.3290
3466.058091	93.106	159.4044
3491.174576	93.082	159.5079
3516.473066	93.064	159.6364
3541.954880	93.053	159.7797
3567.621345	93.048	159.9238
3593.473800	93.049	160.0555
3619.513592	93.055	160.1636
3645.742080	93.063	160.2419
3672.160630	93.071	160.2923
3698.770620	93.078	160.3256
3725.573436	93.082	160.3547
3752.570477	93.084	160.3883
3779.763150	93.085	160.4305
3807.152872	93.083	160.4843
3834.741071	93.080	160.5562
3862.529185	93.076	160.6560
3890.518664	93.072	160.7910
3918.710966	93.071	160.9601
3947.107561	93.075	161.1534
3975.709929	93.086	161.3565
4004.519563	93.104	161.5523
4033.537962	93.128	161.7257
4062.766641	93.156	161.8683
4092.207123	93.187	161.9808
4121.860942	93.221	162.0663
4151.729646	93.255	162.1255
4181.814790	93.291	162.1563
4212.117944	93.326	162.1594
4242.640687	93.360	162.1415
4273.384610	93.393	162.1129
4304.351317	93.425	162.0796
4335.542421	93.458	162.0407
4366.959549	93.493	161.9889
4398.604338	93.530	161.9126
4430.478438	93.568	161.8002
4462.583511	93.606	161.6466
4494.921231	93.643	161.4528
4527.493283	93.678	161.2211
4560.301365	93.710	160.9521
4593.347189	93.738	160.6472
4626.632476	93.762	160.3135
4660.158962	93.779	159.9636
4693.928395	93.792	159.6092
4727.942535	93.801	159.2562
4762.203156	93.808	158.9028
4796.712043	93.813	158.5410
4831.470996	93.818	158.1613
4866.481826	93.820	157.7591
4901.746360	93.818	157.3340
4937.266434	93.813	156.8860
4973.043902	93.802	156.4152
5009.080628	93.783	155.9258
5045.378492	93.756	155.4295
5081.939384	93.719	154.9416
5118.765212	93.675	154.4746
5155.857894	93.624	154.0349
5193.219366	93.567	153.6212
5230.851574	93.505	153.2297
5268.756481	93.438	152.8589
5306.936062	93.364	152.5101
5345.392309	93.283	152.1855
5384.127225	93.193	151.8908
5423.142830	93.093	151.6417
5462.441159	92.982	151.4652
5502.024259	92.862	151.3952
5541.894195	92.738	151.4640
5582.053045	92.618	151.6881
5622.502902	92.514	152.0520
5663.245876	92.435	152.4927
5704.284090	92.386	152.8981
5745.619684	92.358	153.1450
5787.254813	92.334	153.1691
5829.191647	92.296	153.0014
5871.432373	92.232	152.7362
5913.979192	92.141	152.4749
5956.834323	92.027	152.2897
6000.000000	91.898	152.2156
6043.478473	91.760	152.2614
6087.272010	91.618	152.4217
6131.382892	91.476	152.6842
6175.813420	91.334	153.0353
6220.565910	91.193	153.4672
6265.642695	91.053	153.9803
6311.046124	90.915	154.5814
6356.778566	90.780	155.2775
6402.842404	90.651	156.0725
6449.240040	90.529	156.9662
6495.973891	90.417	157.9538
6543.046396	90.317	159.0247
6590.460007	90.232	160.1654
6638.217197	90.161	161.3643
6686.320456	90.108	162.6132
6734.772290	90.071	163.9044
6783.575226	90.054	165.2269
6832.731809	90.057	166.5660
6882.244600	90.081	167.9027
6932.116181	90.126	169.2131
6982.349153	90.192	170.4715
7032.946133	90.278	171.6555
7083.909760	90.382	172.7482
7135.242690	90.506	173.7346
7186.947600	90.648	174.5983
7239.027185	90.809	175.3199
7291.484160	90.986	175.8753
7344.321260	91.179	176.2352
7397.541239	91.383	176.3705
7451.146872	91.595	176.2580
7505.140954	91.808	175.8813
7559.526299	92.018	175.2294
7614.305743	92.220	174.2956
7669.482141	92.406	173.0767
7725.058371	92.572	171.5724
7781.037328	92.708	169.7892
7837.421932	92.806	167.7476
7894.215122	92.858	165.4850
7951.419859	92.856	163.0548
8009.039125	92.796	160.5225
8067.075924	92.674	157.9601
8125.533282	92.491	155.4376
8184.414245	92.248	153.0193
8243.721885	91.947	150.7654
8303.459292	91.594	148.7322
8363.629581	91.193	146.9706
8424.235888	90.752	145.5231
8485.281374	90.278	144.4194
8546.769221	89.781	143.6712
8608.702634	89.269	143.2736
8671.084842	88.750	143.2121
8733.919097	88.229	143.4698
8797.208675	87.710	144.0314
8860.956876	87.198	144.8845
8925.167022	86.697	146.0154
8989.842461	86.209	147.4052
9054.986566	85.737	149.0325
9120.602731	85.284	150.8774
9186.694378	84.850	152.9251
9253.264952	84.436	155.1672
9320.317925	84.045	157.5966
9387.856790	83.677	160.2023
9455.885071	83.334	162.9703
9524.406312	83.017	165.8890
9593.424086	82.727	168.9564
9662.941992	82.464	172.1832
9732.963653	82.232	175.5865
9803.492719	82.035	179.1791
9874.532869	81.877	-177.0331
9946.087805	81.766	-173.0506
10018.161257	81.708	-168.8754
10090.756983	81.713	-164.5157
10163.878768	81.792	-160.0020
10237.530423	81.956	-155.4029
10311.715789	82.217	-150.8301
10386.438732	82.576	-146.4298
10461.703149	83.032	-142.3631
10537.512962	83.575	-138.7899
10613.872125	84.189	-135.8527
10690.784618	84.854	-133.6582
10768.254450	85.547	-132.2635
10846.285661	86.246	-131.6737
10924.882318	86.935	-131.8559
11004.048518	87.599	-132.7624
11083.788390	88.228	-134.3486
11164.106090	88.811	-136.5801
11245.005805	89.338	-139.4283
11326.491752	89.797	-142.8637
11408.568180	90.174	-146.8482
11491.239368	90.451	-151.3249
11574.509626	90.613	-156.2067
11658.383294	90.642	-161.3649
11742.864745	90.527	-166.6306
11827.958384	90.263	-171.8086
11913.668646	89.853	-176.7011
12000.000000	89.308	178.8710
12086.956947	88.645	175.0552
12174.544019	87.884	171.9606
12262.765784	87.047	169.6549
12351.626840	86.159	168.1628
12441.131819	85.242	167.4710
12531.285389	84.317	167.5380
12622.092249	83.402	168.3049
12713.557132	82.511	169.7004
12805.684808	81.656	171.6432
12898.480079	80.845	174.0497
12991.947783	80.082	176.8434
13086.092792	79.370	179.9597
13180.920015	78.711	-176.6591
13276.434395	78.103	-173.0655
13372.640911	77.546	-169.3022
13469.544580	77.038	-165.3989
13567.150452	76.577	-161.3794
13665.463617	76.162	-157.2673
13764.489200	75.792	-153.0841
13864.232362	75.466	-148.8441
13964.698305	75.186	-144.5598
14065.892266	74.952	-140.2490
14167.819519	74.768	-135.9363
14270.485380	74.636	-131.6480
14373.895200	74.562	-127.4161
14478.054370	74.549	-123.2841
14582.968320	74.602	-119.3062
14688.642520	74.726	-115.5458
14795.082478	74.926	-112.0863
14902.293745	75.205	-109.0428
15010.281908	75.563	-106.5594
15119.052599	75.991	-104.7914
15228.611486	76.473	-103.8907
15338.964283	76.985	-103.9885
15450.116741	77.490	-105.1721
15562.074656	77.947	-107.4650
15674.843864	78.310	-110.8118
15788.430244	78.533	-115.0684
15902.839718	78.579	-119.9986
16018.078250	78.420	-125.2875
16134.151848	78.047	-130.5788
16251.066563	77.464	-135.5245
16368.828491	76.693	-139.8286
16487.443769	75.761	-143.2710
16606.918584	74.704	-145.7152
16727.259161	73.557	-147.1031
16848.471777	72.354	-147.4427
16970.562748	71.126	-146.7963
17093.538442	69.900	-145.2683
17217.405268	68.699	-142.9866
17342.169684	67.538	-140.0864
17467.838194	66.426	-136.6979
17594.417350	65.367	-132.9346
17721.913751	64.361	-128.8866
17850.334044	63.403	-124.6210
17979.684923	62.486	-120.1817
18109.973131	61.602	-115.5873
18241.205462	60.742	-110.8361
18373.388756	59.901	-105.9180
18506.529905	59.074	-100.8212
18640.635849	58.260	-95.5370
18775.713581	57.457	-90.0656
18911.770141	56.668	-84.4205
19048.812624	55.895	-78.6348
19186.848172	55.140	-72.7622
19325.883983	54.410	-66.8675
19465.927305	53.718	-61.0365
19606.985439	53.095	-55.4270
19749.065738	52.582	-50.3575
19892.175609	52.221	-46.3648
20036.322514	52.038	-44.1162
