* Measurement data measured by REW V5.31.3
* Source: EXCL: Microphone (USB Sound Device        ), MICROPHONE (Master Volume), R, volume: 0.390
* Format: 256k Log Swept Sine, 1 sweep at -17.0 dBFS with no timing reference
* Dated: Jun 30, 2025 12:24:30 AM
* REW Settings:
*  C-weighting compensation: Off
*  Target level: 75.0 dB
* Note: Twistura Woodnote L
* Measurement: L Twistura Woodnote
* Smoothing: 1/12 octave
* Frequency Step: 96 ppo
* Start Frequency: 0.36621094 Hz
*
* Freq(Hz) SPL(dB) Phase(degrees)
0.366211 94.411 157.1488
0.368865 94.405 157.1251
0.371538 94.396 157.0896
0.374230 94.385 157.0449
0.376942 94.372 156.9934
0.379673 94.359 156.9367
0.382424 94.345 156.8761
0.385196 94.330 156.8121
0.387987 94.315 156.7451
0.390798 94.300 156.6755
0.393630 94.285 156.6031
0.396483 94.270 156.5282
0.399356 94.255 156.4507
0.402250 94.239 156.3705
0.405165 94.224 156.2877
0.408101 94.208 156.2023
0.411058 94.192 156.1142
0.414037 94.177 156.0234
0.417037 94.161 155.9298
0.420059 94.144 155.8335
0.423103 94.128 155.7345
0.426169 94.112 155.6326
0.429257 94.095 155.5279
0.432368 94.079 155.4203
0.435501 94.062 155.3099
0.438656 94.045 155.1966
0.441835 94.028 155.0803
0.445037 94.011 154.9611
0.448262 93.994 154.8389
0.451510 93.977 154.7137
0.454782 93.959 154.5855
0.458077 93.942 154.4543
0.461397 93.924 154.3200
0.464740 93.906 154.1826
0.468108 93.888 154.0421
0.471500 93.870 153.8985
0.474917 93.852 153.7518
0.478358 93.833 153.6020
0.481825 93.815 153.4489
0.485316 93.796 153.2927
0.488833 93.778 153.1333
0.492375 93.759 152.9707
0.495943 93.740 152.8050
0.499537 93.720 152.6360
0.503157 93.701 152.4637
0.506803 93.682 152.2883
0.510475 93.662 152.1096
0.514175 93.642 151.9277
0.517900 93.623 151.7425
0.521653 93.603 151.5541
0.525434 93.582 151.3625
0.529241 93.562 151.1677
0.533076 93.542 150.9697
0.536939 93.521 150.7684
0.540830 93.500 150.5640
0.544749 93.479 150.3565
0.548696 93.458 150.1458
0.552673 93.437 149.9319
0.556677 93.416 149.7150
0.560711 93.394 149.4950
0.564774 93.373 149.2720
0.568867 93.351 149.0460
0.572989 93.329 148.8170
0.577141 93.307 148.5852
0.581324 93.284 148.3504
0.585536 93.262 148.1129
0.589779 93.239 147.8727
0.594053 93.216 147.6297
0.598358 93.193 147.3841
0.602694 93.170 147.1360
0.607061 93.147 146.8854
0.611460 93.124 146.6325
0.615891 93.100 146.3772
0.620354 93.076 146.1198
0.624849 93.052 145.8603
0.629377 93.028 145.5988
0.633938 93.004 145.3355
0.638532 92.979 145.0704
0.643159 92.954 144.8037
0.647819 92.930 144.5355
0.652514 92.905 144.2661
0.657242 92.879 143.9954
0.662005 92.854 143.7238
0.666802 92.828 143.4514
0.671634 92.803 143.1783
0.676501 92.777 142.9047
0.681403 92.750 142.6310
0.686341 92.724 142.3572
0.691314 92.697 142.0835
0.696324 92.671 141.8103
0.701370 92.643 141.5376
0.706452 92.616 141.2656
0.711571 92.588 140.9945
0.716728 92.559 140.7241
0.721921 92.529 140.4543
0.727153 92.497 140.1845
0.732422 92.463 139.9140
0.737729 92.428 139.6416
0.743075 92.389 139.3664
0.748460 92.350 139.0873
0.753883 92.308 138.8036
0.759346 92.266 138.5147
0.764849 92.223 138.2203
0.770391 92.180 137.9201
0.775974 92.135 137.6140
0.781597 92.091 137.3018
0.787261 92.045 136.9834
0.792966 92.000 136.6588
0.798712 91.953 136.3278
0.804500 91.906 135.9905
0.810329 91.858 135.6467
0.816201 91.810 135.2963
0.822116 91.761 134.9395
0.828073 91.711 134.5759
0.834074 91.661 134.2058
0.840118 91.610 133.8289
0.846206 91.558 133.4454
0.852338 91.505 133.0551
0.858514 91.451 132.6580
0.864735 91.396 132.2542
0.871001 91.340 131.8437
0.877313 91.284 131.4264
0.883670 91.226 131.0025
0.890074 91.167 130.5719
0.896524 91.107 130.1347
0.903020 91.046 129.6910
0.909564 90.983 129.2408
0.916155 90.920 128.7844
0.922794 90.855 128.3217
0.929481 90.788 127.8530
0.936216 90.720 127.3784
0.943000 90.651 126.8981
0.949834 90.580 126.4124
0.956717 90.507 125.9214
0.963649 90.433 125.4255
0.970632 90.357 124.9249
0.977666 90.279 124.4201
0.984750 90.199 123.9113
0.991886 90.117 123.3990
0.999074 90.033 122.8837
1.006314 89.947 122.3658
1.013606 89.859 121.8458
1.020951 89.769 121.3245
1.028349 89.676 120.8024
1.035801 89.580 120.2802
1.043307 89.483 119.7586
1.050867 89.382 119.2384
1.058482 89.279 118.7205
1.066152 89.173 118.2055
1.073878 89.065 117.6941
1.081660 88.953 117.1870
1.089498 88.839 116.6843
1.097393 88.721 116.1860
1.105345 88.601 115.6916
1.113355 88.478 115.2004
1.121423 88.352 114.7115
1.129549 88.223 114.2241
1.137734 88.091 113.7376
1.145979 87.957 113.2512
1.154283 87.819 112.7645
1.162647 87.679 112.2769
1.171072 87.536 111.7879
1.179558 87.390 111.2970
1.188106 87.241 110.8036
1.196715 87.089 110.3073
1.205387 86.933 109.8073
1.214122 86.775 109.3032
1.222920 86.614 108.7943
1.231782 86.449 108.2799
1.240708 86.281 107.7594
1.249699 86.109 107.2319
1.258754 85.935 106.6967
1.267876 85.757 106.1530
1.277063 85.575 105.5998
1.286318 85.390 105.0363
1.295639 85.201 104.4614
1.305027 85.009 103.8741
1.314484 84.812 103.2733
1.324009 84.613 102.6578
1.333604 84.409 102.0264
1.343268 84.202 101.3778
1.353002 83.990 100.7107
1.362806 83.775 100.0236
1.372681 83.555 99.3152
1.382628 83.332 98.5840
1.392647 83.104 97.8286
1.402739 82.872 97.0474
1.412904 82.635 96.2391
1.423142 82.394 95.4025
1.433455 82.147 94.5365
1.443843 81.893 93.6404
1.454305 81.632 92.7134
1.464844 81.362 91.7552
1.475459 81.079 90.7648
1.486150 80.783 89.7409
1.496920 80.470 88.6807
1.507767 80.141 87.5804
1.518693 79.796 86.4347
1.529698 79.433 85.2369
1.540783 79.055 83.9789
1.551948 78.662 82.6506
1.563194 78.256 81.2403
1.574521 77.838 79.7332
1.585931 77.411 78.1121
1.597423 76.975 76.3552
1.608999 76.534 74.4362
1.620658 76.088 72.3222
1.632402 75.641 69.9725
1.644232 75.195 67.3357
1.656146 74.752 64.3477
1.668147 74.315 60.9279
1.680235 73.888 56.9761
1.692411 73.472 52.3713
1.704675 73.071 46.9730
1.717028 72.689 40.6343
1.729470 72.330 33.2326
1.742003 71.997 24.7282
1.754626 71.694 15.2435
1.767341 71.426 5.1202
1.780147 71.198 -5.1171
1.793047 71.014 -14.9132
1.806040 70.879 -23.8571
1.819128 70.797 -31.7638
1.832310 70.773 -38.6396
1.845587 70.807 -44.5993
1.858961 70.903 -49.7921
1.872432 71.058 -54.3585
1.886001 71.271 -58.4154
1.899667 71.538 -62.0540
1.913433 71.855 -65.3449
1.927299 72.219 -68.3427
1.941265 72.623 -71.0896
1.955332 73.062 -73.6189
1.969501 73.532 -75.9574
1.983773 74.027 -78.1263
1.998148 74.541 -80.1431
2.012627 75.069 -82.0221
2.027212 75.605 -83.7752
2.041902 76.144 -85.4122
2.056698 76.680 -86.9412
2.071602 77.207 -88.3693
2.086614 77.720 -89.7023
2.101734 78.214 -90.9457
2.116964 78.683 -92.1046
2.132304 79.124 -93.1841
2.147756 79.532 -94.1904
2.163320 79.905 -95.1311
2.178996 80.243 -96.0158
2.194786 80.545 -96.8567
2.210690 80.816 -97.6676
2.226710 81.057 -98.4614
2.242845 81.273 -99.2485
2.259098 81.466 -100.0352
2.275468 81.638 -100.8247
2.291957 81.792 -101.6175
2.308566 81.929 -102.4123
2.325295 82.049 -103.2069
2.342145 82.155 -103.9981
2.359117 82.247 -104.7823
2.376212 82.327 -105.5557
2.393431 82.396 -106.3140
2.410775 82.455 -107.0527
2.428244 82.506 -107.7674
2.445840 82.550 -108.4532
2.463564 82.588 -109.1056
2.481416 82.622 -109.7203
2.499397 82.652 -110.2935
2.517509 82.680 -110.8226
2.535752 82.706 -111.3070
2.554127 82.729 -111.7483
2.572635 82.747 -112.1505
2.591277 82.761 -112.5192
2.610055 82.766 -112.8599
2.628968 82.764 -113.1766
2.648019 82.754 -113.4719
2.667208 82.735 -113.7463
2.686535 82.708 -113.9994
2.706003 82.674 -114.2297
2.725612 82.633 -114.4348
2.745363 82.586 -114.6119
2.765257 82.536 -114.7574
2.785295 82.482 -114.8676
2.805478 82.425 -114.9379
2.825808 82.368 -114.9639
2.846285 82.310 -114.9404
2.866910 82.253 -114.8624
2.887685 82.197 -114.7248
2.908611 82.143 -114.5227
2.929688 82.088 -114.2516
2.950917 82.033 -113.9080
2.972301 81.977 -113.4892
2.993839 81.918 -112.9940
3.015534 81.857 -112.4223
3.037386 81.794 -111.7753
3.059396 81.731 -111.0549
3.081565 81.668 -110.2646
3.103896 81.607 -109.4084
3.126388 81.549 -108.4916
3.149043 81.498 -107.5205
3.171862 81.454 -106.5022
3.194847 81.419 -105.4443
3.217998 81.397 -104.3543
3.241317 81.388 -103.2387
3.264805 81.394 -102.1023
3.288463 81.416 -100.9472
3.312293 81.455 -99.7731
3.336295 81.511 -98.5795
3.360471 81.584 -97.3685
3.384822 81.672 -96.1458
3.409350 81.774 -94.9208
3.434056 81.889 -93.7053
3.458940 82.014 -92.5128
3.484005 82.149 -91.3572
3.509252 82.291 -90.2517
3.534681 82.439 -89.2088
3.560295 82.592 -88.2390
3.586094 82.747 -87.3509
3.612081 82.904 -86.5503
3.638255 83.064 -85.8395
3.664620 83.226 -85.2177
3.691175 83.391 -84.6812
3.717923 83.560 -84.2247
3.744864 83.733 -83.8426
3.772001 83.910 -83.5298
3.799335 84.089 -83.2819
3.826866 84.270 -83.0950
3.854597 84.451 -82.9654
3.882529 84.631 -82.8902
3.910664 84.806 -82.8669
3.939002 84.977 -82.8938
3.967546 85.141 -82.9698
3.996296 85.298 -83.0947
4.025255 85.448 -83.2689
4.054423 85.590 -83.4931
4.083804 85.724 -83.7667
4.113396 85.852 -84.0874
4.143204 85.972 -84.4512
4.173227 86.087 -84.8524
4.203468 86.194 -85.2847
4.233928 86.296 -85.7416
4.264609 86.390 -86.2168
4.295512 86.478 -86.7053
4.326639 86.558 -87.2036
4.357992 86.631 -87.7101
4.389572 86.697 -88.2258
4.421380 86.755 -88.7531
4.453419 86.805 -89.2948
4.485691 86.846 -89.8518
4.518196 86.880 -90.4224
4.550936 86.907 -91.0028
4.583914 86.926 -91.5873
4.617131 86.938 -92.1692
4.650589 86.944 -92.7418
4.684289 86.944 -93.2987
4.718233 86.938 -93.8355
4.752424 86.925 -94.3496
4.786862 86.906 -94.8411
4.821549 86.881 -95.3112
4.856488 86.849 -95.7615
4.891680 86.811 -96.1920
4.927127 86.768 -96.6018
4.962831 86.720 -96.9882
4.998794 86.669 -97.3478
5.035017 86.615 -97.6763
5.071503 86.559 -97.9693
5.108253 86.502 -98.2228
5.145270 86.443 -98.4337
5.182555 86.383 -98.6006
5.220110 86.322 -98.7238
5.257937 86.261 -98.8053
5.296038 86.200 -98.8485
5.334415 86.140 -98.8574
5.373071 86.083 -98.8360
5.412006 86.030 -98.7878
5.451224 85.982 -98.7150
5.490725 85.941 -98.6189
5.530514 85.906 -98.4994
5.570590 85.878 -98.3578
5.610957 85.856 -98.1975
5.651616 85.841 -98.0251
5.692570 85.832 -97.8494
5.733821 85.829 -97.6803
5.775370 85.834 -97.5276
5.817221 85.845 -97.3993
5.859375 85.863 -97.3009
5.901834 85.888 -97.2353
5.944602 85.920 -97.2041
5.987679 85.959 -97.2089
6.031068 86.003 -97.2528
6.074771 86.051 -97.3397
6.118792 86.101 -97.4739
6.163131 86.154 -97.6598
6.207792 86.207 -97.9008
6.252776 86.260 -98.1986
6.298086 86.314 -98.5530
6.343725 86.368 -98.9614
6.389694 86.420 -99.4203
6.435996 86.471 -99.9252
6.482634 86.520 -100.4722
6.529610 86.565 -101.0582
6.576926 86.606 -101.6813
6.624585 86.642 -102.3408
6.672590 86.674 -103.0352
6.720942 86.701 -103.7613
6.769645 86.723 -104.5137
6.818700 86.741 -105.2857
6.868111 86.754 -106.0703
6.917881 86.762 -106.8616
6.968010 86.765 -107.6559
7.018504 86.763 -108.4511
7.069362 86.757 -109.2453
7.120590 86.747 -110.0353
7.172189 86.733 -110.8164
7.224161 86.716 -111.5830
7.276511 86.698 -112.3297
7.329239 86.677 -113.0520
7.382350 86.656 -113.7475
7.435845 86.634 -114.4151
7.489729 86.611 -115.0548
7.544002 86.590 -115.6662
7.598669 86.571 -116.2491
7.653732 86.555 -116.8025
7.709194 86.543 -117.3260
7.765058 86.535 -117.8200
7.821327 86.532 -118.2863
7.878004 86.534 -118.7287
7.935091 86.542 -119.1520
7.992592 86.556 -119.5610
8.050510 86.577 -119.9598
8.108847 86.605 -120.3512
8.167607 86.639 -120.7384
8.226793 86.680 -121.1247
8.286408 86.726 -121.5148
8.346454 86.778 -121.9133
8.406936 86.835 -122.3242
8.467856 86.896 -122.7500
8.529218 86.961 -123.1917
8.591024 87.029 -123.6494
8.653278 87.100 -124.1230
8.715983 87.172 -124.6123
8.779143 87.244 -125.1168
8.842760 87.316 -125.6357
8.906839 87.387 -126.1668
8.971381 87.458 -126.7070
9.036392 87.527 -127.2526
9.101873 87.593 -127.7995
9.167829 87.658 -128.3446
9.234263 87.720 -128.8848
9.301178 87.779 -129.4172
9.368578 87.836 -129.9381
9.436467 87.890 -130.4438
9.504847 87.942 -130.9309
9.573723 87.992 -131.3968
9.643099 88.041 -131.8399
9.712976 88.087 -132.2591
9.783361 88.133 -132.6535
9.854255 88.178 -133.0223
9.925663 88.223 -133.3655
9.997588 88.268 -133.6836
10.070035 88.313 -133.9780
10.143007 88.359 -134.2507
10.216507 88.406 -134.5038
10.290540 88.453 -134.7395
10.365109 88.501 -134.9597
10.440219 88.550 -135.1669
10.515873 88.599 -135.3634
10.592076 88.649 -135.5519
10.668830 88.699 -135.7342
10.746141 88.748 -135.9117
10.824012 88.798 -136.0856
10.902447 88.846 -136.2566
10.981451 88.893 -136.4254
11.061027 88.939 -136.5920
11.141180 88.984 -136.7565
11.221913 89.026 -136.9182
11.303232 89.067 -137.0767
11.385140 89.105 -137.2312
11.467641 89.141 -137.3814
11.550741 89.176 -137.5267
11.634442 89.208 -137.6671
11.718750 89.239 -137.8023
11.803669 89.267 -137.9325
11.889203 89.294 -138.0584
11.975357 89.320 -138.1808
12.062136 89.344 -138.3008
12.149543 89.366 -138.4194
12.237583 89.388 -138.5381
12.326262 89.408 -138.6580
12.415583 89.426 -138.7806
12.505552 89.442 -138.9069
12.596172 89.457 -139.0377
12.687449 89.470 -139.1734
12.779387 89.481 -139.3144
12.871992 89.490 -139.4606
12.965268 89.497 -139.6115
13.059220 89.501 -139.7665
13.153852 89.503 -139.9247
13.249170 89.503 -140.0853
13.345179 89.500 -140.2475
13.441884 89.497 -140.4107
13.539289 89.491 -140.5745
13.637401 89.485 -140.7388
13.736223 89.478 -140.9043
13.835761 89.470 -141.0718
13.936021 89.463 -141.2427
14.037007 89.456 -141.4188
14.138725 89.450 -141.6021
14.241180 89.444 -141.7949
14.344377 89.440 -141.9994
14.448323 89.436 -142.2175
14.553021 89.433 -142.4509
14.658478 89.430 -142.7007
14.764700 89.428 -142.9675
14.871691 89.426 -143.2511
14.979457 89.424 -143.5507
15.088005 89.422 -143.8649
15.197339 89.420 -144.1919
15.307465 89.417 -144.5292
15.418389 89.414 -144.8743
15.530117 89.411 -145.2249
15.642655 89.409 -145.5786
15.756008 89.407 -145.9336
15.870182 89.406 -146.2883
15.985184 89.407 -146.6419
16.101019 89.410 -146.9940
16.217694 89.415 -147.3448
16.335214 89.422 -147.6949
16.453586 89.432 -148.0451
16.572815 89.445 -148.3962
16.692909 89.460 -148.7488
16.813872 89.477 -149.1033
16.935713 89.496 -149.4596
17.058436 89.516 -149.8172
17.182048 89.538 -150.1749
17.306556 89.561 -150.5312
17.431967 89.585 -150.8841
17.558286 89.609 -151.2314
17.685521 89.633 -151.5711
17.813677 89.658 -151.9009
17.942762 89.682 -152.2193
18.072783 89.707 -152.5247
18.203746 89.732 -152.8162
18.335658 89.757 -153.0933
18.468526 89.782 -153.3559
18.602356 89.808 -153.6039
18.737156 89.833 -153.8380
18.872934 89.859 -154.0585
19.009695 89.884 -154.2661
19.147447 89.908 -154.4613
19.286197 89.932 -154.6448
19.425953 89.956 -154.8172
19.566721 89.978 -154.9792
19.708510 90.000 -155.1318
19.851326 90.020 -155.2759
19.995177 90.039 -155.4129
20.140070 90.057 -155.5441
20.286013 90.074 -155.6709
20.433014 90.089 -155.7946
20.581080 90.103 -155.9165
20.730219 90.114 -156.0374
20.880439 90.124 -156.1581
21.031747 90.131 -156.2789
21.184152 90.137 -156.4000
21.337661 90.140 -156.5215
21.492282 90.141 -156.6435
21.648024 90.140 -156.7666
21.804895 90.138 -156.8914
21.962902 90.135 -157.0192
22.122054 90.131 -157.1516
22.282360 90.125 -157.2903
22.443827 90.120 -157.4371
22.606464 90.113 -157.5937
22.770280 90.107 -157.7612
22.935283 90.099 -157.9401
23.101481 90.091 -158.1301
23.268884 90.082 -158.3306
23.437500 90.073 -158.5399
23.607338 90.064 -158.7567
23.778406 90.055 -158.9794
23.950714 90.046 -159.2065
24.124271 90.039 -159.4374
24.299086 90.033 -159.6718
24.475167 90.028 -159.9097
24.652524 90.026 -160.1517
24.831166 90.025 -160.3983
25.011103 90.027 -160.6497
25.192344 90.030 -160.9058
25.374898 90.035 -161.1660
25.558775 90.042 -161.4291
25.743984 90.050 -161.6934
25.930536 90.059 -161.9571
26.118439 90.069 -162.2181
26.307704 90.080 -162.4743
26.498341 90.092 -162.7239
26.690359 90.104 -162.9652
26.883768 90.116 -163.1967
27.078579 90.128 -163.4174
27.274801 90.141 -163.6265
27.472446 90.154 -163.8237
27.671522 90.166 -164.0090
27.872042 90.179 -164.1829
28.074014 90.191 -164.3463
28.277450 90.203 -164.5002
28.482360 90.214 -164.6457
28.688755 90.224 -164.7841
28.896645 90.233 -164.9162
29.106042 90.241 -165.0427
29.316957 90.247 -165.1644
29.529400 90.252 -165.2819
29.743382 90.256 -165.3965
29.958915 90.259 -165.5097
30.176009 90.261 -165.6234
30.394677 90.262 -165.7399
30.614929 90.262 -165.8615
30.836778 90.261 -165.9899
31.060234 90.259 -166.1263
31.285309 90.256 -166.2710
31.512015 90.251 -166.4234
31.740364 90.246 -166.5828
31.970368 90.241 -166.7481
32.202039 90.235 -166.9188
32.435388 90.229 -167.0945
32.670428 90.223 -167.2755
32.907171 90.219 -167.4620
33.145630 90.214 -167.6544
33.385817 90.211 -167.8522
33.627745 90.208 -168.0546
33.871425 90.206 -168.2602
34.116871 90.205 -168.4671
34.364096 90.204 -168.6734
34.613113 90.204 -168.8774
34.863934 90.205 -169.0776
35.116572 90.206 -169.2731
35.371041 90.208 -169.4631
35.627354 90.210 -169.6471
35.885525 90.213 -169.8250
36.145566 90.216 -169.9964
36.407492 90.219 -170.1615
36.671316 90.222 -170.3203
36.937051 90.225 -170.4732
37.204712 90.228 -170.6208
37.474313 90.230 -170.7638
37.745867 90.231 -170.9029
38.019389 90.232 -171.0388
38.294893 90.232 -171.1722
38.572394 90.232 -171.3037
38.851905 90.231 -171.4343
39.133442 90.229 -171.5650
39.417019 90.227 -171.6969
39.702651 90.224 -171.8316
39.990353 90.221 -171.9703
40.280140 90.218 -172.1138
40.572026 90.214 -172.2619
40.866028 90.209 -172.4138
41.162160 90.204 -172.5675
41.460438 90.199 -172.7212
41.760877 90.194 -172.8732
42.063494 90.189 -173.0229
42.368303 90.185 -173.1705
42.675322 90.181 -173.3176
42.984565 90.179 -173.4653
43.296048 90.177 -173.6148
43.609789 90.175 -173.7662
43.925804 90.174 -173.9190
44.244108 90.173 -174.0720
44.564719 90.171 -174.2242
44.887654 90.169 -174.3747
45.212928 90.166 -174.5229
45.540560 90.163 -174.6686
45.870565 90.160 -174.8116
46.202962 90.157 -174.9518
46.537768 90.153 -175.0896
46.875000 90.149 -175.2256
47.214676 90.145 -175.3603
47.556813 90.140 -175.4946
47.901429 90.136 -175.6287
48.248542 90.132 -175.7628
48.598171 90.128 -175.8965
48.950334 90.123 -176.0294
49.305048 90.119 -176.1614
49.662333 90.115 -176.2926
50.022206 90.112 -176.4235
50.384688 90.108 -176.5547
50.749796 90.105 -176.6863
51.117550 90.101 -176.8176
51.487969 90.097 -176.9476
51.861072 90.092 -177.0751
52.236879 90.087 -177.1994
52.615409 90.082 -177.3206
52.996681 90.076 -177.4395
53.380717 90.071 -177.5568
53.767536 90.065 -177.6730
54.157158 90.059 -177.7885
54.549603 90.053 -177.9035
54.944892 90.047 -178.0191
55.343045 90.042 -178.1370
55.744084 90.038 -178.2585
56.148028 90.034 -178.3850
56.554900 90.030 -178.5166
56.964720 90.026 -178.6530
57.377510 90.023 -178.7937
57.793291 90.020 -178.9378
58.212085 90.017 -179.0841
58.633914 90.013 -179.2311
59.058799 90.009 -179.3773
59.486764 90.005 -179.5220
59.917829 90.000 -179.6649
60.352019 89.995 -179.8063
60.789354 89.989 -179.9462
61.229859 89.982 179.9162
61.673556 89.974 179.7817
62.120468 89.965 179.6510
62.570618 89.956 179.5238
63.024031 89.947 179.3991
63.480729 89.938 179.2756
63.940736 89.929 179.1523
64.404077 89.920 179.0282
64.870776 89.911 178.9026
65.340856 89.903 178.7750
65.814343 89.896 178.6449
66.291261 89.888 178.5126
66.771635 89.881 178.3788
67.255489 89.874 178.2450
67.742850 89.866 178.1134
68.233743 89.858 177.9855
68.728193 89.851 177.8620
69.226226 89.843 177.7421
69.727867 89.835 177.6245
70.233144 89.826 177.5075
70.742083 89.817 177.3904
71.254709 89.808 177.2729
71.771050 89.798 177.1556
72.291132 89.787 177.0390
72.814984 89.776 176.9238
73.342631 89.765 176.8102
73.874102 89.754 176.6980
74.409424 89.743 176.5862
74.948626 89.733 176.4734
75.491734 89.724 176.3582
76.038779 89.715 176.2399
76.589787 89.706 176.1187
77.144788 89.698 175.9949
77.703811 89.690 175.8691
78.266885 89.682 175.7408
78.834039 89.675 175.6096
79.405303 89.667 175.4749
79.980706 89.660 175.3363
80.560280 89.652 175.1931
81.144053 89.644 175.0434
81.732056 89.635 174.8860
82.324320 89.624 174.7220
82.920876 89.611 174.5554
83.521755 89.595 174.3917
84.126988 89.577 174.2360
84.736607 89.556 174.0921
85.350643 89.534 173.9625
85.969129 89.511 173.8478
86.592097 89.488 173.7474
87.219579 89.466 173.6601
87.851608 89.444 173.5844
88.488217 89.424 173.5184
89.129439 89.405 173.4592
89.775308 89.389 173.4032
90.425856 89.374 173.3464
91.081119 89.361 173.2858
91.741131 89.350 173.2193
92.405925 89.338 173.1462
93.075536 89.328 173.0668
93.750000 89.317 172.9816
94.429351 89.306 172.8913
95.113625 89.294 172.7961
95.802858 89.283 172.6962
96.497085 89.270 172.5922
97.196342 89.257 172.4857
97.900667 89.244 172.3789
98.610096 89.229 172.2733
99.324665 89.214 172.1695
100.044413 89.199 172.0677
100.769376 89.183 171.9687
101.499592 89.166 171.8736
102.235100 89.150 171.7827
102.975938 89.133 171.6951
103.722144 89.117 171.6091
104.473757 89.102 171.5229
105.230817 89.086 171.4347
105.993363 89.072 171.3434
106.761435 89.057 171.2488
107.535072 89.041 171.1511
108.314315 89.026 171.0498
109.099206 89.009 170.9441
109.889783 88.993 170.8324
110.686090 88.975 170.7137
111.488167 88.957 170.5884
112.296056 88.939 170.4587
113.109800 88.919 170.3294
113.929440 88.898 170.2078
114.755020 88.875 170.1024
115.586582 88.852 170.0206
116.424170 88.828 169.9651
117.267827 88.805 169.9324
118.117598 88.783 169.9121
118.973527 88.761 169.8895
119.835658 88.738 169.8525
120.704037 88.713 169.7999
121.578708 88.685 169.7399
122.459718 88.656 169.6794
123.347111 88.628 169.6193
124.240935 88.601 169.5583
125.141236 88.577 169.4965
126.048061 88.554 169.4361
126.961458 88.532 169.3802
127.881473 88.511 169.3321
128.808154 88.489 169.2939
129.741551 88.466 169.2670
130.681712 88.443 169.2505
131.628686 88.419 169.2411
132.582521 88.395 169.2346
133.543269 88.372 169.2269
134.510979 88.350 169.2156
135.485701 88.328 169.2010
136.467486 88.307 169.1862
137.456386 88.287 169.1750
138.452451 88.268 169.1689
139.455735 88.250 169.1661
140.466288 88.235 169.1619
141.484165 88.220 169.1503
142.509418 88.206 169.1271
143.542100 88.193 169.0908
144.582265 88.179 169.0425
145.629968 88.164 168.9849
146.685262 88.148 168.9203
147.748204 88.131 168.8510
148.818849 88.112 168.7790
149.897251 88.092 168.7068
150.983469 88.070 168.6383
152.077557 88.047 168.5774
153.179574 88.023 168.5273
154.289576 87.999 168.4888
155.407622 87.975 168.4592
156.533770 87.953 168.4335
157.668078 87.932 168.4060
158.810606 87.912 168.3724
159.961413 87.892 168.3310
161.120559 87.871 168.2827
162.288105 87.850 168.2294
163.464112 87.828 168.1734
164.648640 87.805 168.1169
165.841752 87.780 168.0626
167.043510 87.753 168.0135
168.253976 87.725 167.9724
169.473213 87.696 167.9405
170.701286 87.666 167.9169
171.938258 87.637 167.8996
173.184194 87.609 167.8864
174.439158 87.582 167.8755
175.703216 87.555 167.8666
176.976434 87.529 167.8593
178.258878 87.504 167.8533
179.550615 87.478 167.8474
180.851713 87.453 167.8405
182.162239 87.427 167.8325
183.482262 87.400 167.8236
184.811850 87.373 167.8137
186.151073 87.345 167.8027
187.500000 87.317 167.7911
188.858702 87.288 167.7804
190.227250 87.258 167.7727
191.605715 87.227 167.7695
192.994169 87.196 167.7719
194.392685 87.163 167.7810
195.801334 87.130 167.7981
197.220191 87.096 167.8244
198.649330 87.062 167.8606
200.088825 87.029 167.9063
201.538751 86.996 167.9598
202.999184 86.965 168.0184
204.470200 86.935 168.0788
205.951875 86.907 168.1374
207.444287 86.880 168.1916
208.947514 86.852 168.2404
210.461634 86.824 168.2849
211.986726 86.795 168.3282
213.522869 86.764 168.3749
215.070144 86.732 168.4302
216.628631 86.699 168.4983
218.198411 86.666 168.5804
219.779567 86.634 168.6737
221.372180 86.604 168.7731
222.976334 86.574 168.8736
224.592112 86.546 168.9720
226.219600 86.519 169.0673
227.858880 86.491 169.1594
229.510039 86.465 169.2485
231.173164 86.438 169.3345
232.848340 86.412 169.4184
234.535655 86.386 169.5017
236.235197 86.360 169.5867
237.947054 86.334 169.6763
239.671317 86.306 169.7747
241.408074 86.276 169.8854
243.157416 86.244 170.0091
244.919435 86.211 170.1443
246.694223 86.177 170.2902
248.481871 86.145 170.4481
250.282473 86.114 170.6208
252.096123 86.086 170.8102
253.922915 86.062 171.0146
255.762945 86.042 171.2260
257.616309 86.026 171.4290
259.483103 86.013 171.6083
261.363424 86.001 171.7568
263.257372 85.989 171.8790
265.165043 85.974 171.9870
267.086538 85.956 172.0941
269.021957 85.937 172.2107
270.971401 85.918 172.3426
272.934972 85.898 172.4904
274.912771 85.880 172.6516
276.904902 85.865 172.8226
278.911469 85.851 172.9998
280.932577 85.841 173.1787
282.968330 85.834 173.3530
285.018835 85.831 173.5135
287.084199 85.830 173.6492
289.164530 85.831 173.7505
291.259935 85.832 173.8141
293.370525 85.830 173.8447
295.496408 85.825 173.8530
297.637697 85.816 173.8513
299.794503 85.803 173.8489
301.966937 85.787 173.8508
304.155114 85.769 173.8585
306.359147 85.749 173.8715
308.579152 85.727 173.8884
310.815244 85.703 173.9077
313.067539 85.678 173.9293
315.336156 85.650 173.9556
317.621211 85.621 173.9916
319.922826 85.591 174.0425
322.241118 85.560 174.1110
324.576210 85.530 174.1966
326.928223 85.500 174.2960
329.297280 85.471 174.4054
331.683504 85.443 174.5204
334.087019 85.415 174.6374
336.507952 85.388 174.7536
338.946427 85.361 174.8682
341.402572 85.334 174.9822
343.876516 85.305 175.0977
346.368387 85.277 175.2172
348.878315 85.248 175.3423
351.406431 85.220 175.4740
353.952867 85.191 175.6118
356.517756 85.163 175.7548
359.101230 85.134 175.9020
361.703426 85.106 176.0527
364.324478 85.079 176.2065
366.964523 85.051 176.3636
369.623699 85.023 176.5240
372.302145 84.996 176.6877
375.000000 84.969 176.8547
377.717405 84.943 177.0250
380.454501 84.916 177.1986
383.211431 84.890 177.3757
385.988339 84.864 177.5563
388.785369 84.838 177.7404
391.602668 84.813 177.9277
394.440383 84.787 178.1179
397.298660 84.763 178.3107
400.177650 84.738 178.5058
403.077502 84.714 178.7016
405.998368 84.690 178.8961
408.940400 84.667 179.0881
411.903750 84.642 179.2788
414.888575 84.617 179.4713
417.895028 84.592 179.6693
420.923268 84.566 179.8759
423.973452 84.541 -179.9078
427.045738 84.518 -179.6828
430.140287 84.495 -179.4525
433.257261 84.474 -179.2215
436.396822 84.455 -178.9928
439.559133 84.436 -178.7667
442.744360 84.418 -178.5433
445.952668 84.402 -178.3246
449.184225 84.386 -178.1162
452.439199 84.371 -177.9244
455.717760 84.355 -177.7525
459.020079 84.337 -177.5964
462.346327 84.316 -177.4453
465.696680 84.292 -177.2875
469.071310 84.265 -177.1155
472.470394 84.237 -176.9277
475.894109 84.208 -176.7271
479.342634 84.180 -176.5190
482.816148 84.152 -176.3081
486.314833 84.122 -176.0952
489.838871 84.092 -175.8757
493.388445 84.060 -175.6422
496.963741 84.029 -175.3905
500.564945 83.998 -175.1236
504.192245 83.969 -174.8482
507.845830 83.940 -174.5703
511.525890 83.912 -174.2925
515.232618 83.883 -174.0132
518.966206 83.854 -173.7283
522.726849 83.824 -173.4325
526.514743 83.793 -173.1213
530.330086 83.763 -172.7926
534.173076 83.735 -172.4488
538.043915 83.707 -172.0952
541.942803 83.681 -171.7352
545.869944 83.657 -171.3682
549.825542 83.634 -170.9933
553.809805 83.612 -170.6122
557.822939 83.593 -170.2293
561.865154 83.575 -169.8489
565.936660 83.558 -169.4729
570.037671 83.541 -169.0996
574.168399 83.525 -168.7260
578.329060 83.510 -168.3502
582.519870 83.495 -167.9725
586.741049 83.481 -167.5938
590.992817 83.468 -167.2118
595.275394 83.455 -166.8239
599.589005 83.443 -166.4306
603.933874 83.432 -166.0358
608.310228 83.423 -165.6435
612.718295 83.413 -165.2549
617.158304 83.403 -164.8677
621.630488 83.393 -164.4758
626.135079 83.382 -164.0724
630.672311 83.372 -163.6550
635.242423 83.363 -163.2272
639.845651 83.357 -162.7948
644.482237 83.353 -162.3596
649.152421 83.351 -161.9213
653.856447 83.352 -161.4815
658.594560 83.355 -161.0473
663.367008 83.361 -160.6290
668.174039 83.368 -160.2344
673.015903 83.374 -159.8622
677.892854 83.379 -159.5039
682.805145 83.381 -159.1495
687.753032 83.381 -158.7917
692.736774 83.380 -158.4255
697.756631 83.377 -158.0471
702.812863 83.375 -157.6550
707.905735 83.372 -157.2513
713.035511 83.371 -156.8404
718.202461 83.370 -156.4260
723.406852 83.370 -156.0086
728.648956 83.371 -155.5873
733.929047 83.372 -155.1610
739.247399 83.373 -154.7293
744.604290 83.375 -154.2917
750.000000 83.379 -153.8481
755.434809 83.382 -153.3982
760.909001 83.387 -152.9420
766.422861 83.393 -152.4794
771.976677 83.400 -152.0105
777.570739 83.408 -151.5363
783.205337 83.417 -151.0577
788.880766 83.427 -150.5740
794.597321 83.438 -150.0822
800.355301 83.452 -149.5799
806.155005 83.468 -149.0682
811.996736 83.488 -148.5535
817.880799 83.511 -148.0449
823.807501 83.538 -147.5522
829.777150 83.567 -147.0837
835.790057 83.596 -146.6418
841.846536 83.624 -146.2193
847.946903 83.651 -145.8043
854.091476 83.675 -145.3877
860.280575 83.699 -144.9655
866.514523 83.722 -144.5355
872.793644 83.745 -144.0957
879.118267 83.770 -143.6467
885.488720 83.795 -143.1928
891.905336 83.822 -142.7378
898.368450 83.850 -142.2821
904.878398 83.879 -141.8233
911.435520 83.910 -141.3599
918.040157 83.942 -140.8930
924.692655 83.976 -140.4249
931.393359 84.013 -139.9589
938.142619 84.052 -139.4986
944.940787 84.091 -139.0464
951.788218 84.132 -138.6020
958.685268 84.173 -138.1638
965.632296 84.215 -137.7298
972.629666 84.257 -137.2980
979.677741 84.300 -136.8681
986.776890 84.344 -136.4404
993.927482 84.388 -136.0123
1001.129891 84.433 -135.5784
1008.384491 84.480 -135.1339
1015.691660 84.529 -134.6805
1023.051781 84.581 -134.2242
1030.465236 84.637 -133.7739
1037.932411 84.698 -133.3414
1045.453698 84.762 -132.9392
1053.029486 84.827 -132.5728
1060.660172 84.892 -132.2384
1068.346153 84.956 -131.9273
1076.087829 85.017 -131.6299
1083.885605 85.077 -131.3398
1091.739887 85.135 -131.0546
1099.651084 85.193 -130.7744
1107.619609 85.250 -130.4989
1115.645878 85.306 -130.2268
1123.730308 85.362 -129.9568
1131.873321 85.418 -129.6879
1140.075341 85.473 -129.4189
1148.336797 85.528 -129.1491
1156.658119 85.583 -128.8779
1165.039741 85.638 -128.6041
1173.482099 85.694 -128.3264
1181.985634 85.752 -128.0457
1190.550789 85.813 -127.7680
1199.178011 85.876 -127.5044
1207.867749 85.941 -127.2668
1216.620457 86.007 -127.0608
1225.436590 86.070 -126.8825
1234.316609 86.131 -126.7234
1243.260976 86.189 -126.5742
1252.270157 86.243 -126.4268
1261.344623 86.296 -126.2767
1270.484846 86.346 -126.1226
1279.691303 86.396 -125.9634
1288.964474 86.444 -125.7978
1298.304842 86.491 -125.6263
1307.712894 86.539 -125.4511
1317.189120 86.586 -125.2754
1326.734016 86.633 -125.1011
1336.348077 86.680 -124.9274
1346.031806 86.725 -124.7513
1355.785708 86.768 -124.5684
1365.610290 86.811 -124.3750
1375.506065 86.853 -124.1665
1385.473549 86.896 -123.9379
1395.513261 86.940 -123.6883
1405.625726 86.987 -123.4232
1415.811469 87.038 -123.1542
1426.071023 87.093 -122.8961
1436.404921 87.151 -122.6583
1446.813703 87.208 -122.4415
1457.297912 87.265 -122.2402
1467.858093 87.321 -122.0480
1478.494798 87.376 -121.8599
1489.208581 87.430 -121.6724
1500.000000 87.482 -121.4820
1510.869618 87.534 -121.2852
1521.818002 87.585 -121.0791
1532.845723 87.637 -120.8615
1543.953355 87.690 -120.6309
1555.141477 87.745 -120.3871
1566.410674 87.803 -120.1341
1577.761531 87.865 -119.8825
1589.194642 87.931 -119.6464
1600.710601 87.999 -119.4352
1612.310010 88.067 -119.2493
1623.993473 88.135 -119.0832
1635.761599 88.200 -118.9292
1647.615002 88.264 -118.7810
1659.554299 88.327 -118.6336
1671.580114 88.390 -118.4837
1683.693072 88.451 -118.3307
1695.893807 88.513 -118.1768
1708.182952 88.575 -118.0245
1720.561150 88.637 -117.8734
1733.029045 88.697 -117.7197
1745.587288 88.757 -117.5574
1758.236533 88.817 -117.3797
1770.977440 88.877 -117.1810
1783.810673 88.941 -116.9627
1796.736900 89.009 -116.7345
1809.756796 89.082 -116.5114
1822.871040 89.159 -116.3050
1836.080315 89.237 -116.1191
1849.385310 89.317 -115.9522
1862.786718 89.397 -115.8006
1876.285239 89.476 -115.6596
1889.881575 89.556 -115.5236
1903.576436 89.635 -115.3868
1917.370535 89.715 -115.2441
1931.264593 89.796 -115.0924
1945.259332 89.881 -114.9336
1959.355483 89.971 -114.7774
1973.553781 90.065 -114.6381
1987.854965 90.162 -114.5267
2002.259781 90.261 -114.4468
2016.768981 90.360 -114.3963
2031.383320 90.459 -114.3709
2046.103561 90.557 -114.3653
2060.930471 90.654 -114.3753
2075.864823 90.751 -114.3996
2090.907395 90.848 -114.4379
2106.058972 90.944 -114.4887
2121.320344 91.038 -114.5471
2136.692305 91.131 -114.6054
2152.175658 91.224 -114.6562
2167.771210 91.319 -114.6980
2183.479774 91.418 -114.7388
2199.302169 91.520 -114.7915
2215.239219 91.625 -114.8666
2231.291755 91.732 -114.9691
2247.460615 91.839 -115.0995
2263.746641 91.947 -115.2550
2280.150683 92.053 -115.4296
2296.673595 92.160 -115.6166
2313.316238 92.267 -115.8102
2330.079481 92.376 -116.0102
2346.964198 92.489 -116.2248
2363.971268 92.605 -116.4672
2381.101578 92.723 -116.7483
2398.356022 92.843 -117.0735
2415.735498 92.961 -117.4434
2433.240913 93.079 -117.8552
2450.873180 93.195 -118.3064
2468.633217 93.308 -118.7951
2486.521951 93.418 -119.3185
2504.540314 93.524 -119.8708
2522.689246 93.625 -120.4431
2540.969692 93.724 -121.0268
2559.382606 93.822 -121.6197
2577.928947 93.918 -122.2279
2596.609683 94.015 -122.8604
2615.425787 94.110 -123.5244
2634.378241 94.203 -124.2224
2653.468031 94.293 -124.9523
2672.696154 94.378 -125.7079
2692.063613 94.460 -126.4809
2711.571415 94.539 -127.2661
2731.220579 94.617 -128.0658
2751.012130 94.693 -128.8888
2770.947098 94.768 -129.7444
2791.026522 94.841 -130.6385
2811.251451 94.909 -131.5731
2831.622938 94.973 -132.5471
2852.142045 95.031 -133.5584
2872.809842 95.081 -134.6034
2893.627406 95.124 -135.6746
2914.595823 95.158 -136.7607
2935.716186 95.185 -137.8512
2956.989596 95.205 -138.9425
2978.417161 95.219 -140.0371
3000.000000 95.228 -141.1391
3021.739237 95.230 -142.2505
3043.636005 95.224 -143.3683
3065.691446 95.209 -144.4842
3087.906710 95.186 -145.5871
3110.282955 95.156 -146.6692
3132.821347 95.120 -147.7295
3155.523062 95.079 -148.7706
3178.389283 95.032 -149.7951
3201.421202 94.979 -150.8032
3224.620020 94.919 -151.7928
3247.986946 94.853 -152.7599
3271.523198 94.779 -153.6970
3295.230004 94.698 -154.5919
3319.108599 94.610 -155.4309
3343.160228 94.518 -156.2056
3367.386145 94.423 -156.9157
3391.787613 94.329 -157.5672
3416.365904 94.236 -158.1682
3441.122300 94.144 -158.7248
3466.058091 94.053 -159.2395
3491.174576 93.965 -159.7152
3516.473066 93.882 -160.1598
3541.954880 93.802 -160.5862
3567.621345 93.727 -161.0082
3593.473800 93.656 -161.4368
3619.513592 93.586 -161.8796
3645.742080 93.516 -162.3393
3672.160630 93.443 -162.8112
3698.770620 93.367 -163.2839
3725.573436 93.288 -163.7453
3752.570477 93.205 -164.1889
3779.763150 93.121 -164.6132
3807.152872 93.034 -165.0186
3834.741071 92.946 -165.4018
3862.529185 92.854 -165.7547
3890.518664 92.762 -166.0697
3918.710966 92.671 -166.3458
3947.107561 92.583 -166.5892
3975.709929 92.498 -166.8103
4004.519563 92.417 -167.0219
4033.537962 92.339 -167.2357
4062.766641 92.262 -167.4570
4092.207123 92.186 -167.6835
4121.860942 92.109 -167.9110
4151.729646 92.032 -168.1379
4181.814790 91.954 -168.3651
4212.117944 91.875 -168.5919
4242.640687 91.792 -168.8107
4273.384610 91.707 -169.0102
4304.351317 91.620 -169.1818
4335.542421 91.533 -169.3229
4366.959549 91.447 -169.4365
4398.604338 91.363 -169.5300
4430.478438 91.280 -169.6111
4462.583511 91.199 -169.6817
4494.921231 91.118 -169.7385
4527.493283 91.038 -169.7786
4560.301365 90.959 -169.8035
4593.347189 90.882 -169.8161
4626.632476 90.806 -169.8154
4660.158962 90.731 -169.7953
4693.928395 90.657 -169.7504
4727.942535 90.587 -169.6802
4762.203156 90.522 -169.5910
4796.712043 90.462 -169.4944
4831.470996 90.408 -169.4029
4866.481826 90.358 -169.3237
4901.746360 90.311 -169.2598
4937.266434 90.268 -169.2135
4973.043902 90.227 -169.1882
5009.080628 90.186 -169.1830
5045.378492 90.146 -169.1908
5081.939384 90.107 -169.2021
5118.765212 90.069 -169.2115
5155.857894 90.034 -169.2210
5193.219366 90.004 -169.2410
5230.851574 89.979 -169.2865
5268.756481 89.959 -169.3704
5306.936062 89.942 -169.5047
5345.392309 89.928 -169.7021
5384.127225 89.913 -169.9746
5423.142830 89.896 -170.3268
5462.441159 89.873 -170.7553
5502.024259 89.841 -171.2521
5541.894195 89.799 -171.8086
5582.053045 89.744 -172.4176
5622.502902 89.674 -173.0704
5663.245876 89.587 -173.7521
5704.284090 89.480 -174.4406
5745.619684 89.352 -175.1097
5787.254813 89.201 -175.7283
5829.191647 89.029 -176.2596
5871.432373 88.835 -176.6627
5913.979192 88.625 -176.8998
5956.834323 88.403 -176.9431
6000.000000 88.177 -176.7800
6043.478473 87.953 -176.4116
6087.272010 87.738 -175.8501
6131.382892 87.536 -175.1185
6175.813420 87.352 -174.2464
6220.565910 87.188 -173.2629
6265.642695 87.044 -172.1923
6311.046124 86.922 -171.0547
6356.778566 86.823 -169.8708
6402.842404 86.746 -168.6643
6449.240040 86.692 -167.4586
6495.973891 86.658 -166.2748
6543.046396 86.642 -165.1295
6590.460007 86.641 -164.0312
6638.217197 86.654 -162.9777
6686.320456 86.678 -161.9593
6734.772290 86.714 -160.9651
6783.575226 86.762 -159.9898
6832.731809 86.825 -159.0346
6882.244600 86.904 -158.1072
6932.116181 87.001 -157.2217
6982.349153 87.115 -156.3952
7032.946133 87.246 -155.6419
7083.909760 87.394 -154.9718
7135.242690 87.559 -154.3932
7186.947600 87.741 -153.9165
7239.027185 87.941 -153.5556
7291.484160 88.158 -153.3302
7344.321260 88.393 -153.2657
7397.541239 88.644 -153.3887
7451.146872 88.907 -153.7224
7505.140954 89.181 -154.2858
7559.526299 89.462 -155.0968
7614.305743 89.747 -156.1735
7669.482141 90.032 -157.5362
7725.058371 90.313 -159.2075
7781.037328 90.581 -161.2077
7837.421932 90.829 -163.5464
7894.215122 91.046 -166.2172
7951.419859 91.223 -169.1973
8009.039125 91.352 -172.4489
8067.075924 91.425 -175.9218
8125.533282 91.438 -179.5601
8184.414245 91.387 176.6962
8243.721885 91.269 172.9114
8303.459292 91.083 169.1543
8363.629581 90.830 165.4939
8424.235888 90.513 161.9966
8485.281374 90.138 158.7205
8546.769221 89.711 155.7103
8608.702634 89.239 152.9971
8671.084842 88.730 150.6031
8733.919097 88.190 148.5449
8797.208675 87.627 146.8347
8860.956876 87.047 145.4802
8925.167022 86.457 144.4794
8989.842461 85.867 143.8175
9054.986566 85.281 143.4701
9120.602731 84.706 143.4087
9186.694378 84.144 143.6068
9253.264952 83.599 144.0431
9320.317925 83.072 144.6983
9387.856790 82.566 145.5495
9455.885071 82.082 146.5705
9524.406312 81.621 147.7353
9593.424086 81.182 149.0235
9662.941992 80.765 150.4234
9732.963653 80.369 151.9276
9803.492719 79.995 153.5259
9874.532869 79.643 155.2042
9946.087805 79.312 156.9470
10018.161257 79.002 158.7451
10090.756983 78.712 160.5974
10163.878768 78.441 162.5044
10237.530423 78.189 164.4615
10311.715789 77.957 166.4587
10386.438732 77.745 168.4854
10461.703149 77.551 170.5381
10537.512962 77.375 172.6187
10613.872125 77.218 174.7272
10690.784618 77.080 176.8570
10768.254450 76.962 178.9974
10846.285661 76.863 -178.8574
10924.882318 76.782 -176.7063
11004.048518 76.720 -174.5477
11083.788390 76.677 -172.3855
11164.106090 76.655 -170.2290
11245.005805 76.652 -168.0862
11326.491752 76.668 -165.9584
11408.568180 76.705 -163.8455
11491.239368 76.762 -161.7525
11574.509626 76.842 -159.6901
11658.383294 76.945 -157.6686
11742.864745 77.071 -155.6938
11827.958384 77.222 -153.7713
11913.668646 77.398 -151.9121
12000.000000 77.600 -150.1338
12086.956947 77.829 -148.4534
12174.544019 78.086 -146.8860
12262.765784 78.372 -145.4499
12351.626840 78.687 -144.1733
12441.131819 79.031 -143.0913
12531.285389 79.403 -142.2408
12622.092249 79.802 -141.6586
12713.557132 80.223 -141.3849
12805.684808 80.661 -141.4642
12898.480079 81.106 -141.9360
12991.947783 81.550 -142.8252
13086.092792 81.978 -144.1359
13180.920015 82.382 -145.8482
13276.434395 82.750 -147.9155
13372.640911 83.079 -150.2711
13469.544580 83.373 -152.8535
13567.150452 83.634 -155.6431
13665.463617 83.864 -158.6688
13764.489200 84.051 -161.9613
13864.232362 84.177 -165.4974
13964.698305 84.230 -169.1908
14065.892266 84.204 -172.9210
14167.819519 84.102 -176.5638
14270.485380 83.932 179.9888
14373.895200 83.709 176.8155
14478.054370 83.450 173.9591
14582.968320 83.171 171.4296
14688.642520 82.889 169.2101
14795.082478 82.618 167.2604
14902.293745 82.372 165.5175
15010.281908 82.158 163.9021
15119.052599 81.984 162.3261
15228.611486 81.850 160.6955
15338.964283 81.756 158.9152
15450.116741 81.693 156.8967
15562.074656 81.652 154.5668
15674.843864 81.617 151.8719
15788.430244 81.573 148.7834
15902.839718 81.498 145.3043
16018.078250 81.374 141.4723
16134.151848 81.183 137.3597
16251.066563 80.910 133.0686
16368.828491 80.544 128.7245
16487.443769 80.081 124.4655
16606.918584 79.521 120.4274
16727.259161 78.871 116.7333
16848.471777 78.141 113.4864
16970.562748 77.345 110.7639
17093.538442 76.498 108.6143
17217.405268 75.617 107.0610
17342.169684 74.717 106.1041
17467.838194 73.814 105.7227
17594.417350 72.919 105.8807
17721.913751 72.045 106.5345
17850.334044 71.200 107.6349
17979.684923 70.390 109.1310
18109.973131 69.622 110.9753
18241.205462 68.898 113.1245
18373.388756 68.221 115.5407
18506.529905 67.593 118.1935
18640.635849 67.016 121.0577
18775.713581 66.493 124.1061
18911.770141 66.025 127.3061
19048.812624 65.617 130.6142
19186.848172 65.273 133.9710
19325.883983 64.996 137.2952
19465.927305 64.785 140.4755
19606.985439 64.639 143.3658
19749.065738 64.549 145.7888
19892.175609 64.503 147.5540
20036.322514 64.485 148.4904
