* Measurement data measured by REW V5.31
* Source: EXCL: Microphone (USB Sound Device        ), MICROPHONE (Master Volume), L, volume: 0.560
* Format: 256k Log Swept Sine, 1 sweep at -5.0 dBFS with no timing reference
* Dated: May 27, 2024 3:22:39 PM
* REW Settings:
*  C-weighting compensation: Off
*  Target level: 75.0 dB
* Note: Twistura D-Major Black L
* Measurement: L Twistura D-Major Black
* Smoothing: 1/12 octave
* Frequency Step: 96 ppo
* Start Frequency: 0.36621094 Hz
*
* Freq(Hz) SPL(dB) Phase(degrees)
0.366211 79.341 173.1138
0.368865 79.337 173.1036
0.371538 79.331 173.0884
0.374230 79.323 173.0692
0.376942 79.314 173.0472
0.379673 79.305 173.0231
0.382424 79.295 172.9974
0.385196 79.285 172.9704
0.387987 79.275 172.9422
0.390798 79.265 172.9130
0.393630 79.255 172.8828
0.396483 79.244 172.8516
0.399356 79.234 172.8194
0.402250 79.223 172.7862
0.405165 79.212 172.7521
0.408101 79.201 172.7170
0.411058 79.191 172.6808
0.414037 79.180 172.6437
0.417037 79.169 172.6055
0.420059 79.158 172.5663
0.423103 79.146 172.5261
0.426169 79.135 172.4848
0.429257 79.124 172.4425
0.432368 79.112 172.3991
0.435501 79.101 172.3547
0.438656 79.089 172.3091
0.441835 79.078 172.2625
0.445037 79.066 172.2148
0.448262 79.054 172.1660
0.451510 79.042 172.1160
0.454782 79.030 172.0650
0.458077 79.018 172.0128
0.461397 79.006 171.9595
0.464740 78.994 171.9050
0.468108 78.981 171.8494
0.471500 78.969 171.7927
0.474917 78.956 171.7348
0.478358 78.944 171.6757
0.481825 78.931 171.6154
0.485316 78.918 171.5540
0.488833 78.905 171.4914
0.492375 78.892 171.4276
0.495943 78.879 171.3626
0.499537 78.866 171.2964
0.503157 78.853 171.2290
0.506803 78.839 171.1604
0.510475 78.826 171.0906
0.514175 78.812 171.0196
0.517900 78.798 170.9474
0.521653 78.785 170.8739
0.525434 78.771 170.7993
0.529241 78.757 170.7234
0.533076 78.743 170.6464
0.536939 78.729 170.5681
0.540830 78.714 170.4886
0.544749 78.700 170.4079
0.548696 78.685 170.3260
0.552673 78.671 170.2428
0.556677 78.656 170.1585
0.560711 78.641 170.0730
0.564774 78.626 169.9863
0.568867 78.611 169.8983
0.572989 78.596 169.8092
0.577141 78.581 169.7190
0.581324 78.566 169.6275
0.585536 78.550 169.5349
0.589779 78.535 169.4412
0.594053 78.519 169.3463
0.598358 78.503 169.2503
0.602694 78.487 169.1532
0.607061 78.471 169.0550
0.611460 78.455 168.9557
0.615891 78.439 168.8553
0.620354 78.423 168.7539
0.624849 78.406 168.6515
0.629377 78.389 168.5480
0.633938 78.373 168.4436
0.638532 78.356 168.3382
0.643159 78.339 168.2319
0.647819 78.322 168.1246
0.652514 78.305 168.0165
0.657242 78.287 167.9075
0.662005 78.270 167.7977
0.666802 78.252 167.6871
0.671634 78.234 167.5758
0.676501 78.216 167.4637
0.681403 78.198 167.3509
0.686341 78.180 167.2375
0.691314 78.162 167.1236
0.696324 78.143 167.0090
0.701370 78.125 166.8939
0.706452 78.106 166.7782
0.711571 78.086 166.6620
0.716728 78.066 166.5452
0.721921 78.044 166.4276
0.727153 78.021 166.3090
0.732422 77.996 166.1889
0.737729 77.969 166.0670
0.743075 77.940 165.9427
0.748460 77.910 165.8156
0.753883 77.879 165.6855
0.759346 77.847 165.5520
0.764849 77.815 165.4152
0.770391 77.782 165.2747
0.775974 77.750 165.1307
0.781597 77.717 164.9830
0.787261 77.684 164.8316
0.792966 77.651 164.6765
0.798712 77.618 164.5176
0.804500 77.585 164.3550
0.810329 77.551 164.1886
0.816201 77.517 164.0184
0.822116 77.482 163.8444
0.828073 77.447 163.6666
0.834074 77.412 163.4849
0.840118 77.376 163.2995
0.846206 77.339 163.1101
0.852338 77.302 162.9169
0.858514 77.264 162.7199
0.864735 77.225 162.5190
0.871001 77.184 162.3143
0.877313 77.143 162.1058
0.883670 77.101 161.8934
0.890074 77.058 161.6773
0.896524 77.013 161.4574
0.903020 76.967 161.2337
0.909564 76.919 161.0062
0.916155 76.870 160.7751
0.922794 76.818 160.5404
0.929481 76.766 160.3020
0.936216 76.711 160.0600
0.943000 76.654 159.8146
0.949834 76.595 159.5657
0.956717 76.534 159.3135
0.963649 76.470 159.0580
0.970632 76.403 158.7992
0.977666 76.334 158.5374
0.984750 76.263 158.2725
0.991886 76.188 158.0048
0.999074 76.110 157.7344
1.006314 76.028 157.4613
1.013606 75.943 157.1857
1.020951 75.855 156.9079
1.028349 75.763 156.6279
1.035801 75.666 156.3460
1.043307 75.566 156.0624
1.050867 75.461 155.7771
1.058482 75.351 155.4905
1.066152 75.237 155.2025
1.073878 75.117 154.9131
1.081660 74.991 154.6221
1.089498 74.858 154.3289
1.097393 74.718 154.0327
1.105345 74.569 153.7322
1.113355 74.410 153.4262
1.121423 74.241 153.1132
1.129549 74.061 152.7922
1.137734 73.870 152.4621
1.145979 73.667 152.1223
1.154283 73.454 151.7721
1.162647 73.230 151.4108
1.171072 72.996 151.0378
1.179558 72.753 150.6524
1.188106 72.500 150.2541
1.196715 72.238 149.8421
1.205387 71.969 149.4156
1.214122 71.693 148.9738
1.222920 71.410 148.5159
1.231782 71.121 148.0408
1.240708 70.827 147.5474
1.249699 70.529 147.0347
1.258754 70.228 146.5011
1.267876 69.924 145.9454
1.277063 69.619 145.3659
1.286318 69.314 144.7607
1.295639 69.009 144.1279
1.305027 68.706 143.4652
1.314484 68.405 142.7700
1.324009 68.109 142.0395
1.333604 67.818 141.2703
1.343268 67.534 140.4586
1.353002 67.259 139.6001
1.362806 66.992 138.6898
1.372681 66.738 137.7217
1.382628 66.496 136.6889
1.392647 66.268 135.5833
1.402739 66.057 134.3949
1.412904 65.864 133.1119
1.423142 65.690 131.7193
1.433455 65.538 130.1986
1.443843 65.409 128.5256
1.454305 65.304 126.6692
1.464844 65.223 124.5884
1.475459 65.166 122.2298
1.486150 65.134 119.5249
1.496920 65.124 116.3872
1.507767 65.137 112.7085
1.518693 65.172 108.3551
1.529698 65.227 103.1678
1.540783 65.302 96.9700
1.551948 65.397 89.5982
1.563194 65.511 80.9670
1.574521 65.642 71.1708
1.585931 65.790 60.5753
1.597423 65.954 49.7964
1.608999 66.133 39.5130
1.620658 66.325 30.2312
1.632402 66.531 22.1764
1.644232 66.749 15.3402
1.656146 66.978 9.5887
1.668147 67.216 4.7468
1.680235 67.463 0.6457
1.692411 67.716 -2.8599
1.704675 67.976 -5.8884
1.717028 68.240 -8.5338
1.729470 68.507 -10.8701
1.742003 68.776 -12.9556
1.754626 69.046 -14.8363
1.767341 69.315 -16.5487
1.780147 69.583 -18.1221
1.793047 69.849 -19.5800
1.806040 70.114 -20.9414
1.819128 70.379 -22.2216
1.832310 70.646 -23.4327
1.845587 70.916 -24.5844
1.858961 71.193 -25.6839
1.872432 71.478 -26.7368
1.886001 71.771 -27.7474
1.899667 72.074 -28.7193
1.913433 72.385 -29.6556
1.927299 72.704 -30.5589
1.941265 73.030 -31.4316
1.955332 73.362 -32.2761
1.969501 73.700 -33.0942
1.983773 74.041 -33.8879
1.998148 74.386 -34.6591
2.012627 74.732 -35.4093
2.027212 75.078 -36.1402
2.041902 75.424 -36.8532
2.056698 75.767 -37.5498
2.071602 76.106 -38.2312
2.086614 76.440 -38.8990
2.101734 76.768 -39.5542
2.116964 77.088 -40.1983
2.132304 77.398 -40.8327
2.147756 77.699 -41.4587
2.163320 77.988 -42.0781
2.178996 78.266 -42.6927
2.194786 78.532 -43.3043
2.210690 78.786 -43.9149
2.226710 79.030 -44.5259
2.242845 79.264 -45.1382
2.259098 79.488 -45.7519
2.275468 79.704 -46.3668
2.291957 79.911 -46.9822
2.308566 80.111 -47.5973
2.325295 80.303 -48.2112
2.342145 80.489 -48.8230
2.359117 80.669 -49.4320
2.376212 80.844 -50.0372
2.393431 81.013 -50.6381
2.410775 81.179 -51.2341
2.428244 81.340 -51.8245
2.445840 81.499 -52.4089
2.463564 81.655 -52.9872
2.481416 81.810 -53.5591
2.499397 81.963 -54.1249
2.517509 82.115 -54.6852
2.535752 82.266 -55.2409
2.554127 82.416 -55.7936
2.572635 82.564 -56.3451
2.591277 82.711 -56.8976
2.610055 82.854 -57.4524
2.628968 82.994 -58.0104
2.648019 83.130 -58.5714
2.667208 83.262 -59.1350
2.686535 83.391 -59.7002
2.706003 83.517 -60.2661
2.725612 83.639 -60.8313
2.745363 83.758 -61.3946
2.765257 83.874 -61.9547
2.785295 83.987 -62.5103
2.805478 84.099 -63.0604
2.825808 84.208 -63.6039
2.846285 84.315 -64.1400
2.866910 84.421 -64.6682
2.887685 84.525 -65.1886
2.908611 84.627 -65.7019
2.929688 84.727 -66.2092
2.950917 84.826 -66.7124
2.972301 84.922 -67.2133
2.993839 85.015 -67.7129
3.015534 85.106 -68.2118
3.037386 85.194 -68.7101
3.059396 85.279 -69.2070
3.081565 85.362 -69.7017
3.103896 85.442 -70.1931
3.126388 85.520 -70.6800
3.149043 85.597 -71.1610
3.171862 85.671 -71.6348
3.194847 85.745 -72.1002
3.217998 85.816 -72.5561
3.241317 85.887 -73.0019
3.264805 85.956 -73.4370
3.288463 86.025 -73.8618
3.312293 86.091 -74.2771
3.336295 86.156 -74.6838
3.360471 86.219 -75.0831
3.384822 86.281 -75.4755
3.409350 86.340 -75.8617
3.434056 86.398 -76.2415
3.458940 86.454 -76.6148
3.484005 86.509 -76.9814
3.509252 86.563 -77.3407
3.534681 86.616 -77.6922
3.560295 86.669 -78.0354
3.586094 86.721 -78.3695
3.612081 86.772 -78.6940
3.638255 86.824 -79.0085
3.664620 86.875 -79.3127
3.691175 86.926 -79.6066
3.717923 86.977 -79.8904
3.744864 87.027 -80.1646
3.772001 87.076 -80.4298
3.799335 87.125 -80.6869
3.826866 87.173 -80.9365
3.854597 87.222 -81.1795
3.882529 87.270 -81.4166
3.910664 87.319 -81.6484
3.939002 87.368 -81.8755
3.967546 87.418 -82.0982
3.996296 87.468 -82.3164
4.025255 87.520 -82.5299
4.054423 87.572 -82.7383
4.083804 87.624 -82.9413
4.113396 87.678 -83.1391
4.143204 87.732 -83.3322
4.173227 87.787 -83.5217
4.203468 87.842 -83.7089
4.233928 87.898 -83.8954
4.264609 87.954 -84.0827
4.295512 88.012 -84.2721
4.326639 88.070 -84.4649
4.357992 88.128 -84.6618
4.389572 88.188 -84.8630
4.421380 88.248 -85.0686
4.453419 88.309 -85.2780
4.485691 88.371 -85.4913
4.518196 88.433 -85.7085
4.550936 88.496 -85.9301
4.583914 88.560 -86.1568
4.617131 88.624 -86.3896
4.650589 88.688 -86.6295
4.684289 88.752 -86.8772
4.718233 88.815 -87.1337
4.752424 88.879 -87.3993
4.786862 88.942 -87.6743
4.821549 89.006 -87.9586
4.856488 89.069 -88.2518
4.891680 89.132 -88.5535
4.927127 89.194 -88.8633
4.962831 89.256 -89.1806
4.998794 89.317 -89.5052
5.035017 89.378 -89.8368
5.071503 89.437 -90.1753
5.108253 89.495 -90.5210
5.145270 89.552 -90.8739
5.182555 89.608 -91.2344
5.220110 89.663 -91.6021
5.257937 89.717 -91.9764
5.296038 89.769 -92.3565
5.334415 89.820 -92.7410
5.373071 89.870 -93.1289
5.412006 89.919 -93.5189
5.451224 89.966 -93.9105
5.490725 90.012 -94.3032
5.530514 90.057 -94.6972
5.570590 90.100 -95.0924
5.610957 90.142 -95.4886
5.651616 90.182 -95.8854
5.692570 90.222 -96.2818
5.733821 90.260 -96.6767
5.775370 90.298 -97.0691
5.817221 90.334 -97.4581
5.859375 90.370 -97.8431
5.901834 90.405 -98.2241
5.944602 90.439 -98.6011
5.987679 90.473 -98.9742
6.031068 90.506 -99.3435
6.074771 90.539 -99.7091
6.118792 90.571 -100.0707
6.163131 90.604 -100.4282
6.207792 90.637 -100.7814
6.252776 90.670 -101.1302
6.298086 90.703 -101.4746
6.343725 90.737 -101.8152
6.389694 90.771 -102.1526
6.435996 90.805 -102.4875
6.482634 90.840 -102.8209
6.529610 90.876 -103.1535
6.576926 90.913 -103.4858
6.624585 90.950 -103.8181
6.672590 90.989 -104.1507
6.720942 91.028 -104.4842
6.769645 91.068 -104.8191
6.818700 91.108 -105.1564
6.868111 91.150 -105.4970
6.917881 91.192 -105.8418
6.968010 91.234 -106.1913
7.018504 91.277 -106.5458
7.069362 91.321 -106.9054
7.120590 91.365 -107.2701
7.172189 91.409 -107.6399
7.224161 91.453 -108.0151
7.276511 91.497 -108.3958
7.329239 91.542 -108.7820
7.382350 91.585 -109.1737
7.435845 91.629 -109.5705
7.489729 91.672 -109.9720
7.544002 91.715 -110.3774
7.598669 91.757 -110.7859
7.653732 91.799 -111.1967
7.709194 91.840 -111.6095
7.765058 91.880 -112.0238
7.821327 91.919 -112.4389
7.878004 91.958 -112.8541
7.935091 91.996 -113.2684
7.992592 92.033 -113.6808
8.050510 92.070 -114.0905
8.108847 92.106 -114.4970
8.167607 92.142 -114.9000
8.226793 92.178 -115.2990
8.286408 92.213 -115.6936
8.346454 92.247 -116.0835
8.406936 92.282 -116.4683
8.467856 92.317 -116.8477
8.529218 92.352 -117.2218
8.591024 92.387 -117.5909
8.653278 92.422 -117.9552
8.715983 92.458 -118.3151
8.779143 92.494 -118.6710
8.842760 92.530 -119.0231
8.906839 92.567 -119.3719
8.971381 92.605 -119.7179
9.036392 92.643 -120.0616
9.101873 92.681 -120.4038
9.167829 92.720 -120.7450
9.234263 92.759 -121.0855
9.301178 92.798 -121.4256
9.368578 92.838 -121.7655
9.436467 92.877 -122.1055
9.504847 92.917 -122.4459
9.573723 92.955 -122.7865
9.643099 92.994 -123.1274
9.712976 93.031 -123.4683
9.783361 93.066 -123.8089
9.854255 93.099 -124.1487
9.925663 93.129 -124.4874
9.997588 93.156 -124.8247
10.070035 93.180 -125.1600
10.143007 93.202 -125.4928
10.216507 93.222 -125.8226
10.290540 93.240 -126.1490
10.365109 93.256 -126.4716
10.440219 93.270 -126.7902
10.515873 93.284 -127.1047
10.592076 93.297 -127.4148
10.668830 93.309 -127.7205
10.746141 93.320 -128.0219
10.824012 93.332 -128.3194
10.902447 93.343 -128.6131
10.981451 93.354 -128.9034
11.061027 93.365 -129.1908
11.141180 93.376 -129.4757
11.221913 93.386 -129.7585
11.303232 93.397 -130.0397
11.385140 93.407 -130.3198
11.467641 93.417 -130.5991
11.550741 93.426 -130.8779
11.634442 93.436 -131.1563
11.718750 93.446 -131.4346
11.803669 93.455 -131.7128
11.889203 93.464 -131.9908
11.975357 93.473 -132.2686
12.062136 93.482 -132.5459
12.149543 93.490 -132.8226
12.237583 93.498 -133.0985
12.326262 93.506 -133.3733
12.415583 93.513 -133.6469
12.505552 93.519 -133.9191
12.596172 93.525 -134.1900
12.687449 93.531 -134.4594
12.779387 93.536 -134.7277
12.871992 93.541 -134.9949
12.965268 93.545 -135.2613
13.059220 93.550 -135.5273
13.153852 93.554 -135.7932
13.249170 93.558 -136.0595
13.345179 93.563 -136.3265
13.441884 93.568 -136.5945
13.539289 93.572 -136.8640
13.637401 93.577 -137.1351
13.736223 93.582 -137.4079
13.835761 93.586 -137.6826
13.936021 93.591 -137.9590
14.037007 93.595 -138.2370
14.138725 93.598 -138.5165
14.241180 93.601 -138.7971
14.344377 93.604 -139.0788
14.448323 93.607 -139.3611
14.553021 93.609 -139.6440
14.658478 93.611 -139.9273
14.764700 93.613 -140.2109
14.871691 93.615 -140.4949
14.979457 93.617 -140.7793
15.088005 93.620 -141.0644
15.197339 93.622 -141.3503
15.307465 93.626 -141.6371
15.418389 93.629 -141.9253
15.530117 93.632 -142.2148
15.642655 93.636 -142.5057
15.756008 93.640 -142.7981
15.870182 93.643 -143.0917
15.985184 93.647 -143.3864
16.101019 93.651 -143.6816
16.217694 93.654 -143.9770
16.335214 93.658 -144.2721
16.453586 93.661 -144.5663
16.572815 93.665 -144.8591
16.692909 93.669 -145.1502
16.813872 93.674 -145.4391
16.935713 93.679 -145.7258
17.058436 93.684 -146.0100
17.182048 93.690 -146.2920
17.306556 93.697 -146.5718
17.431967 93.704 -146.8496
17.558286 93.711 -147.1257
17.685521 93.719 -147.4003
17.813677 93.726 -147.6736
17.942762 93.734 -147.9455
18.072783 93.742 -148.2160
18.203746 93.749 -148.4848
18.335658 93.757 -148.7515
18.468526 93.764 -149.0156
18.602356 93.771 -149.2765
18.737156 93.778 -149.5338
18.872934 93.785 -149.7869
19.009695 93.792 -150.0356
19.147447 93.799 -150.2797
19.286197 93.806 -150.5195
19.425953 93.814 -150.7551
19.566721 93.821 -150.9875
19.708510 93.829 -151.2173
19.851326 93.837 -151.4457
19.995177 93.845 -151.6736
20.140070 93.852 -151.9023
20.286013 93.860 -152.1324
20.433014 93.866 -152.3645
20.581080 93.872 -152.5989
20.730219 93.878 -152.8353
20.880439 93.882 -153.0729
21.031747 93.885 -153.3107
21.184152 93.886 -153.5470
21.337661 93.887 -153.7799
21.492282 93.886 -154.0076
21.648024 93.884 -154.2282
21.804895 93.881 -154.4401
21.962902 93.877 -154.6422
22.122054 93.874 -154.8341
22.282360 93.870 -155.0161
22.443827 93.868 -155.1892
22.606464 93.866 -155.3554
22.770280 93.866 -155.5170
22.935283 93.867 -155.6770
23.101481 93.870 -155.8382
23.268884 93.874 -156.0036
23.437500 93.879 -156.1754
23.607338 93.886 -156.3555
23.778406 93.892 -156.5448
23.950714 93.899 -156.7436
24.124271 93.906 -156.9514
24.299086 93.913 -157.1672
24.475167 93.919 -157.3895
24.652524 93.925 -157.6169
24.831166 93.930 -157.8479
25.011103 93.934 -158.0813
25.192344 93.939 -158.3160
25.374898 93.943 -158.5515
25.558775 93.946 -158.7871
25.743984 93.950 -159.0225
25.930536 93.954 -159.2573
26.118439 93.957 -159.4912
26.307704 93.960 -159.7236
26.498341 93.963 -159.9541
26.690359 93.965 -160.1821
26.883768 93.968 -160.4072
27.078579 93.970 -160.6290
27.274801 93.972 -160.8472
27.472446 93.974 -161.0619
27.671522 93.976 -161.2731
27.872042 93.978 -161.4810
28.074014 93.979 -161.6859
28.277450 93.981 -161.8878
28.482360 93.982 -162.0870
28.688755 93.983 -162.2837
28.896645 93.984 -162.4781
29.106042 93.985 -162.6703
29.316957 93.985 -162.8608
29.529400 93.985 -163.0499
29.743382 93.985 -163.2380
29.958915 93.986 -163.4254
30.176009 93.985 -163.6126
30.394677 93.985 -163.7997
30.614929 93.985 -163.9868
30.836778 93.984 -164.1740
31.060234 93.983 -164.3612
31.285309 93.982 -164.5483
31.512015 93.981 -164.7356
31.740364 93.979 -164.9232
31.970368 93.978 -165.1114
32.202039 93.977 -165.3007
32.435388 93.975 -165.4914
32.670428 93.974 -165.6838
32.907171 93.972 -165.8781
33.145630 93.971 -166.0741
33.385817 93.969 -166.2714
33.627745 93.967 -166.4697
33.871425 93.966 -166.6684
34.116871 93.964 -166.8670
34.364096 93.962 -167.0651
34.613113 93.960 -167.2627
34.863934 93.958 -167.4599
35.116572 93.955 -167.6564
35.371041 93.953 -167.8523
35.627354 93.950 -168.0468
35.885525 93.947 -168.2392
36.145566 93.944 -168.4283
36.407492 93.940 -168.6132
36.671316 93.936 -168.7935
36.937051 93.932 -168.9693
37.204712 93.929 -169.1415
37.474313 93.926 -169.3117
37.745867 93.923 -169.4815
38.019389 93.920 -169.6525
38.294893 93.918 -169.8254
38.572394 93.915 -170.0004
38.851905 93.912 -170.1770
39.133442 93.909 -170.3544
39.417019 93.905 -170.5315
39.702651 93.900 -170.7076
39.990353 93.895 -170.8822
40.280140 93.890 -171.0551
40.572026 93.885 -171.2259
40.866028 93.879 -171.3947
41.162160 93.874 -171.5617
41.460438 93.869 -171.7273
41.760877 93.865 -171.8923
42.063494 93.860 -172.0575
42.368303 93.856 -172.2239
42.675322 93.851 -172.3919
42.984565 93.847 -172.5615
43.296048 93.842 -172.7319
43.609789 93.836 -172.9021
43.925804 93.830 -173.0706
44.244108 93.824 -173.2364
44.564719 93.817 -173.3985
44.887654 93.810 -173.5568
45.212928 93.803 -173.7118
45.540560 93.797 -173.8642
45.870565 93.791 -174.0153
46.202962 93.785 -174.1662
46.537768 93.779 -174.3180
46.875000 93.773 -174.4714
47.214676 93.767 -174.6265
47.556813 93.761 -174.7829
47.901429 93.755 -174.9398
48.248542 93.749 -175.0966
48.598171 93.742 -175.2525
48.950334 93.735 -175.4069
49.305048 93.728 -175.5597
49.662333 93.720 -175.7103
50.022206 93.713 -175.8586
50.384688 93.705 -176.0041
50.749796 93.698 -176.1470
51.117550 93.690 -176.2878
51.487969 93.683 -176.4278
51.861072 93.677 -176.5678
52.236879 93.670 -176.7083
52.615409 93.663 -176.8493
52.996681 93.656 -176.9896
53.380717 93.648 -177.1283
53.767536 93.641 -177.2648
54.157158 93.634 -177.3992
54.549603 93.627 -177.5322
54.944892 93.621 -177.6650
55.343045 93.616 -177.7994
55.744084 93.611 -177.9367
56.148028 93.607 -178.0786
56.554900 93.602 -178.2261
56.964720 93.598 -178.3796
57.377510 93.593 -178.5386
57.793291 93.587 -178.7016
58.212085 93.580 -178.8663
58.633914 93.572 -179.0302
59.058799 93.563 -179.1911
59.486764 93.553 -179.3476
59.917829 93.543 -179.4993
60.352019 93.532 -179.6464
60.789354 93.521 -179.7899
61.229859 93.511 -179.9311
61.673556 93.500 179.9288
62.120468 93.490 179.7888
62.570618 93.479 179.6487
63.024031 93.469 179.5086
63.480729 93.458 179.3694
63.940736 93.448 179.2318
64.404077 93.437 179.0957
64.870776 93.428 178.9606
65.340856 93.418 178.8262
65.814343 93.408 178.6926
66.291261 93.399 178.5611
66.771635 93.389 178.4327
67.255489 93.379 178.3070
67.742850 93.369 178.1823
68.233743 93.359 178.0563
68.728193 93.348 177.9283
69.226226 93.337 177.7997
69.727867 93.324 177.6726
70.233144 93.311 177.5475
70.742083 93.297 177.4225
71.254709 93.284 177.2947
71.771050 93.271 177.1619
72.291132 93.258 177.0233
72.814984 93.245 176.8797
73.342631 93.232 176.7327
73.874102 93.219 176.5840
74.409424 93.207 176.4362
74.948626 93.194 176.2917
75.491734 93.181 176.1526
76.038779 93.169 176.0206
76.589787 93.157 175.8969
77.144788 93.144 175.7823
77.703811 93.132 175.6761
78.266885 93.119 175.5758
78.834039 93.107 175.4766
79.405303 93.095 175.3737
79.980706 93.082 175.2626
80.560280 93.068 175.1401
81.144053 93.054 175.0038
81.732056 93.038 174.8522
82.324320 93.022 174.6849
82.920876 93.004 174.5031
83.521755 92.986 174.3089
84.126988 92.966 174.1066
84.736607 92.945 173.9022
85.350643 92.922 173.7036
85.969129 92.897 173.5198
86.592097 92.872 173.3582
87.219579 92.847 173.2211
87.851608 92.823 173.1029
88.488217 92.801 172.9930
89.129439 92.778 172.8829
89.775308 92.754 172.7696
90.425856 92.729 172.6545
91.081119 92.701 172.5411
91.741131 92.673 172.4349
92.405925 92.644 172.3418
93.075536 92.618 172.2615
93.750000 92.595 172.1826
94.429351 92.578 172.0873
95.113625 92.561 171.9654
95.802858 92.543 171.8226
96.497085 92.522 171.6761
97.196342 92.496 171.5427
97.900667 92.466 171.4320
98.610096 92.433 171.3474
99.324665 92.397 171.2887
100.044413 92.359 171.2549
100.769376 92.318 171.2441
101.499592 92.276 171.2551
102.235100 92.233 171.2882
102.975938 92.190 171.3459
103.722144 92.148 171.4317
104.473757 92.109 171.5480
105.230817 92.074 171.6956
105.993363 92.043 171.8719
106.761435 92.017 172.0724
107.535072 91.996 172.2910
108.314315 91.982 172.5195
109.099206 91.974 172.7461
109.889783 91.974 172.9550
110.686090 91.982 173.1276
111.488167 91.996 173.2459
112.296056 92.016 173.3003
113.109800 92.040 173.2944
113.929440 92.066 173.2423
114.755020 92.093 173.1594
115.586582 92.122 173.0576
116.424170 92.151 172.9447
117.267827 92.178 172.8245
118.117598 92.201 172.6962
118.973527 92.217 172.5582
119.835658 92.223 172.4186
120.704037 92.218 172.2961
121.578708 92.204 172.2024
122.459718 92.187 172.1296
123.347111 92.168 172.0607
124.240935 92.150 171.9827
125.141236 92.132 171.8893
126.048061 92.116 171.7796
126.961458 92.100 171.6563
127.881473 92.085 171.5243
128.808154 92.070 171.3888
129.741551 92.053 171.2546
130.681712 92.034 171.1243
131.628686 92.014 170.9984
132.582521 91.993 170.8766
133.543269 91.970 170.7585
134.510979 91.947 170.6439
135.485701 91.924 170.5331
136.467486 91.901 170.4272
137.456386 91.878 170.3266
138.452451 91.855 170.2315
139.455735 91.832 170.1413
140.466288 91.808 170.0553
141.484165 91.783 169.9733
142.509418 91.759 169.8949
143.542100 91.733 169.8204
144.582265 91.708 169.7501
145.629968 91.683 169.6841
146.685262 91.657 169.6226
147.748204 91.631 169.5653
148.818849 91.604 169.5126
149.897251 91.576 169.4644
150.983469 91.547 169.4218
152.077557 91.518 169.3863
153.179574 91.488 169.3607
154.289576 91.458 169.3465
155.407622 91.429 169.3426
156.533770 91.402 169.3450
157.668078 91.376 169.3481
158.810606 91.352 169.3474
159.961413 91.328 169.3400
161.120559 91.304 169.3252
162.288105 91.280 169.3033
163.464112 91.255 169.2764
164.648640 91.229 169.2471
165.841752 91.201 169.2185
167.043510 91.172 169.1938
168.253976 91.142 169.1754
169.473213 91.112 169.1647
170.701286 91.082 169.1614
171.938258 91.052 169.1642
173.184194 91.024 169.1714
174.439158 90.996 169.1819
175.703216 90.969 169.1951
176.976434 90.943 169.2107
178.258878 90.916 169.2294
179.550615 90.889 169.2524
180.851713 90.862 169.2801
182.162239 90.835 169.3104
183.482262 90.809 169.3394
184.811850 90.783 169.3641
186.151073 90.756 169.3849
187.500000 90.729 169.4041
188.858702 90.701 169.4248
190.227250 90.673 169.4497
191.605715 90.644 169.4807
192.994169 90.615 169.5187
194.392685 90.587 169.5637
195.801334 90.559 169.6158
197.220191 90.531 169.6761
198.649330 90.504 169.7456
200.088825 90.478 169.8248
201.538751 90.454 169.9124
202.999184 90.432 170.0051
204.470200 90.411 170.0981
205.951875 90.393 170.1853
207.444287 90.375 170.2617
208.947514 90.357 170.3248
210.461634 90.338 170.3762
211.986726 90.318 170.4199
213.522869 90.295 170.4619
215.070144 90.270 170.5089
216.628631 90.243 170.5668
218.198411 90.215 170.6386
219.779567 90.187 170.7230
221.372180 90.160 170.8148
222.976334 90.134 170.9084
224.592112 90.109 171.0004
226.219600 90.085 171.0897
227.858880 90.061 171.1772
229.510039 90.037 171.2642
231.173164 90.013 171.3515
232.848340 89.990 171.4397
234.535655 89.967 171.5280
236.235197 89.943 171.6153
237.947054 89.920 171.7003
239.671317 89.897 171.7825
241.408074 89.873 171.8630
243.157416 89.848 171.9440
244.919435 89.822 172.0288
246.694223 89.795 172.1210
248.481871 89.767 172.2243
250.282473 89.739 172.3413
252.096123 89.712 172.4736
253.922915 89.686 172.6197
255.762945 89.663 172.7740
257.616309 89.643 172.9266
259.483103 89.625 173.0667
261.363424 89.607 173.1883
263.257372 89.589 173.2929
265.165043 89.569 173.3875
267.086538 89.547 173.4808
269.021957 89.524 173.5805
270.971401 89.501 173.6915
272.934972 89.478 173.8151
274.912771 89.455 173.9501
276.904902 89.434 174.0944
278.911469 89.414 174.2456
280.932577 89.396 174.4010
282.968330 89.380 174.5566
285.018835 89.366 174.7067
287.084199 89.353 174.8439
289.164530 89.341 174.9623
291.259935 89.328 175.0604
293.370525 89.312 175.1437
295.496408 89.294 175.2221
297.637697 89.273 175.3054
299.794503 89.250 175.3998
301.966937 89.225 175.5077
304.155114 89.200 175.6278
306.359147 89.175 175.7570
308.579152 89.150 175.8913
310.815244 89.125 176.0276
313.067539 89.100 176.1646
315.336156 89.075 176.3038
317.621211 89.049 176.4492
319.922826 89.022 176.6054
322.241118 88.996 176.7744
324.576210 88.971 176.9546
326.928223 88.946 177.1424
329.297280 88.922 177.3341
331.683504 88.900 177.5263
334.087019 88.878 177.7164
336.507952 88.857 177.9024
338.946427 88.836 178.0840
341.402572 88.814 178.2626
343.876516 88.792 178.4413
346.368387 88.769 178.6230
348.878315 88.746 178.8095
351.406431 88.723 179.0010
353.952867 88.699 179.1968
356.517756 88.676 179.3962
359.101230 88.654 179.5984
361.703426 88.631 179.8031
364.324478 88.609 -179.9898
366.964523 88.587 -179.7800
369.623699 88.564 -179.5674
372.302145 88.542 -179.3522
375.000000 88.521 -179.1340
377.717405 88.499 -178.9129
380.454501 88.478 -178.6888
383.211431 88.457 -178.4618
385.988339 88.437 -178.2322
388.785369 88.417 -178.0004
391.602668 88.398 -177.7664
394.440383 88.378 -177.5302
397.298660 88.359 -177.2920
400.177650 88.341 -177.0527
403.077502 88.322 -176.8134
405.998368 88.304 -176.5752
408.940400 88.286 -176.3384
411.903750 88.268 -176.1013
414.888575 88.249 -175.8604
417.895028 88.229 -175.6120
420.923268 88.210 -175.3535
423.973452 88.191 -175.0849
427.045738 88.174 -174.8080
430.140287 88.159 -174.5271
433.257261 88.145 -174.2462
436.396822 88.133 -173.9679
439.559133 88.122 -173.6923
442.744360 88.112 -173.4194
445.952668 88.104 -173.1518
449.184225 88.096 -172.8946
452.439199 88.089 -172.6535
455.717760 88.081 -172.4313
459.020079 88.071 -172.2238
462.346327 88.057 -172.0207
465.696680 88.041 -171.8106
469.071310 88.023 -171.5867
472.470394 88.004 -171.3474
475.894109 87.986 -171.0954
479.342634 87.967 -170.8354
482.816148 87.950 -170.5727
486.314833 87.931 -170.3088
489.838871 87.912 -170.0397
493.388445 87.893 -169.7581
496.963741 87.874 -169.4606
500.564945 87.856 -169.1512
504.192245 87.840 -168.8375
507.845830 87.825 -168.5264
511.525890 87.812 -168.2207
515.232618 87.798 -167.9189
518.966206 87.784 -167.6167
522.726849 87.769 -167.3091
526.514743 87.754 -166.9917
530.330086 87.739 -166.6627
534.173076 87.725 -166.3244
538.043915 87.713 -165.9821
541.942803 87.701 -165.6389
545.869944 87.690 -165.2946
549.825542 87.680 -164.9483
553.809805 87.671 -164.6016
557.822939 87.663 -164.2569
561.865154 87.655 -163.9159
565.936660 87.647 -163.5780
570.037671 87.639 -163.2406
574.168399 87.631 -162.9005
578.329060 87.622 -162.5561
582.519870 87.613 -162.2075
586.741049 87.604 -161.8545
590.992817 87.595 -161.4944
595.275394 87.586 -161.1248
599.589005 87.578 -160.7465
603.933874 87.570 -160.3639
608.310228 87.564 -159.9815
612.718295 87.558 -159.6005
617.158304 87.552 -159.2186
621.630488 87.546 -158.8297
626.135079 87.540 -158.4276
630.672311 87.534 -158.0104
635.242423 87.531 -157.5826
639.845651 87.529 -157.1505
644.482237 87.530 -156.7163
649.152421 87.532 -156.2788
653.856447 87.536 -155.8392
658.594560 87.543 -155.4044
663.367008 87.552 -154.9850
668.174039 87.562 -154.5887
673.015903 87.570 -154.2145
677.892854 87.577 -153.8539
682.805145 87.581 -153.4970
687.753032 87.583 -153.1362
692.736774 87.583 -152.7654
697.756631 87.581 -152.3796
702.812863 87.579 -151.9770
707.905735 87.577 -151.5595
713.035511 87.576 -151.1312
718.202461 87.575 -150.6949
723.406852 87.575 -150.2510
728.648956 87.575 -149.7980
733.929047 87.576 -149.3348
739.247399 87.578 -148.8610
744.604290 87.580 -148.3763
750.000000 87.583 -147.8810
755.434809 87.587 -147.3755
760.909001 87.593 -146.8601
766.422861 87.600 -146.3358
771.976677 87.609 -145.8037
777.570739 87.620 -145.2654
783.205337 87.632 -144.7224
788.880766 87.647 -144.1741
794.597321 87.662 -143.6179
800.355301 87.681 -143.0518
806.155005 87.703 -142.4776
811.996736 87.729 -141.9014
817.880799 87.759 -141.3324
823.807501 87.793 -140.7804
829.777150 87.829 -140.2539
835.790057 87.866 -139.7553
841.846536 87.901 -139.2780
847.946903 87.935 -138.8110
854.091476 87.967 -138.3457
860.280575 87.998 -137.8775
866.514523 88.029 -137.4036
872.793644 88.059 -136.9206
879.118267 88.091 -136.4291
885.488720 88.123 -135.9332
891.905336 88.157 -135.4369
898.368450 88.192 -134.9404
904.878398 88.228 -134.4413
911.435520 88.265 -133.9386
918.040157 88.304 -133.4337
924.692655 88.345 -132.9295
931.393359 88.388 -132.4294
938.142619 88.433 -131.9370
944.940787 88.479 -131.4541
951.788218 88.526 -130.9795
958.685268 88.573 -130.5107
965.632296 88.622 -130.0453
972.629666 88.671 -129.5812
979.677741 88.720 -129.1176
986.776890 88.771 -128.6550
993.927482 88.823 -128.1917
1001.129891 88.876 -127.7230
1008.384491 88.930 -127.2448
1015.691660 88.987 -126.7584
1023.051781 89.048 -126.2693
1030.465236 89.112 -125.7862
1037.932411 89.181 -125.3211
1045.453698 89.253 -124.8863
1053.029486 89.325 -124.4869
1060.660172 89.398 -124.1186
1068.346153 89.468 -123.7726
1076.087829 89.537 -123.4395
1083.885605 89.604 -123.1131
1091.739887 89.670 -122.7914
1099.651084 89.736 -122.4743
1107.619609 89.801 -122.1615
1115.645878 89.866 -121.8517
1123.730308 89.930 -121.5434
1131.873321 89.994 -121.2353
1140.075341 90.057 -120.9267
1148.336797 90.120 -120.6171
1156.658119 90.184 -120.3059
1165.039741 90.248 -119.9919
1173.482099 90.314 -119.6735
1181.985634 90.381 -119.3512
1190.550789 90.451 -119.0309
1199.178011 90.525 -118.7239
1207.867749 90.601 -118.4417
1216.620457 90.678 -118.1901
1225.436590 90.753 -117.9655
1234.316609 90.825 -117.7593
1243.260976 90.895 -117.5622
1252.270157 90.962 -117.3664
1261.344623 91.026 -117.1676
1270.484846 91.089 -116.9643
1279.691303 91.151 -116.7551
1288.964474 91.212 -116.5383
1298.304842 91.272 -116.3144
1307.712894 91.333 -116.0856
1317.189120 91.395 -115.8556
1326.734016 91.457 -115.6264
1336.348077 91.519 -115.3971
1346.031806 91.581 -115.1649
1355.785708 91.644 -114.9255
1365.610290 91.708 -114.6753
1375.506065 91.773 -114.4097
1385.473549 91.840 -114.1236
1395.513261 91.910 -113.8158
1405.625726 91.985 -113.4915
1415.811469 92.064 -113.1620
1426.071023 92.147 -112.8419
1436.404921 92.232 -112.5402
1446.813703 92.318 -112.2571
1457.297912 92.403 -111.9874
1467.858093 92.487 -111.7246
1478.494798 92.569 -111.4641
1489.208581 92.649 -111.2020
1500.000000 92.727 -110.9351
1510.869618 92.802 -110.6605
1521.818002 92.874 -110.3758
1532.845723 92.943 -110.0796
1543.953355 93.011 -109.7716
1555.141477 93.078 -109.4527
1566.410674 93.146 -109.1284
1577.761531 93.218 -108.8105
1589.194642 93.292 -108.5135
1600.710601 93.368 -108.2466
1612.310010 93.444 -108.0098
1623.993473 93.518 -107.7970
1635.761599 93.591 -107.5997
1647.615002 93.662 -107.4106
1659.554299 93.732 -107.2239
1671.580114 93.801 -107.0354
1683.693072 93.870 -106.8435
1695.893807 93.939 -106.6496
1708.182952 94.008 -106.4554
1720.561150 94.077 -106.2607
1733.029045 94.144 -106.0622
1745.587288 94.210 -105.8551
1758.236533 94.275 -105.6331
1770.977440 94.341 -105.3915
1783.810673 94.410 -105.1318
1796.736900 94.484 -104.8641
1809.756796 94.562 -104.6034
1822.871040 94.644 -104.3615
1836.080315 94.729 -104.1428
1849.385310 94.816 -103.9462
1862.786718 94.904 -103.7686
1876.285239 94.994 -103.6058
1889.881575 95.085 -103.4524
1903.576436 95.179 -103.3027
1917.370535 95.278 -103.1517
1931.264593 95.382 -102.9961
1945.259332 95.493 -102.8377
1959.355483 95.612 -102.6858
1973.553781 95.738 -102.5546
1987.854965 95.868 -102.4552
2002.259781 96.001 -102.3917
2016.768981 96.135 -102.3623
2031.383320 96.268 -102.3625
2046.103561 96.401 -102.3875
2060.930471 96.533 -102.4337
2075.864823 96.664 -102.5001
2090.907395 96.794 -102.5868
2106.058972 96.923 -102.6925
2121.320344 97.050 -102.8129
2136.692305 97.174 -102.9409
2152.175658 97.297 -103.0695
2167.771210 97.421 -103.1975
2183.479774 97.546 -103.3328
2199.302169 97.673 -103.4881
2215.239219 97.802 -103.6739
2231.291755 97.931 -103.8957
2247.460615 98.059 -104.1543
2263.746641 98.186 -104.4471
2280.150683 98.310 -104.7685
2296.673595 98.433 -105.1119
2313.316238 98.555 -105.4718
2330.079481 98.677 -105.8481
2346.964198 98.800 -106.2487
2363.971268 98.924 -106.6858
2381.101578 99.048 -107.1694
2398.356022 99.170 -107.7041
2415.735498 99.289 -108.2901
2433.240913 99.404 -108.9242
2450.873180 99.514 -109.6026
2468.633217 99.618 -110.3219
2486.521951 99.716 -111.0779
2504.540314 99.808 -111.8635
2522.689246 99.892 -112.6684
2540.969692 99.970 -113.4821
2559.382606 100.043 -114.3000
2577.928947 100.113 -115.1248
2596.609683 100.180 -115.9621
2615.425787 100.242 -116.8163
2634.378241 100.300 -117.6884
2653.468031 100.352 -118.5753
2672.696154 100.399 -119.4702
2692.063613 100.440 -120.3648
2711.571415 100.478 -121.2542
2731.220579 100.514 -122.1411
2751.012130 100.548 -123.0347
2770.947098 100.579 -123.9449
2791.026522 100.608 -124.8786
2811.251451 100.631 -125.8376
2831.622938 100.649 -126.8205
2852.142045 100.659 -127.8229
2872.809842 100.662 -128.8376
2893.627406 100.656 -129.8534
2914.595823 100.641 -130.8554
2935.716186 100.619 -131.8295
2956.989596 100.590 -132.7684
2978.417161 100.557 -133.6712
3000.000000 100.520 -134.5397
3021.739237 100.478 -135.3747
3043.636005 100.432 -136.1736
3065.691446 100.382 -136.9292
3087.906710 100.329 -137.6324
3110.282955 100.274 -138.2780
3132.821347 100.221 -138.8690
3155.523062 100.169 -139.4138
3178.389283 100.119 -139.9225
3201.421202 100.071 -140.4037
3224.620020 100.025 -140.8644
3247.986946 99.981 -141.3095
3271.523198 99.936 -141.7397
3295.230004 99.891 -142.1501
3319.108599 99.846 -142.5327
3343.160228 99.802 -142.8831
3367.386145 99.759 -143.2026
3391.787613 99.720 -143.4962
3416.365904 99.683 -143.7681
3441.122300 99.649 -144.0184
3466.058091 99.617 -144.2416
3491.174576 99.589 -144.4318
3516.473066 99.566 -144.5895
3541.954880 99.549 -144.7225
3567.621345 99.539 -144.8429
3593.473800 99.536 -144.9640
3619.513592 99.539 -145.0984
3645.742080 99.547 -145.2560
3672.160630 99.557 -145.4397
3698.770620 99.570 -145.6457
3725.573436 99.585 -145.8685
3752.570477 99.601 -146.1065
3779.763150 99.619 -146.3622
3807.152872 99.638 -146.6379
3834.741071 99.656 -146.9321
3862.529185 99.674 -147.2379
3890.518664 99.692 -147.5498
3918.710966 99.713 -147.8683
3947.107561 99.737 -148.2012
3975.709929 99.764 -148.5608
4004.519563 99.796 -148.9614
4033.537962 99.831 -149.4160
4062.766641 99.867 -149.9311
4092.207123 99.902 -150.5058
4121.860942 99.936 -151.1367
4151.729646 99.968 -151.8228
4181.814790 99.997 -152.5652
4212.117944 100.022 -153.3628
4242.640687 100.040 -154.2087
4273.384610 100.052 -155.0927
4304.351317 100.059 -156.0075
4335.542421 100.060 -156.9518
4366.959549 100.056 -157.9296
4398.604338 100.047 -158.9487
4430.478438 100.032 -160.0163
4462.583511 100.009 -161.1330
4494.921231 99.977 -162.2929
4527.493283 99.935 -163.4884
4560.301365 99.882 -164.7125
4593.347189 99.817 -165.9577
4626.632476 99.738 -167.2112
4660.158962 99.645 -168.4547
4693.928395 99.538 -169.6705
4727.942535 99.419 -170.8455
4762.203156 99.290 -171.9735
4796.712043 99.152 -173.0545
4831.470996 99.006 -174.0911
4866.481826 98.851 -175.0821
4901.746360 98.687 -176.0232
4937.266434 98.516 -176.9103
4973.043902 98.335 -177.7409
5009.080628 98.146 -178.5097
5045.378492 97.947 -179.2055
5081.939384 97.740 -179.8144
5118.765212 97.525 179.6752
5155.857894 97.306 179.2682
5193.219366 97.084 178.9616
5230.851574 96.861 178.7482
5268.756481 96.638 178.6221
5306.936062 96.415 178.5787
5345.392309 96.193 178.6120
5384.127225 95.972 178.7164
5423.142830 95.750 178.8917
5462.441159 95.527 179.1437
5502.024259 95.304 179.4812
5541.894195 95.082 179.9097
5582.053045 94.864 -179.5725
5622.502902 94.651 -178.9728
5663.245876 94.446 -178.2998
5704.284090 94.248 -177.5619
5745.619684 94.059 -176.7698
5787.254813 93.879 -175.9335
5829.191647 93.706 -175.0570
5871.432373 93.540 -174.1379
5913.979192 93.381 -173.1708
5956.834323 93.229 -172.1526
6000.000000 93.087 -171.0851
6043.478473 92.955 -169.9730
6087.272010 92.833 -168.8216
6131.382892 92.722 -167.6388
6175.813420 92.623 -166.4332
6220.565910 92.534 -165.2097
6265.642695 92.455 -163.9669
6311.046124 92.386 -162.6991
6356.778566 92.328 -161.4019
6402.842404 92.282 -160.0754
6449.240040 92.248 -158.7233
6495.973891 92.229 -157.3526
6543.046396 92.225 -155.9739
6590.460007 92.237 -154.5978
6638.217197 92.263 -153.2305
6686.320456 92.304 -151.8724
6734.772290 92.361 -150.5219
6783.575226 92.434 -149.1794
6832.731809 92.525 -147.8487
6882.244600 92.633 -146.5383
6932.116181 92.761 -145.2623
6982.349153 92.908 -144.0373
7032.946133 93.075 -142.8779
7083.909760 93.264 -141.7956
7135.242690 93.475 -140.8018
7186.947600 93.712 -139.9124
7239.027185 93.975 -139.1501
7291.484160 94.267 -138.5471
7344.321260 94.589 -138.1452
7397.541239 94.940 -137.9922
7451.146872 95.316 -138.1360
7505.140954 95.714 -138.6245
7559.526299 96.128 -139.5068
7614.305743 96.553 -140.8320
7669.482141 96.977 -142.6483
7725.058371 97.390 -144.9982
7781.037328 97.777 -147.9101
7837.421932 98.118 -151.3867
7894.215122 98.397 -155.3961
7951.419859 98.597 -159.8697
8009.039125 98.703 -164.7030
8067.075924 98.705 -169.7614
8125.533282 98.599 -174.8922
8184.414245 98.384 -179.9380
8243.721885 98.065 175.2520
8303.459292 97.650 170.8109
8363.629581 97.152 166.8451
8424.235888 96.585 163.4296
8485.281374 95.966 160.6055
8546.769221 95.312 158.3784
8608.702634 94.641 156.7246
8671.084842 93.965 155.6020
8733.919097 93.295 154.9601
8797.208675 92.641 154.7486
8860.956876 92.009 154.9203
8925.167022 91.402 155.4284
8989.842461 90.826 156.2240
9054.986566 90.282 157.2595
9120.602731 89.771 158.4932
9186.694378 89.293 159.8945
9253.264952 88.844 161.4443
9320.317925 88.427 163.1292
9387.856790 88.040 164.9333
9455.885071 87.684 166.8385
9524.406312 87.358 168.8265
9593.424086 87.063 170.8841
9662.941992 86.797 173.0064
9732.963653 86.562 175.1898
9803.492719 86.357 177.4256
9874.532869 86.184 179.6988
9946.087805 86.042 -178.0076
10018.161257 85.929 -175.7047
10090.756983 85.846 -173.3961
10163.878768 85.792 -171.0854
10237.530423 85.769 -168.7819
10311.715789 85.775 -166.5005
10386.438732 85.812 -164.2563
10461.703149 85.879 -162.0574
10537.512962 85.976 -159.9083
10613.872125 86.104 -157.8180
10690.784618 86.265 -155.8038
10768.254450 86.459 -153.8883
10846.285661 86.686 -152.0929
10924.882318 86.946 -150.4363
11004.048518 87.239 -148.9414
11083.788390 87.567 -147.6407
11164.106090 87.928 -146.5743
11245.005805 88.319 -145.7832
11326.491752 88.738 -145.3052
11408.568180 89.180 -145.1786
11491.239368 89.639 -145.4443
11574.509626 90.107 -146.1423
11658.383294 90.572 -147.3015
11742.864745 91.022 -148.9340
11827.958384 91.446 -151.0345
11913.668646 91.831 -153.5811
12000.000000 92.163 -156.5332
12086.956947 92.431 -159.8262
12174.544019 92.627 -163.3717
12262.765784 92.745 -167.0650
12351.626840 92.785 -170.7962
12441.131819 92.750 -174.4581
12531.285389 92.648 -177.9514
12622.092249 92.489 178.8085
12713.557132 92.289 175.8825
12805.684808 92.063 173.3014
12898.480079 91.828 171.0664
12991.947783 91.600 169.1541
13086.092792 91.395 167.5176
13180.920015 91.226 166.0853
13276.434395 91.105 164.7633
13372.640911 91.038 163.4435
13469.544580 91.029 162.0097
13567.150452 91.076 160.3402
13665.463617 91.172 158.3127
13764.489200 91.304 155.8163
13864.232362 91.453 152.7650
13964.698305 91.596 149.1052
14065.892266 91.708 144.8221
14167.819519 91.761 139.9487
14270.485380 91.728 134.5715
14373.895200 91.587 128.8269
14478.054370 91.323 122.8886
14582.968320 90.926 116.9517
14688.642520 90.398 111.2144
14795.082478 89.747 105.8564
14902.293745 88.989 101.0217
15010.281908 88.145 96.8119
15119.052599 87.237 93.2873
15228.611486 86.292 90.4688
15338.964283 85.335 88.3410
15450.116741 84.392 86.8597
15562.074656 83.487 85.9577
15674.843864 82.641 85.5489
15788.430244 81.873 85.5278
15902.839718 81.199 85.7705
16018.078250 80.632 86.1326
16134.151848 80.183 86.4456
16251.066563 79.859 86.5155
16368.828491 79.656 86.1305
16487.443769 79.564 85.0770
16606.918584 79.555 83.1603
16727.259161 79.589 80.2352
16848.471777 79.614 76.2372
16970.562748 79.572 71.2053
17093.538442 79.405 65.2958
17217.405268 79.066 58.7818
17342.169684 78.522 52.0236
17467.838194 77.761 45.4124
17594.417350 76.791 39.3106
17721.913751 75.633 34.0109
17850.334044 74.315 29.7220
17979.684923 72.871 26.5721
18109.973131 71.335 24.6205
18241.205462 69.742 23.8658
18373.388756 68.123 24.2546
18506.529905 66.510 25.6913
18640.635849 64.931 28.0498
18775.713581 63.409 31.1826
18911.770141 61.966 34.9346
19048.812624 60.616 39.1537
19186.848172 59.369 43.6914
19325.883983 58.234 48.3943
19465.927305 57.219 53.0791
19606.985439 56.340 57.5056
19749.065738 55.623 61.3564
19892.175609 55.107 64.2536
20036.322514 54.835 65.8257
