* Measurement data measured by REW V5.31
* Source: EXCL: Microphone (USB Sound Device        ), MICROPHONE (Master Volume), L, volume: 0.390
* Format: 256k Log Swept Sine, 1 sweep at -10.0 dBFS with no timing reference
* Dated: Sep 16, 2024 11:47:02 PM
* REW Settings:
*  C-weighting compensation: Off
*  Target level: 75.0 dB
* Note: XENNS Mangird Tea PRO L
* Measurement: L XENNS Mangird Tea PRO
* Smoothing: 1/12 octave
* Frequency Step: 96 ppo
* Start Frequency: 0.36621094 Hz
*
* Freq(Hz)	SPL(dB)	Phase(degrees)
0.366211	93.965	-53.9306
0.368865	93.966	-53.9971
0.371538	93.968	-54.0966
0.374230	93.970	-54.2216
0.376942	93.972	-54.3654
0.379673	93.974	-54.5233
0.382424	93.977	-54.6921
0.385196	93.979	-54.8698
0.387987	93.981	-55.0554
0.390798	93.984	-55.2483
0.393630	93.986	-55.4482
0.396483	93.989	-55.6548
0.399356	93.992	-55.8684
0.402250	93.994	-56.0887
0.405165	93.997	-56.3160
0.408101	93.999	-56.5501
0.411058	94.002	-56.7913
0.414037	94.005	-57.0395
0.417037	94.007	-57.2947
0.420059	94.010	-57.5571
0.423103	94.013	-57.8268
0.426169	94.015	-58.1036
0.429257	94.018	-58.3878
0.432368	94.021	-58.6793
0.435501	94.024	-58.9782
0.438656	94.027	-59.2845
0.441835	94.029	-59.5983
0.445037	94.032	-59.9196
0.448262	94.035	-60.2485
0.451510	94.038	-60.5849
0.454782	94.041	-60.9288
0.458077	94.044	-61.2804
0.461397	94.047	-61.6395
0.464740	94.050	-62.0063
0.468108	94.053	-62.3808
0.471500	94.056	-62.7628
0.474917	94.059	-63.1525
0.478358	94.062	-63.5498
0.481825	94.065	-63.9547
0.485316	94.068	-64.3672
0.488833	94.071	-64.7873
0.492375	94.074	-65.2148
0.495943	94.078	-65.6499
0.499537	94.081	-66.0924
0.503157	94.084	-66.5423
0.506803	94.087	-66.9995
0.510475	94.091	-67.4640
0.514175	94.094	-67.9358
0.517900	94.097	-68.4146
0.521653	94.101	-68.9005
0.525434	94.104	-69.3933
0.529241	94.107	-69.8930
0.533076	94.111	-70.3995
0.536939	94.114	-70.9126
0.540830	94.118	-71.4323
0.544749	94.121	-71.9583
0.548696	94.125	-72.4906
0.552673	94.128	-73.0290
0.556677	94.132	-73.5735
0.560711	94.135	-74.1237
0.564774	94.139	-74.6797
0.568867	94.143	-75.2412
0.572989	94.146	-75.8080
0.577141	94.150	-76.3801
0.581324	94.154	-76.9571
0.585536	94.158	-77.5390
0.589779	94.161	-78.1255
0.594053	94.165	-78.7164
0.598358	94.169	-79.3117
0.602694	94.173	-79.9109
0.607061	94.177	-80.5141
0.611460	94.181	-81.1209
0.615891	94.185	-81.7312
0.620354	94.189	-82.3447
0.624849	94.193	-82.9613
0.629377	94.197	-83.5808
0.633938	94.201	-84.2029
0.638532	94.205	-84.8275
0.643159	94.209	-85.4544
0.647819	94.213	-86.0833
0.652514	94.217	-86.7141
0.657242	94.221	-87.3467
0.662005	94.226	-87.9807
0.666802	94.230	-88.6161
0.671634	94.234	-89.2527
0.676501	94.239	-89.8903
0.681403	94.243	-90.5288
0.686341	94.247	-91.1681
0.691314	94.252	-91.8080
0.696324	94.256	-92.4485
0.701370	94.261	-93.0896
0.706452	94.266	-93.7313
0.711571	94.270	-94.3739
0.716728	94.275	-95.0178
0.721921	94.281	-95.6637
0.727153	94.287	-96.3129
0.732422	94.293	-96.9670
0.737729	94.300	-97.6278
0.743075	94.308	-98.2972
0.748460	94.316	-98.9767
0.753883	94.324	-99.6674
0.759346	94.333	-100.3699
0.764849	94.343	-101.0845
0.770391	94.352	-101.8114
0.775974	94.362	-102.5504
0.781597	94.373	-103.3014
0.787261	94.383	-104.0643
0.792966	94.394	-104.8387
0.798712	94.404	-105.6243
0.804500	94.415	-106.4208
0.810329	94.427	-107.2280
0.816201	94.438	-108.0453
0.822116	94.450	-108.8725
0.828073	94.462	-109.7090
0.834074	94.474	-110.5545
0.840118	94.487	-111.4086
0.846206	94.500	-112.2707
0.852338	94.513	-113.1404
0.858514	94.526	-114.0172
0.864735	94.539	-114.9006
0.871001	94.553	-115.7900
0.877313	94.567	-116.6850
0.883670	94.581	-117.5850
0.890074	94.595	-118.4894
0.896524	94.610	-119.3977
0.903020	94.624	-120.3093
0.909564	94.639	-121.2238
0.916155	94.655	-122.1406
0.922794	94.670	-123.0591
0.929481	94.686	-123.9788
0.936216	94.702	-124.8992
0.943000	94.718	-125.8198
0.949834	94.734	-126.7400
0.956717	94.751	-127.6595
0.963649	94.767	-128.5778
0.970632	94.784	-129.4944
0.977666	94.801	-130.4089
0.984750	94.819	-131.3209
0.991886	94.836	-132.2301
0.999074	94.854	-133.1361
1.006314	94.871	-134.0386
1.013606	94.889	-134.9374
1.020951	94.908	-135.8322
1.028349	94.926	-136.7228
1.035801	94.944	-137.6090
1.043307	94.963	-138.4909
1.050867	94.982	-139.3684
1.058482	95.001	-140.2416
1.066152	95.020	-141.1110
1.073878	95.039	-141.9772
1.081660	95.058	-142.8413
1.089498	95.078	-143.7050
1.097393	95.098	-144.5708
1.105345	95.118	-145.4413
1.113355	95.138	-146.3195
1.121423	95.159	-147.2079
1.129549	95.180	-148.1082
1.137734	95.202	-149.0217
1.145979	95.224	-149.9492
1.154283	95.246	-150.8909
1.162647	95.269	-151.8470
1.171072	95.292	-152.8175
1.179558	95.315	-153.8022
1.188106	95.339	-154.8008
1.196715	95.363	-155.8129
1.205387	95.388	-156.8382
1.214122	95.413	-157.8761
1.222920	95.438	-158.9261
1.231782	95.463	-159.9875
1.240708	95.489	-161.0597
1.249699	95.515	-162.1417
1.258754	95.541	-163.2328
1.267876	95.567	-164.3321
1.277063	95.594	-165.4385
1.286318	95.620	-166.5509
1.295639	95.647	-167.6683
1.305027	95.674	-168.7893
1.314484	95.701	-169.9129
1.324009	95.728	-171.0376
1.333604	95.755	-172.1620
1.343268	95.782	-173.2848
1.353002	95.809	-174.4046
1.362806	95.836	-175.5198
1.372681	95.863	-176.6289
1.382628	95.889	-177.7305
1.392647	95.916	-178.8231
1.402739	95.942	-179.9054
1.412904	95.968	179.0237
1.423142	95.994	177.9653
1.433455	96.019	176.9194
1.443843	96.044	175.8858
1.454305	96.069	174.8629
1.464844	96.094	173.8481
1.475459	96.119	172.8380
1.486150	96.143	171.8286
1.496920	96.168	170.8170
1.507767	96.192	169.8008
1.518693	96.216	168.7786
1.529698	96.241	167.7497
1.540783	96.265	166.7137
1.551948	96.290	165.6709
1.563194	96.314	164.6215
1.574521	96.338	163.5659
1.585931	96.362	162.5045
1.597423	96.386	161.4382
1.608999	96.410	160.3676
1.620658	96.434	159.2935
1.632402	96.457	158.2166
1.644232	96.480	157.1379
1.656146	96.503	156.0583
1.668147	96.525	154.9787
1.680235	96.547	153.9002
1.692411	96.568	152.8239
1.704675	96.589	151.7507
1.717028	96.609	150.6819
1.729470	96.629	149.6187
1.742003	96.648	148.5619
1.754626	96.666	147.5128
1.767341	96.684	146.4720
1.780147	96.700	145.4403
1.793047	96.716	144.4175
1.806040	96.731	143.4031
1.819128	96.745	142.3953
1.832310	96.758	141.3911
1.845587	96.770	140.3871
1.858961	96.781	139.3795
1.872432	96.792	138.3653
1.886001	96.802	137.3423
1.899667	96.810	136.3094
1.913433	96.818	135.2663
1.927299	96.826	134.2129
1.941265	96.832	133.1498
1.955332	96.837	132.0781
1.969501	96.842	130.9986
1.983773	96.845	129.9129
1.998148	96.848	128.8224
2.012627	96.849	127.7290
2.027212	96.850	126.6344
2.041902	96.849	125.5408
2.056698	96.847	124.4504
2.071602	96.844	123.3656
2.086614	96.840	122.2890
2.101734	96.835	121.2232
2.116964	96.828	120.1706
2.132304	96.820	119.1336
2.147756	96.810	118.1142
2.163320	96.799	117.1134
2.178996	96.786	116.1312
2.194786	96.772	115.1662
2.210690	96.756	114.2155
2.226710	96.738	113.2754
2.242845	96.719	112.3425
2.259098	96.697	111.4142
2.275468	96.674	110.4887
2.291957	96.649	109.5649
2.308566	96.622	108.6427
2.325295	96.594	107.7221
2.342145	96.563	106.8039
2.359117	96.531	105.8889
2.376212	96.498	104.9786
2.393431	96.463	104.0745
2.410775	96.427	103.1787
2.428244	96.389	102.2933
2.445840	96.351	101.4208
2.463564	96.311	100.5641
2.481416	96.270	99.7261
2.499397	96.228	98.9098
2.517509	96.184	98.1181
2.535752	96.140	97.3536
2.554127	96.094	96.6180
2.572635	96.046	95.9121
2.591277	95.996	95.2357
2.610055	95.944	94.5880
2.628968	95.889	93.9677
2.648019	95.832	93.3735
2.667208	95.774	92.8045
2.686535	95.713	92.2596
2.706003	95.651	91.7380
2.725612	95.588	91.2393
2.745363	95.525	90.7629
2.765257	95.462	90.3088
2.785295	95.399	89.8769
2.805478	95.338	89.4674
2.825808	95.278	89.0809
2.846285	95.220	88.7184
2.866910	95.165	88.3813
2.887685	95.112	88.0719
2.908611	95.063	87.7932
2.929688	95.016	87.5491
2.950917	94.972	87.3435
2.972301	94.929	87.1801
2.993839	94.889	87.0605
3.015534	94.851	86.9851
3.037386	94.815	86.9522
3.059396	94.782	86.9590
3.081565	94.751	87.0018
3.103896	94.723	87.0760
3.126388	94.700	87.1765
3.149043	94.681	87.2979
3.171862	94.667	87.4347
3.194847	94.658	87.5815
3.217998	94.656	87.7338
3.241317	94.661	87.8880
3.264805	94.674	88.0428
3.288463	94.695	88.1988
3.312293	94.724	88.3588
3.336295	94.762	88.5264
3.360471	94.809	88.7035
3.384822	94.863	88.8897
3.409350	94.926	89.0823
3.434056	94.996	89.2765
3.458940	95.072	89.4663
3.484005	95.153	89.6449
3.509252	95.240	89.8051
3.534681	95.330	89.9401
3.560295	95.424	90.0433
3.586094	95.521	90.1092
3.612081	95.620	90.1335
3.638255	95.721	90.1138
3.664620	95.825	90.0501
3.691175	95.932	89.9443
3.717923	96.043	89.7991
3.744864	96.157	89.6178
3.772001	96.275	89.4030
3.799335	96.395	89.1566
3.826866	96.517	88.8801
3.854597	96.641	88.5745
3.882529	96.764	88.2402
3.910664	96.887	87.8773
3.939002	97.008	87.4855
3.967546	97.126	87.0637
3.996296	97.241	86.6108
4.025255	97.354	86.1254
4.054423	97.463	85.6064
4.083804	97.569	85.0539
4.113396	97.672	84.4693
4.143204	97.773	83.8555
4.173227	97.870	83.2165
4.203468	97.965	82.5567
4.233928	98.057	81.8805
4.264609	98.145	81.1923
4.295512	98.229	80.4951
4.326639	98.309	79.7913
4.357992	98.384	79.0812
4.389572	98.455	78.3637
4.421380	98.521	77.6366
4.453419	98.582	76.8978
4.485691	98.639	76.1467
4.518196	98.690	75.3848
4.550936	98.737	74.6156
4.583914	98.780	73.8438
4.617131	98.818	73.0746
4.650589	98.852	72.3133
4.684289	98.882	71.5646
4.718233	98.908	70.8315
4.752424	98.930	70.1153
4.786862	98.947	69.4153
4.821549	98.959	68.7299
4.856488	98.968	68.0578
4.891680	98.972	67.3991
4.927127	98.972	66.7552
4.962831	98.969	66.1289
4.998794	98.964	65.5236
5.035017	98.956	64.9432
5.071503	98.947	64.3916
5.108253	98.936	63.8717
5.145270	98.923	63.3853
5.182555	98.909	62.9328
5.220110	98.894	62.5136
5.257937	98.877	62.1263
5.296038	98.860	61.7694
5.334415	98.844	61.4413
5.373071	98.828	61.1408
5.412006	98.815	60.8675
5.451224	98.804	60.6214
5.490725	98.796	60.4032
5.530514	98.791	60.2135
5.570590	98.790	60.0521
5.610957	98.793	59.9170
5.651616	98.799	59.8042
5.692570	98.808	59.7084
5.733821	98.822	59.6236
5.775370	98.840	59.5442
5.817221	98.863	59.4658
5.859375	98.891	59.3856
5.901834	98.925	59.3022
5.944602	98.963	59.2146
5.987679	99.006	59.1209
6.031068	99.053	59.0179
6.074771	99.104	58.9012
6.118792	99.157	58.7663
6.163131	99.213	58.6087
6.207792	99.271	58.4252
6.252776	99.330	58.2142
6.298086	99.391	57.9753
6.343725	99.453	57.7093
6.389694	99.515	57.4175
6.435996	99.577	57.1009
6.482634	99.638	56.7603
6.529610	99.698	56.3962
6.576926	99.754	56.0086
6.624585	99.809	55.5977
6.672590	99.860	55.1645
6.720942	99.908	54.7110
6.769645	99.953	54.2409
6.818700	99.994	53.7584
6.868111	100.032	53.2675
6.917881	100.065	52.7717
6.968010	100.094	52.2731
7.018504	100.119	51.7732
7.069362	100.139	51.2735
7.120590	100.155	50.7765
7.172189	100.168	50.2859
7.224161	100.176	49.8056
7.276511	100.182	49.3395
7.329239	100.184	48.8905
7.382350	100.184	48.4602
7.435845	100.180	48.0494
7.489729	100.175	47.6586
7.544002	100.169	47.2884
7.598669	100.161	46.9398
7.653732	100.153	46.6136
7.709194	100.146	46.3105
7.765058	100.139	46.0302
7.821327	100.133	45.7715
7.878004	100.129	45.5320
7.935091	100.126	45.3088
7.992592	100.125	45.0987
8.050510	100.127	44.8992
8.108847	100.132	44.7081
8.167607	100.140	44.5231
8.226793	100.151	44.3412
8.286408	100.164	44.1586
8.346454	100.180	43.9715
8.406936	100.198	43.7762
8.467856	100.218	43.5705
8.529218	100.240	43.3526
8.591024	100.264	43.1214
8.653278	100.288	42.8758
8.715983	100.313	42.6147
8.779143	100.337	42.3375
8.842760	100.361	42.0437
8.906839	100.384	41.7342
8.971381	100.406	41.4104
9.036392	100.426	41.0742
9.101873	100.444	40.7278
9.167829	100.460	40.3730
9.234263	100.473	40.0117
9.301178	100.485	39.6460
9.368578	100.493	39.2783
9.436467	100.499	38.9114
9.504847	100.503	38.5479
9.573723	100.505	38.1899
9.643099	100.505	37.8388
9.712976	100.502	37.4958
9.783361	100.496	37.1618
9.854255	100.488	36.8379
9.925663	100.477	36.5246
9.997588	100.464	36.2217
10.070035	100.449	35.9286
10.143007	100.432	35.6442
10.216507	100.415	35.3671
10.290540	100.397	35.0960
10.365109	100.379	34.8296
10.440219	100.361	34.5661
10.515873	100.343	34.3038
10.592076	100.326	34.0409
10.668830	100.310	33.7758
10.746141	100.295	33.5076
10.824012	100.280	33.2353
10.902447	100.266	32.9584
10.981451	100.252	32.6766
11.061027	100.237	32.3897
11.141180	100.223	32.0982
11.221913	100.208	31.8027
11.303232	100.193	31.5041
11.385140	100.177	31.2033
11.467641	100.161	30.9014
11.550741	100.144	30.5991
11.634442	100.127	30.2974
11.718750	100.110	29.9973
11.803669	100.093	29.6992
11.889203	100.076	29.4034
11.975357	100.060	29.1102
12.062136	100.044	28.8192
12.149543	100.029	28.5302
12.237583	100.014	28.2427
12.326262	100.000	27.9562
12.415583	99.986	27.6698
12.505552	99.973	27.3832
12.596172	99.960	27.0956
12.687449	99.947	26.8070
12.779387	99.934	26.5172
12.871992	99.921	26.2263
12.965268	99.908	25.9347
13.059220	99.894	25.6430
13.153852	99.880	25.3522
13.249170	99.866	25.0631
13.345179	99.852	24.7767
13.441884	99.838	24.4939
13.539289	99.823	24.2156
13.637401	99.809	23.9423
13.736223	99.795	23.6743
13.835761	99.782	23.4116
13.936021	99.768	23.1536
14.037007	99.756	22.8997
14.138725	99.744	22.6488
14.241180	99.733	22.3996
14.344377	99.723	22.1507
14.448323	99.713	21.9008
14.553021	99.703	21.6487
14.658478	99.695	21.3936
14.764700	99.686	21.1346
14.871691	99.677	20.8718
14.979457	99.667	20.6056
15.088005	99.658	20.3367
15.197339	99.647	20.0661
15.307465	99.636	19.7953
15.418389	99.624	19.5259
15.530117	99.611	19.2594
15.642655	99.597	18.9970
15.756008	99.582	18.7399
15.870182	99.567	18.4886
15.985184	99.552	18.2433
16.101019	99.537	18.0036
16.217694	99.522	17.7686
16.335214	99.508	17.5369
16.453586	99.494	17.3070
16.572815	99.482	17.0774
16.692909	99.470	16.8465
16.813872	99.459	16.6129
16.935713	99.448	16.3759
17.058436	99.438	16.1348
17.182048	99.427	15.8897
17.306556	99.417	15.6412
17.431967	99.406	15.3900
17.558286	99.394	15.1373
17.685521	99.381	14.8842
17.813677	99.368	14.6320
17.942762	99.354	14.3813
18.072783	99.340	14.1329
18.203746	99.326	13.8870
18.335658	99.312	13.6434
18.468526	99.298	13.4017
18.602356	99.285	13.1611
18.737156	99.271	12.9210
18.872934	99.259	12.6806
19.009695	99.247	12.4394
19.147447	99.235	12.1970
19.286197	99.224	11.9535
19.425953	99.213	11.7088
19.566721	99.201	11.4634
19.708510	99.190	11.2175
19.851326	99.179	10.9716
19.995177	99.168	10.7258
20.140070	99.157	10.4804
20.286013	99.146	10.2351
20.433014	99.136	9.9899
20.581080	99.125	9.7446
20.730219	99.115	9.4990
20.880439	99.105	9.2532
21.031747	99.095	9.0073
21.184152	99.085	8.7619
21.337661	99.075	8.5175
21.492282	99.065	8.2747
21.648024	99.056	8.0339
21.804895	99.046	7.7957
21.962902	99.037	7.5601
22.122054	99.029	7.3267
22.282360	99.020	7.0948
22.443827	99.012	6.8640
22.606464	99.004	6.6333
22.770280	98.996	6.4020
22.935283	98.988	6.1700
23.101481	98.980	5.9371
23.268884	98.972	5.7040
23.437500	98.963	5.4713
23.607338	98.953	5.2401
23.778406	98.942	5.0112
23.950714	98.931	4.7853
24.124271	98.920	4.5626
24.299086	98.909	4.3428
24.475167	98.897	4.1253
24.652524	98.886	3.9092
24.831166	98.874	3.6935
25.011103	98.863	3.4773
25.192344	98.851	3.2600
25.374898	98.840	3.0414
25.558775	98.828	2.8218
25.743984	98.815	2.6016
25.930536	98.802	2.3813
26.118439	98.789	2.1614
26.307704	98.776	1.9424
26.498341	98.762	1.7241
26.690359	98.748	1.5065
26.883768	98.735	1.2892
27.078579	98.721	1.0720
27.274801	98.708	0.8544
27.472446	98.694	0.6365
27.671522	98.680	0.4181
27.872042	98.666	0.1992
28.074014	98.653	-0.0200
28.277450	98.639	-0.2395
28.482360	98.625	-0.4594
28.688755	98.612	-0.6796
28.896645	98.598	-0.9000
29.106042	98.584	-1.1205
29.316957	98.570	-1.3406
29.529400	98.557	-1.5599
29.743382	98.543	-1.7782
29.958915	98.530	-1.9951
30.176009	98.516	-2.2105
30.394677	98.504	-2.4247
30.614929	98.491	-2.6378
30.836778	98.479	-2.8504
31.060234	98.466	-3.0625
31.285309	98.454	-3.2743
31.512015	98.442	-3.4854
31.740364	98.429	-3.6956
31.970368	98.417	-3.9048
32.202039	98.404	-4.1128
32.435388	98.392	-4.3199
32.670428	98.379	-4.5266
32.907171	98.367	-4.7335
33.145630	98.354	-4.9410
33.385817	98.342	-5.1495
33.627745	98.329	-5.3593
33.871425	98.316	-5.5699
34.116871	98.303	-5.7815
34.364096	98.289	-5.9937
34.613113	98.275	-6.2062
34.863934	98.261	-6.4191
35.116572	98.246	-6.6322
35.371041	98.231	-6.8455
35.627354	98.216	-7.0587
35.885525	98.201	-7.2717
36.145566	98.185	-7.4846
36.407492	98.169	-7.6969
36.671316	98.153	-7.9086
36.937051	98.136	-8.1195
37.204712	98.120	-8.3294
37.474313	98.103	-8.5380
37.745867	98.087	-8.7450
38.019389	98.070	-8.9507
38.294893	98.054	-9.1550
38.572394	98.037	-9.3585
38.851905	98.021	-9.5615
39.133442	98.005	-9.7643
39.417019	97.988	-9.9669
39.702651	97.972	-10.1688
39.990353	97.955	-10.3700
40.280140	97.938	-10.5699
40.572026	97.921	-10.7688
40.866028	97.904	-10.9666
41.162160	97.887	-11.1635
41.460438	97.870	-11.3597
41.760877	97.852	-11.5555
42.063494	97.834	-11.7509
42.368303	97.816	-11.9457
42.675322	97.798	-12.1400
42.984565	97.779	-12.3339
43.296048	97.760	-12.5273
43.609789	97.740	-12.7202
43.925804	97.721	-12.9126
44.244108	97.701	-13.1046
44.564719	97.681	-13.2963
44.887654	97.661	-13.4875
45.212928	97.641	-13.6785
45.540560	97.620	-13.8688
45.870565	97.600	-14.0580
46.202962	97.579	-14.2460
46.537768	97.558	-14.4326
46.875000	97.537	-14.6180
47.214676	97.516	-14.8027
47.556813	97.496	-14.9869
47.901429	97.475	-15.1708
48.248542	97.454	-15.3540
48.598171	97.433	-15.5365
48.950334	97.412	-15.7179
49.305048	97.391	-15.8981
49.662333	97.370	-16.0770
50.022206	97.348	-16.2548
50.384688	97.327	-16.4314
50.749796	97.305	-16.6069
51.117550	97.283	-16.7815
51.487969	97.261	-16.9551
51.861072	97.239	-17.1274
52.236879	97.216	-17.2982
52.615409	97.194	-17.4671
52.996681	97.172	-17.6342
53.380717	97.150	-17.7998
53.767536	97.128	-17.9646
54.157158	97.106	-18.1292
54.549603	97.085	-18.2936
54.944892	97.063	-18.4580
55.343045	97.042	-18.6219
55.744084	97.020	-18.7855
56.148028	96.999	-18.9489
56.554900	96.977	-19.1126
56.964720	96.956	-19.2775
57.377510	96.934	-19.4436
57.793291	96.912	-19.6111
58.212085	96.890	-19.7800
58.633914	96.867	-19.9499
59.058799	96.843	-20.1205
59.486764	96.819	-20.2911
59.917829	96.793	-20.4606
60.352019	96.767	-20.6277
60.789354	96.740	-20.7915
61.229859	96.713	-20.9514
61.673556	96.686	-21.1076
62.120468	96.658	-21.2607
62.570618	96.631	-21.4117
63.024031	96.603	-21.5616
63.480729	96.576	-21.7109
63.940736	96.549	-21.8597
64.404077	96.522	-22.0078
64.870776	96.495	-22.1552
65.340856	96.468	-22.3019
65.814343	96.441	-22.4480
66.291261	96.413	-22.5935
66.771635	96.386	-22.7382
67.255489	96.358	-22.8820
67.742850	96.330	-23.0248
68.233743	96.302	-23.1664
68.728193	96.273	-23.3066
69.226226	96.243	-23.4451
69.727867	96.213	-23.5813
70.233144	96.183	-23.7150
70.742083	96.153	-23.8465
71.254709	96.122	-23.9763
71.771050	96.091	-24.1044
72.291132	96.060	-24.2306
72.814984	96.029	-24.3546
73.342631	95.998	-24.4775
73.874102	95.968	-24.6014
74.409424	95.939	-24.7286
74.948626	95.909	-24.8593
75.491734	95.879	-24.9915
76.038779	95.848	-25.1226
76.589787	95.817	-25.2510
77.144788	95.786	-25.3771
77.703811	95.755	-25.5024
78.266885	95.724	-25.6285
78.834039	95.693	-25.7557
79.405303	95.660	-25.8818
79.980706	95.627	-26.0030
80.560280	95.593	-26.1183
81.144053	95.561	-26.2320
81.732056	95.529	-26.3524
82.324320	95.497	-26.4855
82.920876	95.463	-26.6311
83.521755	95.428	-26.7836
84.126988	95.390	-26.9364
84.736607	95.351	-27.0842
85.350643	95.310	-27.2234
85.969129	95.268	-27.3514
86.592097	95.225	-27.4670
87.219579	95.181	-27.5698
87.851608	95.138	-27.6612
88.488217	95.095	-27.7428
89.129439	95.052	-27.8163
89.775308	95.009	-27.8821
90.425856	94.965	-27.9401
91.081119	94.922	-27.9893
91.741131	94.879	-28.0286
92.405925	94.836	-28.0571
93.075536	94.793	-28.0757
93.750000	94.752	-28.0875
94.429351	94.712	-28.0959
95.113625	94.672	-28.1030
95.802858	94.632	-28.1086
96.497085	94.592	-28.1125
97.196342	94.551	-28.1147
97.900667	94.509	-28.1138
98.610096	94.466	-28.1067
99.324665	94.423	-28.0896
100.044413	94.380	-28.0604
100.769376	94.338	-28.0193
101.499592	94.297	-27.9680
102.235100	94.258	-27.9084
102.975938	94.221	-27.8419
103.722144	94.185	-27.7693
104.473757	94.152	-27.6912
105.230817	94.119	-27.6091
105.993363	94.089	-27.5259
106.761435	94.061	-27.4449
107.535072	94.035	-27.3705
108.314315	94.010	-27.3075
109.099206	93.987	-27.2607
109.889783	93.964	-27.2339
110.686090	93.942	-27.2291
111.488167	93.920	-27.2465
112.296056	93.895	-27.2835
113.109800	93.868	-27.3352
113.929440	93.838	-27.3946
114.755020	93.804	-27.4533
115.586582	93.766	-27.5026
116.424170	93.725	-27.5343
117.267827	93.681	-27.5435
118.117598	93.637	-27.5297
118.973527	93.593	-27.4975
119.835658	93.550	-27.4553
120.704037	93.508	-27.4111
121.578708	93.468	-27.3693
122.459718	93.429	-27.3299
123.347111	93.390	-27.2908
124.240935	93.351	-27.2497
125.141236	93.313	-27.2051
126.048061	93.275	-27.1558
126.961458	93.236	-27.1016
127.881473	93.198	-27.0421
128.808154	93.159	-26.9776
129.741551	93.120	-26.9087
130.681712	93.081	-26.8361
131.628686	93.042	-26.7609
132.582521	93.003	-26.6838
133.543269	92.964	-26.6053
134.510979	92.925	-26.5248
135.485701	92.886	-26.4409
136.467486	92.847	-26.3521
137.456386	92.807	-26.2569
138.452451	92.767	-26.1545
139.455735	92.727	-26.0450
140.466288	92.687	-25.9285
141.484165	92.647	-25.8059
142.509418	92.607	-25.6782
143.542100	92.568	-25.5466
144.582265	92.528	-25.4120
145.629968	92.489	-25.2748
146.685262	92.450	-25.1348
147.748204	92.410	-24.9911
148.818849	92.369	-24.8423
149.897251	92.328	-24.6865
150.983469	92.287	-24.5209
152.077557	92.244	-24.3426
153.179574	92.202	-24.1495
154.289576	92.161	-23.9415
155.407622	92.121	-23.7210
156.533770	92.082	-23.4929
157.668078	92.047	-23.2631
158.810606	92.012	-23.0358
159.961413	91.979	-22.8132
161.120559	91.947	-22.5947
162.288105	91.914	-22.3785
163.464112	91.882	-22.1620
164.648640	91.849	-21.9425
165.841752	91.815	-21.7173
167.043510	91.782	-21.4841
168.253976	91.748	-21.2404
169.473213	91.715	-20.9836
170.701286	91.684	-20.7131
171.938258	91.654	-20.4316
173.184194	91.628	-20.1450
174.439158	91.604	-19.8605
175.703216	91.583	-19.5833
176.976434	91.563	-19.3151
178.258878	91.546	-19.0551
179.550615	91.529	-18.8010
180.851713	91.514	-18.5500
182.162239	91.499	-18.3000
183.482262	91.485	-18.0499
184.811850	91.472	-17.7998
186.151073	91.457	-17.5500
187.500000	91.443	-17.3012
188.858702	91.428	-17.0542
190.227250	91.414	-16.8094
191.605715	91.400	-16.5663
192.994169	91.387	-16.3245
194.392685	91.376	-16.0839
195.801334	91.366	-15.8452
197.220191	91.358	-15.6091
198.649330	91.352	-15.3755
200.088825	91.347	-15.1436
201.538751	91.344	-14.9120
202.999184	91.342	-14.6805
204.470200	91.340	-14.4519
205.951875	91.339	-14.2318
207.444287	91.336	-14.0278
208.947514	91.331	-13.8456
210.461634	91.324	-13.6838
211.986726	91.313	-13.5336
213.522869	91.301	-13.3849
215.070144	91.288	-13.2310
216.628631	91.274	-13.0658
218.198411	91.261	-12.8848
219.779567	91.248	-12.6878
221.372180	91.236	-12.4794
222.976334	91.226	-12.2656
224.592112	91.215	-12.0511
226.219600	91.206	-11.8385
227.858880	91.196	-11.6284
229.510039	91.187	-11.4205
231.173164	91.179	-11.2144
232.848340	91.171	-11.0099
234.535655	91.163	-10.8073
236.235197	91.156	-10.6075
237.947054	91.148	-10.4116
239.671317	91.141	-10.2197
241.408074	91.134	-10.0304
243.157416	91.125	-9.8408
244.919435	91.117	-9.6475
246.694223	91.107	-9.4471
248.481871	91.097	-9.2366
250.282473	91.087	-9.0131
252.096123	91.078	-8.7750
253.922915	91.072	-8.5243
255.762945	91.068	-8.2678
257.616309	91.067	-8.0159
259.483103	91.068	-7.7794
261.363424	91.071	-7.5634
263.257372	91.073	-7.3662
265.165043	91.074	-7.1809
267.086538	91.073	-6.9987
269.021957	91.072	-6.8120
270.971401	91.071	-6.6164
272.934972	91.070	-6.4111
274.912771	91.070	-6.1980
276.904902	91.071	-5.9800
278.911469	91.074	-5.7598
280.932577	91.080	-5.5400
282.968330	91.087	-5.3245
285.018835	91.096	-5.1188
287.084199	91.107	-4.9300
289.164530	91.118	-4.7643
291.259935	91.129	-4.6230
293.370525	91.138	-4.5010
295.496408	91.143	-4.3884
297.637697	91.146	-4.2750
299.794503	91.146	-4.1542
301.966937	91.146	-4.0233
304.155114	91.144	-3.8834
306.359147	91.143	-3.7373
308.579152	91.142	-3.5884
310.815244	91.141	-3.4398
313.067539	91.140	-3.2935
315.336156	91.138	-3.1487
317.621211	91.135	-3.0019
319.922826	91.131	-2.8491
322.241118	91.127	-2.6882
324.576210	91.124	-2.5199
326.928223	91.122	-2.3470
329.297280	91.120	-2.1730
331.683504	91.120	-2.0012
334.087019	91.121	-1.8341
336.507952	91.122	-1.6733
338.946427	91.123	-1.5195
341.402572	91.123	-1.3716
343.876516	91.122	-1.2268
346.368387	91.121	-1.0824
348.878315	91.119	-0.9365
351.406431	91.117	-0.7886
353.952867	91.114	-0.6389
356.517756	91.112	-0.4882
359.101230	91.109	-0.3367
361.703426	91.107	-0.1849
364.324478	91.105	-0.0332
366.964523	91.102	0.1182
369.623699	91.099	0.2695
372.302145	91.097	0.4209
375.000000	91.094	0.5730
377.717405	91.091	0.7258
380.454501	91.088	0.8794
383.211431	91.086	1.0334
385.988339	91.083	1.1881
388.785369	91.081	1.3434
391.602668	91.079	1.4995
394.440383	91.076	1.6561
397.298660	91.074	1.8126
400.177650	91.072	1.9679
403.077502	91.071	2.1202
405.998368	91.070	2.2687
408.940400	91.068	2.4131
411.903750	91.066	2.5558
414.888575	91.062	2.6998
417.895028	91.058	2.8493
420.923268	91.053	3.0071
423.973452	91.049	3.1744
427.045738	91.045	3.3497
430.140287	91.043	3.5291
433.257261	91.042	3.7075
436.396822	91.042	3.8815
439.559133	91.043	4.0505
442.744360	91.046	4.2148
445.952668	91.049	4.3724
449.184225	91.052	4.5182
452.439199	91.056	4.6464
455.717760	91.059	4.7540
459.020079	91.060	4.8453
462.346327	91.057	4.9309
465.696680	91.050	5.0228
469.071310	91.042	5.1284
472.470394	91.032	5.2490
475.894109	91.022	5.3815
479.342634	91.012	5.5206
482.816148	91.002	5.6606
486.314833	90.991	5.7997
489.838871	90.979	5.9421
493.388445	90.966	6.0958
496.963741	90.954	6.2656
500.564945	90.942	6.4481
504.192245	90.932	6.6359
507.845830	90.923	6.8217
511.525890	90.914	7.0018
515.232618	90.905	7.1773
518.966206	90.896	7.3516
522.726849	90.885	7.5295
526.514743	90.873	7.7161
530.330086	90.862	7.9132
534.173076	90.851	8.1187
538.043915	90.841	8.3276
541.942803	90.831	8.5371
545.869944	90.823	8.7482
549.825542	90.814	8.9619
553.809805	90.807	9.1766
557.822939	90.800	9.3893
561.865154	90.794	9.5974
565.936660	90.787	9.8013
570.037671	90.779	10.0038
574.168399	90.770	10.2084
578.329060	90.761	10.4175
582.519870	90.752	10.6310
586.741049	90.742	10.8489
590.992817	90.731	11.0733
595.275394	90.721	11.3068
599.589005	90.711	11.5483
603.933874	90.702	11.7938
608.310228	90.693	12.0389
612.718295	90.684	12.2825
617.158304	90.675	12.5271
621.630488	90.664	12.7790
626.135079	90.653	13.0449
630.672311	90.642	13.3275
635.242423	90.633	13.6227
639.845651	90.626	13.9247
644.482237	90.620	14.2311
649.152421	90.616	14.5430
653.856447	90.615	14.8590
658.594560	90.616	15.1722
663.367008	90.619	15.4720
668.174039	90.623	15.7499
673.015903	90.626	16.0063
677.892854	90.628	16.2492
682.805145	90.626	16.4883
687.753032	90.622	16.7311
692.736774	90.616	16.9831
697.756631	90.609	17.2490
702.812863	90.602	17.5304
707.905735	90.594	17.8248
713.035511	90.588	18.1279
718.202461	90.582	18.4362
723.406852	90.576	18.7491
728.648956	90.570	19.0675
733.929047	90.565	19.3925
739.247399	90.559	19.7245
744.604290	90.554	20.0638
750.000000	90.549	20.4111
755.434809	90.545	20.7667
760.909001	90.541	21.1311
766.422861	90.538	21.5037
771.976677	90.535	21.8839
777.570739	90.534	22.2708
783.205337	90.534	22.6638
788.880766	90.535	23.0643
794.597321	90.537	23.4750
800.355301	90.542	23.8982
806.155005	90.549	24.3325
811.996736	90.560	24.7714
817.880799	90.575	25.2049
823.807501	90.593	25.6223
829.777150	90.614	26.0144
835.790057	90.635	26.3792
841.846536	90.654	26.7236
847.946903	90.671	27.0594
854.091476	90.686	27.3953
860.280575	90.699	27.7357
866.514523	90.711	28.0838
872.793644	90.723	28.4432
879.118267	90.735	28.8136
885.488720	90.747	29.1908
891.905336	90.761	29.5708
898.368450	90.775	29.9533
904.878398	90.791	30.3407
911.435520	90.807	30.7342
918.040157	90.824	31.1324
924.692655	90.844	31.5324
931.393359	90.865	31.9309
938.142619	90.889	32.3244
944.940787	90.913	32.7110
951.788218	90.938	33.0915
958.685268	90.963	33.4685
965.632296	90.988	33.8448
972.629666	91.015	34.2232
979.677741	91.042	34.6047
986.776890	91.069	34.9888
993.927482	91.098	35.3764
1001.129891	91.127	35.7710
1008.384491	91.158	36.1762
1015.691660	91.191	36.5906
1023.051781	91.228	37.0091
1030.465236	91.270	37.4236
1037.932411	91.315	37.8222
1045.453698	91.364	38.1924
1053.029486	91.414	38.5287
1060.660172	91.464	38.8351
1068.346153	91.511	39.1202
1076.087829	91.557	39.3936
1083.885605	91.602	39.6617
1091.739887	91.646	39.9269
1099.651084	91.688	40.1895
1107.619609	91.730	40.4502
1115.645878	91.772	40.7101
1123.730308	91.812	40.9704
1131.873321	91.852	41.2326
1140.075341	91.892	41.4974
1148.336797	91.931	41.7656
1156.658119	91.971	42.0378
1165.039741	92.012	42.3152
1173.482099	92.053	42.5994
1181.985634	92.097	42.8900
1190.550789	92.144	43.1812
1199.178011	92.194	43.4619
1207.867749	92.247	43.7199
1216.620457	92.301	43.9494
1225.436590	92.354	44.1535
1234.316609	92.404	44.3408
1243.260976	92.452	44.5205
1252.270157	92.498	44.7009
1261.344623	92.541	44.8866
1270.484846	92.584	45.0791
1279.691303	92.625	45.2795
1288.964474	92.666	45.4890
1298.304842	92.707	45.7068
1307.712894	92.748	45.9301
1317.189120	92.790	46.1554
1326.734016	92.833	46.3805
1336.348077	92.877	46.6059
1346.031806	92.921	46.8344
1355.785708	92.966	47.0698
1365.610290	93.013	47.3157
1375.506065	93.061	47.5766
1385.473549	93.112	47.8574
1395.513261	93.167	48.1588
1405.625726	93.226	48.4751
1415.811469	93.291	48.7938
1426.071023	93.360	49.0999
1436.404921	93.432	49.3838
1446.813703	93.504	49.6448
1457.297912	93.577	49.8885
1467.858093	93.648	50.1213
1478.494798	93.718	50.3477
1489.208581	93.786	50.5708
1500.000000	93.852	50.7936
1510.869618	93.915	51.0186
1521.818002	93.975	51.2486
1532.845723	94.032	51.4854
1543.953355	94.086	51.7305
1555.141477	94.139	51.9837
1566.410674	94.194	52.2403
1577.761531	94.251	52.4891
1589.194642	94.311	52.7157
1600.710601	94.373	52.9108
1612.310010	94.435	53.0734
1623.993473	94.497	53.2085
1635.761599	94.557	53.3235
1647.615002	94.615	53.4241
1659.554299	94.673	53.5151
1671.580114	94.729	53.5998
1683.693072	94.786	53.6785
1695.893807	94.842	53.7492
1708.182952	94.898	53.8094
1720.561150	94.953	53.8593
1733.029045	95.005	53.9017
1745.587288	95.054	53.9420
1758.236533	95.102	53.9868
1770.977440	95.149	54.0416
1783.810673	95.197	54.1055
1796.736900	95.248	54.1691
1809.756796	95.301	54.2183
1822.871040	95.357	54.2419
1836.080315	95.413	54.2365
1849.385310	95.468	54.2039
1862.786718	95.523	54.1486
1876.285239	95.576	54.0760
1889.881575	95.629	53.9932
1903.576436	95.681	53.9072
1917.370535	95.735	53.8248
1931.264593	95.792	53.7508
1945.259332	95.853	53.6850
1959.355483	95.918	53.6201
1973.553781	95.988	53.5438
1987.854965	96.059	53.4467
2002.259781	96.131	53.3266
2016.768981	96.200	53.1870
2031.383320	96.267	53.0341
2046.103561	96.332	52.8756
2060.930471	96.393	52.7186
2075.864823	96.452	52.5677
2090.907395	96.508	52.4263
2106.058972	96.562	52.2982
2121.320344	96.615	52.1892
2136.692305	96.666	52.1054
2152.175658	96.718	52.0509
2167.771210	96.773	52.0218
2183.479774	96.832	52.0042
2199.302169	96.896	51.9791
2215.239219	96.963	51.9314
2231.291755	97.031	51.8542
2247.460615	97.100	51.7495
2263.746641	97.167	51.6265
2280.150683	97.233	51.4995
2296.673595	97.299	51.3837
2313.316238	97.368	51.2898
2330.079481	97.443	51.2170
2346.964198	97.527	51.1486
2363.971268	97.623	51.0549
2381.101578	97.729	50.9022
2398.356022	97.844	50.6593
2415.735498	97.964	50.3012
2433.240913	98.085	49.8122
2450.873180	98.201	49.1866
2468.633217	98.309	48.4294
2486.521951	98.403	47.5562
2504.540314	98.480	46.5936
2522.689246	98.539	45.5754
2540.969692	98.580	44.5363
2559.382606	98.605	43.5035
2577.928947	98.617	42.4926
2596.609683	98.618	41.5113
2615.425787	98.608	40.5633
2634.378241	98.589	39.6517
2653.468031	98.561	38.7808
2672.696154	98.526	37.9570
2692.063613	98.484	37.1880
2711.571415	98.437	36.4787
2731.220579	98.389	35.8264
2751.012130	98.339	35.2224
2770.947098	98.288	34.6568
2791.026522	98.237	34.1226
2811.251451	98.185	33.6164
2831.622938	98.131	33.1372
2852.142045	98.076	32.6849
2872.809842	98.019	32.2605
2893.627406	97.960	31.8678
2914.595823	97.899	31.5143
2935.716186	97.838	31.2056
2956.989596	97.779	30.9395
2978.417161	97.723	30.7061
3000.000000	97.669	30.4926
3021.739237	97.618	30.2878
3043.636005	97.568	30.0860
3065.691446	97.517	29.8892
3087.906710	97.466	29.7046
3110.282955	97.412	29.5392
3132.821347	97.359	29.3961
3155.523062	97.304	29.2769
3178.389283	97.248	29.1841
3201.421202	97.192	29.1228
3224.620020	97.135	29.0988
3247.986946	97.078	29.1167
3271.523198	97.023	29.1803
3295.230004	96.971	29.2942
3319.108599	96.924	29.4608
3343.160228	96.884	29.6742
3367.386145	96.853	29.9191
3391.787613	96.832	30.1754
3416.365904	96.822	30.4245
3441.122300	96.819	30.6551
3466.058091	96.823	30.8645
3491.174576	96.834	31.0538
3516.473066	96.850	31.2209
3541.954880	96.872	31.3589
3567.621345	96.900	31.4592
3593.473800	96.931	31.5135
3619.513592	96.964	31.5158
3645.742080	96.998	31.4632
3672.160630	97.029	31.3597
3698.770620	97.058	31.2160
3725.573436	97.083	31.0433
3752.570477	97.104	30.8476
3779.763150	97.122	30.6305
3807.152872	97.135	30.3930
3834.741071	97.142	30.1404
3862.529185	97.144	29.8832
3890.518664	97.140	29.6318
3918.710966	97.132	29.3907
3947.107561	97.121	29.1584
3975.709929	97.109	28.9298
4004.519563	97.094	28.6994
4033.537962	97.076	28.4640
4062.766641	97.055	28.2277
4092.207123	97.028	28.0022
4121.860942	96.997	27.8007
4151.729646	96.964	27.6318
4181.814790	96.928	27.4988
4212.117944	96.891	27.4036
4242.640687	96.854	27.3510
4273.384610	96.817	27.3461
4304.351317	96.784	27.3878
4335.542421	96.757	27.4667
4366.959549	96.736	27.5660
4398.604338	96.723	27.6647
4430.478438	96.718	27.7423
4462.583511	96.718	27.7859
4494.921231	96.722	27.7898
4527.493283	96.729	27.7507
4560.301365	96.738	27.6646
4593.347189	96.748	27.5283
4626.632476	96.756	27.3451
4660.158962	96.761	27.1239
4693.928395	96.763	26.8736
4727.942535	96.764	26.5980
4762.203156	96.762	26.2948
4796.712043	96.760	25.9568
4831.470996	96.754	25.5769
4866.481826	96.743	25.1542
4901.746360	96.726	24.6935
4937.266434	96.700	24.2012
4973.043902	96.665	23.6847
5009.080628	96.619	23.1567
5045.378492	96.559	22.6370
5081.939384	96.487	22.1492
5118.765212	96.403	21.7147
5155.857894	96.309	21.3488
5193.219366	96.208	21.0582
5230.851574	96.101	20.8455
5268.756481	95.989	20.7134
5306.936062	95.874	20.6648
5345.392309	95.757	20.7001
5384.127225	95.638	20.8191
5423.142830	95.518	21.0257
5462.441159	95.397	21.3290
5502.024259	95.277	21.7383
5541.894195	95.162	22.2583
5582.053045	95.056	22.8844
5622.502902	94.961	23.6046
5663.245876	94.879	24.4049
5704.284090	94.814	25.2697
5745.619684	94.765	26.1806
5787.254813	94.735	27.1188
5829.191647	94.722	28.0701
5871.432373	94.727	29.0258
5913.979192	94.751	29.9778
5956.834323	94.795	30.9131
6000.000000	94.861	31.8110
6043.478473	94.948	32.6459
6087.272010	95.056	33.3893
6131.382892	95.185	34.0097
6175.813420	95.330	34.4761
6220.565910	95.489	34.7635
6265.642695	95.655	34.8564
6311.046124	95.823	34.7481
6356.778566	95.990	34.4366
6402.842404	96.150	33.9240
6449.240040	96.298	33.2177
6495.973891	96.429	32.3324
6543.046396	96.539	31.2893
6590.460007	96.624	30.1179
6638.217197	96.679	28.8586
6686.320456	96.702	27.5609
6734.772290	96.696	26.2783
6783.575226	96.661	25.0618
6832.731809	96.601	23.9537
6882.244600	96.524	22.9839
6932.116181	96.433	22.1655
6982.349153	96.335	21.4983
7032.946133	96.235	20.9761
7083.909760	96.137	20.5923
7135.242690	96.047	20.3384
7186.947600	95.969	20.1985
7239.027185	95.909	20.1474
7291.484160	95.871	20.1489
7344.321260	95.857	20.1571
7397.541239	95.869	20.1229
7451.146872	95.905	20.0011
7505.140954	95.963	19.7535
7559.526299	96.039	19.3469
7614.305743	96.129	18.7527
7669.482141	96.229	17.9449
7725.058371	96.333	16.9001
7781.037328	96.435	15.6005
7837.421932	96.527	14.0413
7894.215122	96.601	12.2339
7951.419859	96.649	10.2037
8009.039125	96.667	7.9858
8067.075924	96.650	5.6195
8125.533282	96.597	3.1411
8184.414245	96.505	0.5820
8243.721885	96.375	-2.0276
8303.459292	96.202	-4.6553
8363.629581	95.986	-7.2642
8424.235888	95.726	-9.8123
8485.281374	95.420	-12.2538
8546.769221	95.070	-14.5425
8608.702634	94.676	-16.6305
8671.084842	94.242	-18.4663
8733.919097	93.772	-19.9967
8797.208675	93.271	-21.1713
8860.956876	92.748	-21.9500
8925.167022	92.216	-22.3136
8989.842461	91.685	-22.2689
9054.986566	91.167	-21.8457
9120.602731	90.673	-21.0881
9186.694378	90.208	-20.0464
9253.264952	89.779	-18.7689
9320.317925	89.389	-17.3036
9387.856790	89.040	-15.7014
9455.885071	88.735	-14.0142
9524.406312	88.471	-12.2900
9593.424086	88.248	-10.5674
9662.941992	88.063	-8.8718
9732.963653	87.914	-7.2228
9803.492719	87.798	-5.6416
9874.532869	87.714	-4.1525
9946.087805	87.658	-2.7787
10018.161257	87.625	-1.5354
10090.756983	87.612	-0.4283
10163.878768	87.616	0.5394
10237.530423	87.633	1.3617
10311.715789	87.662	2.0289
10386.438732	87.699	2.5328
10461.703149	87.739	2.8723
10537.512962	87.780	3.0512
10613.872125	87.818	3.0719
10690.784618	87.849	2.9338
10768.254450	87.870	2.6392
10846.285661	87.874	2.2019
10924.882318	87.856	1.6509
11004.048518	87.814	1.0245
11083.788390	87.745	0.3636
11164.106090	87.650	-0.2911
11245.005805	87.528	-0.8975
11326.491752	87.383	-1.4106
11408.568180	87.218	-1.7907
11491.239368	87.040	-2.0107
11574.509626	86.855	-2.0596
11658.383294	86.671	-1.9376
11742.864745	86.493	-1.6528
11827.958384	86.328	-1.2231
11913.668646	86.181	-0.6796
12000.000000	86.055	-0.0639
12086.956947	85.951	0.5818
12174.544019	85.868	1.2224
12262.765784	85.803	1.8308
12351.626840	85.754	2.3864
12441.131819	85.716	2.8772
12531.285389	85.687	3.3057
12622.092249	85.663	3.6877
12713.557132	85.643	4.0442
12805.684808	85.629	4.3938
12898.480079	85.623	4.7526
12991.947783	85.627	5.1344
13086.092792	85.647	5.5470
13180.920015	85.688	5.9849
13276.434395	85.756	6.4292
13372.640911	85.856	6.8521
13469.544580	85.992	7.2178
13567.150452	86.169	7.4789
13665.463617	86.390	7.5750
13764.489200	86.654	7.4380
13864.232362	86.961	6.9989
13964.698305	87.307	6.1864
14065.892266	87.686	4.9290
14167.819519	88.086	3.1627
14270.485380	88.495	0.8405
14373.895200	88.899	-2.0656
14478.054370	89.280	-5.5618
14582.968320	89.622	-9.6290
14688.642520	89.911	-14.2197
14795.082478	90.136	-19.2651
14902.293745	90.289	-24.6832
15010.281908	90.368	-30.3850
15119.052599	90.376	-36.2832
15228.611486	90.322	-42.3086
15338.964283	90.221	-48.4258
15450.116741	90.087	-54.6417
15562.074656	89.932	-61.0045
15674.843864	89.758	-67.5918
15788.430244	89.557	-74.4854
15902.839718	89.308	-81.7374
16018.078250	88.982	-89.3400
16134.151848	88.545	-97.2073
16251.066563	87.968	-105.1744
16368.828491	87.231	-113.0139
16487.443769	86.325	-120.4686
16606.918584	85.253	-127.2902
16727.259161	84.030	-133.2667
16848.471777	82.680	-138.2395
16970.562748	81.231	-142.1173
17093.538442	79.717	-144.8858
17217.405268	78.175	-146.6061
17342.169684	76.638	-147.4033
17467.838194	75.140	-147.4455
17594.417350	73.707	-146.9127
17721.913751	72.353	-145.9661
17850.334044	71.084	-144.7293
17979.684923	69.899	-143.2808
18109.973131	68.790	-141.6582
18241.205462	67.747	-139.8723
18373.388756	66.763	-137.9209
18506.529905	65.834	-135.7977
18640.635849	64.957	-133.5037
18775.713581	64.134	-131.0580
18911.770141	63.368	-128.5015
19048.812624	62.668	-125.9013
19186.848172	62.041	-123.3592
19325.883983	61.496	-121.0126
19465.927305	61.042	-119.0125
19606.985439	60.684	-117.4739
19749.065738	60.425	-116.4318
19892.175609	60.261	-115.8342
20036.322514	60.183	-115.5780
