* Measurement data measured by REW V5.31
* Source: EXCL: Microphone (USB Sound Device        ), MICROPHONE (Master Volume), L, volume: 0.390
* Format: 256k Log Swept Sine, 1 sweep at -10.0 dBFS with no timing reference
* Dated: Aug 28, 2024 12:04:40 AM
* REW Settings:
*  C-weighting compensation: Off
*  Target level: 75.0 dB
* Note: Ziigaat x Jay Estrella MP L
* Measurement: Ziigaat x Jay Estrella MT
* Smoothing: 1/12 octave
* Frequency Step: 96 ppo
* Start Frequency: 0.36621094 Hz
*
* Freq(Hz) SPL(dB) Phase(degrees)
0.366211 97.222 -50.9573
0.368865 97.222 -51.0194
0.371538 97.222 -51.1123
0.374230 97.222 -51.2290
0.376942 97.223 -51.3633
0.379673 97.223 -51.5107
0.382424 97.224 -51.6683
0.385196 97.224 -51.8343
0.387987 97.225 -52.0077
0.390798 97.225 -52.1878
0.393630 97.226 -52.3745
0.396483 97.226 -52.5676
0.399356 97.226 -52.7671
0.402250 97.227 -52.9731
0.405165 97.227 -53.1854
0.408101 97.228 -53.4043
0.411058 97.228 -53.6297
0.414037 97.229 -53.8617
0.417037 97.229 -54.1004
0.420059 97.230 -54.3458
0.423103 97.230 -54.5979
0.426169 97.231 -54.8569
0.429257 97.231 -55.1227
0.432368 97.232 -55.3955
0.435501 97.232 -55.6752
0.438656 97.233 -55.9619
0.441835 97.233 -56.2556
0.445037 97.234 -56.5564
0.448262 97.234 -56.8643
0.451510 97.235 -57.1794
0.454782 97.235 -57.5016
0.458077 97.236 -57.8310
0.461397 97.236 -58.1676
0.464740 97.237 -58.5115
0.468108 97.238 -58.8625
0.471500 97.238 -59.2209
0.474917 97.239 -59.5864
0.478358 97.239 -59.9592
0.481825 97.240 -60.3393
0.485316 97.240 -60.7266
0.488833 97.241 -61.1211
0.492375 97.241 -61.5229
0.495943 97.242 -61.9318
0.499537 97.243 -62.3478
0.503157 97.243 -62.7710
0.506803 97.244 -63.2012
0.510475 97.244 -63.6384
0.514175 97.245 -64.0826
0.517900 97.246 -64.5337
0.521653 97.246 -64.9916
0.525434 97.247 -65.4563
0.529241 97.247 -65.9277
0.533076 97.248 -66.4057
0.536939 97.249 -66.8902
0.540830 97.249 -67.3811
0.544749 97.250 -67.8782
0.548696 97.251 -68.3816
0.552673 97.251 -68.8911
0.556677 97.252 -69.4064
0.560711 97.253 -69.9277
0.564774 97.253 -70.4545
0.568867 97.254 -70.9869
0.572989 97.254 -71.5248
0.577141 97.255 -72.0678
0.581324 97.256 -72.6159
0.585536 97.257 -73.1689
0.589779 97.257 -73.7267
0.594053 97.258 -74.2890
0.598358 97.259 -74.8557
0.602694 97.259 -75.4267
0.607061 97.260 -76.0016
0.611460 97.261 -76.5804
0.615891 97.261 -77.1628
0.620354 97.262 -77.7486
0.624849 97.263 -78.3377
0.629377 97.264 -78.9299
0.633938 97.264 -79.5249
0.638532 97.265 -80.1226
0.643159 97.266 -80.7227
0.647819 97.267 -81.3251
0.652514 97.267 -81.9296
0.657242 97.268 -82.5359
0.662005 97.269 -83.1440
0.666802 97.270 -83.7535
0.671634 97.270 -84.3644
0.676501 97.271 -84.9764
0.681403 97.272 -85.5894
0.686341 97.273 -86.2032
0.691314 97.274 -86.8177
0.696324 97.274 -87.4328
0.701370 97.275 -88.0485
0.706452 97.276 -88.6648
0.711571 97.277 -89.2818
0.716728 97.278 -89.9000
0.721921 97.280 -90.5201
0.727153 97.281 -91.1433
0.732422 97.283 -91.7710
0.737729 97.286 -92.4053
0.743075 97.289 -93.0478
0.748460 97.292 -93.7003
0.753883 97.295 -94.3637
0.759346 97.299 -95.0388
0.764849 97.303 -95.7259
0.770391 97.307 -96.4252
0.775974 97.311 -97.1367
0.781597 97.316 -97.8603
0.787261 97.320 -98.5957
0.792966 97.325 -99.3429
0.798712 97.330 -100.1016
0.804500 97.335 -100.8715
0.810329 97.340 -101.6524
0.816201 97.345 -102.4439
0.822116 97.350 -103.2457
0.828073 97.356 -104.0575
0.834074 97.361 -104.8788
0.840118 97.367 -105.7093
0.846206 97.373 -106.5486
0.852338 97.379 -107.3963
0.858514 97.385 -108.2518
0.864735 97.391 -109.1148
0.871001 97.398 -109.9848
0.877313 97.404 -110.8612
0.883670 97.411 -111.7436
0.890074 97.418 -112.6314
0.896524 97.425 -113.5242
0.903020 97.432 -114.4213
0.909564 97.439 -115.3224
0.916155 97.447 -116.2267
0.922794 97.454 -117.1339
0.929481 97.462 -118.0433
0.936216 97.470 -118.9545
0.943000 97.478 -119.8669
0.949834 97.486 -120.7799
0.956717 97.494 -121.6932
0.963649 97.503 -122.6061
0.970632 97.512 -123.5183
0.977666 97.520 -124.4292
0.984750 97.529 -125.3385
0.991886 97.538 -126.2456
0.999074 97.548 -127.1502
1.006314 97.557 -128.0520
1.013606 97.567 -128.9506
1.020951 97.576 -129.8456
1.028349 97.586 -130.7368
1.035801 97.596 -131.6239
1.043307 97.606 -132.5069
1.050867 97.616 -133.3856
1.058482 97.627 -134.2601
1.066152 97.637 -135.1306
1.073878 97.648 -135.9978
1.081660 97.659 -136.8626
1.089498 97.670 -137.7268
1.097393 97.681 -138.5926
1.105345 97.693 -139.4627
1.113355 97.705 -140.3401
1.121423 97.717 -141.2274
1.129549 97.729 -142.1263
1.137734 97.742 -143.0383
1.145979 97.755 -143.9641
1.154283 97.769 -144.9042
1.162647 97.783 -145.8590
1.171072 97.797 -146.8283
1.179558 97.811 -147.8123
1.188106 97.826 -148.8107
1.196715 97.841 -149.8233
1.205387 97.856 -150.8498
1.214122 97.872 -151.8899
1.222920 97.888 -152.9430
1.231782 97.904 -154.0087
1.240708 97.920 -155.0863
1.249699 97.937 -156.1751
1.258754 97.954 -157.2744
1.267876 97.971 -158.3833
1.277063 97.988 -159.5009
1.286318 98.005 -160.6261
1.295639 98.022 -161.7578
1.305027 98.040 -162.8950
1.314484 98.057 -164.0362
1.324009 98.075 -165.1802
1.333604 98.092 -166.3257
1.343268 98.110 -167.4710
1.353002 98.128 -168.6148
1.362806 98.145 -169.7555
1.372681 98.163 -170.8914
1.382628 98.180 -172.0211
1.392647 98.197 -173.1428
1.402739 98.214 -174.2552
1.412904 98.231 -175.3568
1.423142 98.248 -176.4467
1.433455 98.264 -177.5244
1.443843 98.281 -178.5902
1.454305 98.297 -179.6455
1.464844 98.313 179.3073
1.475459 98.329 178.2643
1.486150 98.345 177.2222
1.496920 98.361 176.1774
1.507767 98.377 175.1277
1.518693 98.393 174.0715
1.529698 98.410 173.0081
1.540783 98.426 171.9371
1.551948 98.442 170.8585
1.563194 98.459 169.7726
1.574521 98.475 168.6797
1.585931 98.492 167.5805
1.597423 98.508 166.4755
1.608999 98.524 165.3653
1.620658 98.540 164.2509
1.632402 98.556 163.1329
1.644232 98.571 162.0123
1.656146 98.587 160.8900
1.668147 98.602 159.7672
1.680235 98.616 158.6447
1.692411 98.630 157.5237
1.704675 98.644 156.4055
1.717028 98.657 155.2911
1.729470 98.670 154.1818
1.742003 98.682 153.0788
1.754626 98.693 151.9832
1.767341 98.703 150.8958
1.780147 98.713 149.8175
1.793047 98.722 148.7481
1.806040 98.730 147.6872
1.819128 98.737 146.6328
1.832310 98.743 145.5822
1.845587 98.749 144.5316
1.858961 98.754 143.4770
1.872432 98.758 142.4152
1.886001 98.761 141.3441
1.899667 98.764 140.2622
1.913433 98.766 139.1691
1.927299 98.767 138.0648
1.941265 98.767 136.9497
1.955332 98.767 135.8248
1.969501 98.766 134.6911
1.983773 98.764 133.5500
1.998148 98.761 132.4032
2.012627 98.757 131.2523
2.027212 98.751 130.0994
2.041902 98.745 128.9466
2.056698 98.738 127.7964
2.071602 98.729 126.6514
2.086614 98.720 125.5141
2.101734 98.709 124.3875
2.116964 98.696 123.2742
2.132304 98.682 122.1769
2.147756 98.667 121.0975
2.163320 98.650 120.0375
2.178996 98.632 118.9967
2.194786 98.611 117.9737
2.210690 98.590 116.9654
2.226710 98.566 115.9679
2.242845 98.540 114.9775
2.259098 98.513 113.9913
2.275468 98.484 113.0073
2.291957 98.453 112.0244
2.308566 98.420 111.0421
2.325295 98.385 110.0607
2.342145 98.349 109.0807
2.359117 98.311 108.1033
2.376212 98.272 107.1297
2.393431 98.231 106.1617
2.410775 98.188 105.2014
2.428244 98.144 104.2512
2.445840 98.099 103.3140
2.463564 98.052 102.3927
2.481416 98.003 101.4905
2.499397 97.954 100.6110
2.517509 97.903 99.7572
2.535752 97.850 98.9318
2.554127 97.795 98.1369
2.572635 97.739 97.3732
2.591277 97.680 96.6404
2.610055 97.618 95.9376
2.628968 97.554 95.2632
2.648019 97.487 94.6159
2.667208 97.417 93.9945
2.686535 97.346 93.3981
2.706003 97.273 92.8258
2.725612 97.199 92.2773
2.745363 97.124 91.7523
2.765257 97.049 91.2508
2.785295 96.974 90.7731
2.805478 96.900 90.3197
2.825808 96.828 89.8915
2.846285 96.757 89.4899
2.866910 96.689 89.1169
2.887685 96.623 88.7752
2.908611 96.561 88.4685
2.929688 96.500 88.2012
2.950917 96.442 87.9778
2.972301 96.385 87.8024
2.993839 96.331 87.6772
3.015534 96.277 87.6024
3.037386 96.226 87.5768
3.059396 96.176 87.5975
3.081565 96.130 87.6608
3.103896 96.087 87.7620
3.126388 96.047 87.8958
3.149043 96.013 88.0565
3.171862 95.985 88.2381
3.194847 95.962 88.4350
3.217998 95.948 88.6421
3.241317 95.941 88.8557
3.264805 95.943 89.0740
3.288463 95.954 89.2981
3.312293 95.976 89.5309
3.336295 96.007 89.7762
3.360471 96.048 90.0361
3.384822 96.099 90.3098
3.409350 96.158 90.5938
3.434056 96.226 90.8823
3.458940 96.301 91.1680
3.484005 96.382 91.4427
3.509252 96.469 91.6979
3.534681 96.561 91.9254
3.560295 96.657 92.1174
3.586094 96.757 92.2675
3.612081 96.859 92.3705
3.638255 96.965 92.4240
3.664620 97.074 92.4277
3.691175 97.187 92.3838
3.717923 97.304 92.2957
3.744864 97.425 92.1670
3.772001 97.550 92.0005
3.799335 97.679 91.7984
3.826866 97.811 91.5622
3.854597 97.944 91.2929
3.882529 98.077 90.9909
3.910664 98.209 90.6562
3.939002 98.340 90.2885
3.967546 98.468 89.8866
3.996296 98.592 89.4493
4.025255 98.713 88.9755
4.054423 98.831 88.4639
4.083804 98.945 87.9150
4.113396 99.057 87.3304
4.143204 99.165 86.7134
4.173227 99.271 86.0684
4.203468 99.373 85.4002
4.233928 99.472 84.7137
4.264609 99.567 84.0132
4.295512 99.658 83.3024
4.326639 99.744 82.5833
4.357992 99.826 81.8564
4.389572 99.902 81.1204
4.421380 99.973 80.3729
4.453419 100.040 79.6116
4.485691 100.101 78.8361
4.518196 100.157 78.0479
4.550936 100.207 77.2508
4.583914 100.254 76.4498
4.617131 100.295 75.6507
4.650589 100.332 74.8591
4.684289 100.364 74.0798
4.718233 100.392 73.3161
4.752424 100.416 72.5692
4.786862 100.434 71.8381
4.821549 100.448 71.1211
4.856488 100.457 70.4168
4.891680 100.462 69.7252
4.927127 100.462 69.0479
4.962831 100.458 68.3879
4.998794 100.452 67.7493
5.035017 100.443 67.1361
5.071503 100.432 66.5526
5.108253 100.419 66.0018
5.145270 100.404 65.4857
5.182555 100.387 65.0048
5.220110 100.368 64.5582
5.257937 100.348 64.1447
5.296038 100.327 63.7627
5.334415 100.306 63.4109
5.373071 100.286 63.0884
5.412006 100.268 62.7950
5.451224 100.252 62.5309
5.490725 100.238 62.2972
5.530514 100.228 62.0947
5.570590 100.222 61.9232
5.610957 100.218 61.7806
5.651616 100.218 61.6629
5.692570 100.222 61.5644
5.733821 100.230 61.4791
5.775370 100.243 61.4011
5.817221 100.260 61.3259
5.859375 100.283 61.2506
5.901834 100.311 61.1737
5.944602 100.344 61.0941
5.987679 100.383 61.0097
6.031068 100.425 60.9168
6.074771 100.472 60.8108
6.118792 100.521 60.6863
6.163131 100.573 60.5387
6.207792 100.628 60.3643
6.252776 100.684 60.1611
6.298086 100.741 59.9289
6.343725 100.800 59.6683
6.389694 100.860 59.3804
6.435996 100.919 59.0661
6.482634 100.977 58.7261
6.529610 101.034 58.3605
6.576926 101.088 57.9692
6.624585 101.139 57.5524
6.672590 101.188 57.1109
6.720942 101.233 56.6469
6.769645 101.274 56.1643
6.818700 101.312 55.6672
6.868111 101.345 55.1600
6.917881 101.374 54.6462
6.968010 101.398 54.1280
7.018504 101.418 53.6068
7.069362 101.432 53.0842
7.120590 101.442 52.5632
7.172189 101.448 52.0474
7.224161 101.450 51.5415
7.276511 101.447 51.0494
7.329239 101.442 50.5745
7.382350 101.433 50.1184
7.435845 101.420 49.6822
7.489729 101.405 49.2667
7.544002 101.389 48.8727
7.598669 101.371 48.5015
7.653732 101.352 48.1545
7.709194 101.333 47.8326
7.765058 101.314 47.5358
7.821327 101.296 47.2629
7.878004 101.279 47.0116
7.935091 101.264 46.7789
7.992592 101.251 46.5619
8.050510 101.241 46.3579
8.108847 101.233 46.1647
8.167607 101.229 45.9799
8.226793 101.227 45.8002
8.286408 101.228 45.6213
8.346454 101.232 45.4391
8.406936 101.239 45.2495
8.467856 101.248 45.0496
8.529218 101.259 44.8377
8.591024 101.272 44.6121
8.653278 101.286 44.3713
8.715983 101.301 44.1138
8.779143 101.316 43.8385
8.842760 101.330 43.5448
8.906839 101.344 43.2333
8.971381 101.357 42.9052
9.036392 101.368 42.5626
9.101873 101.377 42.2073
9.167829 101.384 41.8414
9.234263 101.388 41.4666
9.301178 101.390 41.0851
9.368578 101.390 40.6996
9.436467 101.386 40.3131
9.504847 101.381 39.9286
9.573723 101.373 39.5481
9.643099 101.362 39.1733
9.712976 101.349 38.8058
9.783361 101.334 38.4467
9.854255 101.315 38.0972
9.925663 101.294 37.7580
9.997588 101.271 37.4293
10.070035 101.245 37.1104
10.143007 101.218 36.8002
10.216507 101.191 36.4974
10.290540 101.163 36.2007
10.365109 101.135 35.9084
10.440219 101.107 35.6190
10.515873 101.081 35.3302
10.592076 101.055 35.0401
10.668830 101.031 34.7469
10.746141 101.007 34.4493
10.824012 100.984 34.1463
10.902447 100.963 33.8370
10.981451 100.941 33.5210
11.061027 100.920 33.1979
11.141180 100.899 32.8681
11.221913 100.878 32.5322
11.303232 100.856 32.1912
11.385140 100.835 31.8459
11.467641 100.812 31.4975
11.550741 100.790 31.1469
11.634442 100.767 30.7955
11.718750 100.745 30.4441
11.803669 100.722 30.0938
11.889203 100.700 29.7448
11.975357 100.678 29.3977
12.062136 100.657 29.0525
12.149543 100.636 28.7091
12.237583 100.617 28.3672
12.326262 100.598 28.0264
12.415583 100.579 27.6861
12.505552 100.562 27.3458
12.596172 100.544 27.0052
12.687449 100.527 26.6639
12.779387 100.510 26.3221
12.871992 100.493 25.9796
12.965268 100.476 25.6371
13.059220 100.460 25.2950
13.153852 100.443 24.9545
13.249170 100.426 24.6163
13.345179 100.409 24.2815
13.441884 100.393 23.9509
13.539289 100.376 23.6256
13.637401 100.360 23.3060
13.736223 100.345 22.9926
13.835761 100.330 22.6849
13.936021 100.316 22.3828
14.037007 100.303 22.0853
14.138725 100.290 21.7914
14.241180 100.279 21.4996
14.344377 100.268 21.2084
14.448323 100.259 20.9164
14.553021 100.250 20.6221
14.658478 100.241 20.3246
14.764700 100.233 20.0232
14.871691 100.225 19.7177
14.979457 100.216 19.4084
15.088005 100.207 19.0963
15.197339 100.197 18.7824
15.307465 100.186 18.4684
15.418389 100.174 18.1559
15.530117 100.161 17.8468
15.642655 100.147 17.5425
15.756008 100.133 17.2443
15.870182 100.117 16.9530
15.985184 100.102 16.6688
16.101019 100.086 16.3914
16.217694 100.071 16.1197
16.335214 100.056 15.8524
16.453586 100.042 15.5879
16.572815 100.029 15.3240
16.692909 100.017 15.0592
16.813872 100.005 14.7916
16.935713 99.994 14.5201
17.058436 99.984 14.2439
17.182048 99.973 13.9629
17.306556 99.962 13.6774
17.431967 99.950 13.3881
17.558286 99.938 13.0962
17.685521 99.925 12.8029
17.813677 99.910 12.5095
17.942762 99.896 12.2169
18.072783 99.880 11.9260
18.203746 99.865 11.6370
18.335658 99.849 11.3500
18.468526 99.834 11.0643
18.602356 99.818 10.7794
18.737156 99.804 10.4945
18.872934 99.790 10.2086
19.009695 99.776 9.9213
19.147447 99.763 9.6320
19.286197 99.750 9.3405
19.425953 99.737 9.0471
19.566721 99.724 8.7520
19.708510 99.711 8.4557
19.851326 99.699 8.1588
19.995177 99.686 7.8615
20.140070 99.674 7.5642
20.286013 99.661 7.2668
20.433014 99.649 6.9695
20.581080 99.637 6.6719
20.730219 99.625 6.3739
20.880439 99.614 6.0754
21.031747 99.603 5.7768
21.184152 99.592 5.4781
21.337661 99.582 5.1802
21.492282 99.571 4.8833
21.648024 99.561 4.5884
21.804895 99.551 4.2958
21.962902 99.541 4.0059
22.122054 99.531 3.7188
22.282360 99.521 3.4342
22.443827 99.512 3.1518
22.606464 99.503 2.8712
22.770280 99.493 2.5919
22.935283 99.484 2.3140
23.101481 99.474 2.0375
23.268884 99.464 1.7628
23.437500 99.453 1.4907
23.607338 99.442 1.2218
23.778406 99.430 0.9569
23.950714 99.417 0.6963
24.124271 99.404 0.4399
24.299086 99.391 0.1876
24.475167 99.378 -0.0615
24.652524 99.365 -0.3085
24.831166 99.352 -0.5541
25.011103 99.338 -0.7992
25.192344 99.325 -1.0443
25.374898 99.311 -1.2894
25.558775 99.296 -1.5343
25.743984 99.281 -1.7785
25.930536 99.266 -2.0215
26.118439 99.250 -2.2631
26.307704 99.234 -2.5027
26.498341 99.218 -2.7407
26.690359 99.202 -2.9772
26.883768 99.186 -3.2124
27.078579 99.170 -3.4468
27.274801 99.154 -3.6805
27.472446 99.138 -3.9141
27.671522 99.123 -4.1475
27.872042 99.109 -4.3816
28.074014 99.094 -4.6169
28.277450 99.081 -4.8545
28.482360 99.068 -5.0955
28.688755 99.056 -5.3409
28.896645 99.044 -5.5914
29.106042 99.032 -5.8473
29.316957 99.020 -6.1080
29.529400 99.008 -6.3728
29.743382 98.996 -6.6404
29.958915 98.984 -6.9097
30.176009 98.971 -7.1797
30.394677 98.958 -7.4501
30.614929 98.946 -7.7206
30.836778 98.933 -7.9913
31.060234 98.920 -8.2623
31.285309 98.906 -8.5334
31.512015 98.892 -8.8038
31.740364 98.877 -9.0724
31.970368 98.861 -9.3383
32.202039 98.845 -9.6002
32.435388 98.828 -9.8580
32.670428 98.811 -10.1118
32.907171 98.793 -10.3623
33.145630 98.776 -10.6106
33.385817 98.758 -10.8578
33.627745 98.741 -11.1047
33.871425 98.722 -11.3516
34.116871 98.703 -11.5984
34.364096 98.684 -11.8447
34.613113 98.664 -12.0901
34.863934 98.643 -12.3344
35.116572 98.622 -12.5776
35.371041 98.600 -12.8202
35.627354 98.578 -13.0624
35.885525 98.556 -13.3044
36.145566 98.533 -13.5461
36.407492 98.509 -13.7872
36.671316 98.485 -14.0267
36.937051 98.461 -14.2640
37.204712 98.436 -14.4982
37.474313 98.411 -14.7288
37.745867 98.387 -14.9556
38.019389 98.362 -15.1793
38.294893 98.338 -15.4008
38.572394 98.315 -15.6206
38.851905 98.292 -15.8397
39.133442 98.269 -16.0586
39.417019 98.247 -16.2773
39.702651 98.224 -16.4958
39.990353 98.202 -16.7141
40.280140 98.179 -16.9320
40.572026 98.157 -17.1497
40.866028 98.134 -17.3671
41.162160 98.111 -17.5836
41.460438 98.088 -17.7987
41.760877 98.064 -18.0110
42.063494 98.039 -18.2196
42.368303 98.014 -18.4238
42.675322 97.989 -18.6234
42.984565 97.964 -18.8187
43.296048 97.939 -19.0104
43.609789 97.913 -19.1992
43.925804 97.888 -19.3864
44.244108 97.864 -19.5729
44.564719 97.839 -19.7601
44.887654 97.815 -19.9490
45.212928 97.790 -20.1401
45.540560 97.765 -20.3333
45.870565 97.739 -20.5269
46.202962 97.713 -20.7191
46.537768 97.685 -20.9083
46.875000 97.658 -21.0939
47.214676 97.631 -21.2764
47.556813 97.604 -21.4575
47.901429 97.578 -21.6394
48.248542 97.551 -21.8232
48.598171 97.525 -22.0089
48.950334 97.497 -22.1955
49.305048 97.469 -22.3812
49.662333 97.441 -22.5650
50.022206 97.412 -22.7462
50.384688 97.383 -22.9249
50.749796 97.353 -23.1014
51.117550 97.323 -23.2753
51.487969 97.293 -23.4460
51.861072 97.262 -23.6130
52.236879 97.231 -23.7759
52.615409 97.201 -23.9351
52.996681 97.170 -24.0909
53.380717 97.140 -24.2433
53.767536 97.110 -24.3922
54.157158 97.080 -24.5373
54.549603 97.050 -24.6794
54.944892 97.022 -24.8201
55.343045 96.993 -24.9616
55.744084 96.966 -25.1057
56.148028 96.938 -25.2533
56.554900 96.910 -25.4042
56.964720 96.881 -25.5573
57.377510 96.852 -25.7118
57.793291 96.822 -25.8671
58.212085 96.792 -26.0228
58.633914 96.761 -26.1788
59.058799 96.730 -26.3345
59.486764 96.698 -26.4891
59.917829 96.664 -26.6417
60.352019 96.631 -26.7913
60.789354 96.596 -26.9368
61.229859 96.562 -27.0774
61.673556 96.527 -27.2131
62.120468 96.492 -27.3444
62.570618 96.457 -27.4725
63.024031 96.423 -27.5989
63.480729 96.389 -27.7247
63.940736 96.354 -27.8500
64.404077 96.319 -27.9740
64.870776 96.284 -28.0959
65.340856 96.249 -28.2152
65.814343 96.213 -28.3312
66.291261 96.178 -28.4432
66.771635 96.142 -28.5510
67.255489 96.105 -28.6542
67.742850 96.070 -28.7535
68.233743 96.034 -28.8503
68.728193 95.999 -28.9462
69.226226 95.963 -29.0417
69.727867 95.928 -29.1369
70.233144 95.892 -29.2306
70.742083 95.856 -29.3217
71.254709 95.820 -29.4095
71.771050 95.783 -29.4943
72.291132 95.747 -29.5769
72.814984 95.711 -29.6582
73.342631 95.675 -29.7390
73.874102 95.638 -29.8188
74.409424 95.602 -29.8972
74.948626 95.565 -29.9735
75.491734 95.528 -30.0477
76.038779 95.492 -30.1204
76.589787 95.456 -30.1922
77.144788 95.420 -30.2637
77.703811 95.384 -30.3354
78.266885 95.348 -30.4080
78.834039 95.313 -30.4823
79.405303 95.277 -30.5592
79.980706 95.242 -30.6396
80.560280 95.206 -30.7244
81.144053 95.169 -30.8135
81.732056 95.132 -30.9068
82.324320 95.093 -31.0033
82.920876 95.053 -31.1014
83.521755 95.012 -31.1989
84.126988 94.969 -31.2925
84.736607 94.925 -31.3789
85.350643 94.880 -31.4553
85.969129 94.834 -31.5198
86.592097 94.788 -31.5718
87.219579 94.742 -31.6116
87.851608 94.697 -31.6407
88.488217 94.652 -31.6607
89.129439 94.607 -31.6727
89.775308 94.563 -31.6783
90.425856 94.519 -31.6790
91.081119 94.475 -31.6765
91.741131 94.432 -31.6729
92.405925 94.389 -31.6702
93.075536 94.346 -31.6688
93.750000 94.303 -31.6675
94.429351 94.259 -31.6635
95.113625 94.214 -31.6545
95.802858 94.170 -31.6398
96.497085 94.125 -31.6194
97.196342 94.081 -31.5931
97.900667 94.036 -31.5612
98.610096 93.992 -31.5228
99.324665 93.947 -31.4775
100.044413 93.902 -31.4246
100.769376 93.857 -31.3643
101.499592 93.812 -31.2969
102.235100 93.768 -31.2230
102.975938 93.724 -31.1434
103.722144 93.680 -31.0591
104.473757 93.638 -30.9714
105.230817 93.597 -30.8823
105.993363 93.558 -30.7941
106.761435 93.519 -30.7083
107.535072 93.480 -30.6226
108.314315 93.441 -30.5300
109.099206 93.401 -30.4227
109.889783 93.361 -30.2969
110.686090 93.321 -30.1544
111.488167 93.282 -30.0006
112.296056 93.243 -29.8416
113.109800 93.206 -29.6836
113.929440 93.169 -29.5327
114.755020 93.133 -29.3939
115.586582 93.098 -29.2700
116.424170 93.064 -29.1609
117.267827 93.031 -29.0623
118.117598 93.000 -28.9657
118.973527 92.970 -28.8609
119.835658 92.943 -28.7397
120.704037 92.920 -28.6050
121.578708 92.901 -28.4695
122.459718 92.884 -28.3448
123.347111 92.867 -28.2345
124.240935 92.848 -28.1362
125.141236 92.825 -28.0466
126.048061 92.799 -27.9630
126.961458 92.770 -27.8837
127.881473 92.739 -27.8078
128.808154 92.707 -27.7339
129.741551 92.674 -27.6603
130.681712 92.641 -27.5848
131.628686 92.607 -27.5054
132.582521 92.574 -27.4204
133.543269 92.541 -27.3297
134.510979 92.508 -27.2347
135.485701 92.474 -27.1376
136.467486 92.441 -27.0393
137.456386 92.406 -26.9386
138.452451 92.372 -26.8340
139.455735 92.337 -26.7246
140.466288 92.302 -26.6096
141.484165 92.267 -26.4888
142.509418 92.232 -26.3627
143.542100 92.197 -26.2322
144.582265 92.162 -26.0986
145.629968 92.126 -25.9624
146.685262 92.090 -25.8240
147.748204 92.054 -25.6827
148.818849 92.017 -25.5378
149.897251 91.979 -25.3873
150.983469 91.941 -25.2280
152.077557 91.902 -25.0563
153.179574 91.863 -24.8693
154.289576 91.825 -24.6670
155.407622 91.788 -24.4524
156.533770 91.753 -24.2306
157.668078 91.720 -24.0071
158.810606 91.687 -23.7864
159.961413 91.656 -23.5710
161.120559 91.625 -23.3620
162.288105 91.594 -23.1580
163.464112 91.562 -22.9567
164.648640 91.530 -22.7551
165.841752 91.497 -22.5498
167.043510 91.464 -22.3372
168.253976 91.430 -22.1142
169.473213 91.398 -21.8790
170.701286 91.366 -21.6316
171.938258 91.336 -21.3739
173.184194 91.307 -21.1097
174.439158 91.280 -20.8438
175.703216 91.253 -20.5799
176.976434 91.228 -20.3201
178.258878 91.203 -20.0645
179.550615 91.177 -19.8115
180.851713 91.151 -19.5579
182.162239 91.125 -19.2999
183.482262 91.097 -19.0342
184.811850 91.070 -18.7578
186.151073 91.042 -18.4673
187.500000 91.015 -18.1581
188.858702 90.989 -17.8259
190.227250 90.965 -17.4662
191.605715 90.944 -17.0762
192.994169 90.927 -16.6550
194.392685 90.916 -16.2062
195.801334 90.913 -15.7368
197.220191 90.918 -15.2574
198.649330 90.933 -14.7827
200.088825 90.959 -14.3313
201.538751 90.993 -13.9239
202.999184 91.035 -13.5807
204.470200 91.081 -13.3174
205.951875 91.127 -13.1421
207.444287 91.170 -13.0520
208.947514 91.206 -13.0348
210.461634 91.234 -13.0710
211.986726 91.252 -13.1380
213.522869 91.259 -13.2146
215.070144 91.257 -13.2836
216.628631 91.247 -13.3320
218.198411 91.232 -13.3522
219.779567 91.214 -13.3422
221.372180 91.194 -13.3054
222.976334 91.174 -13.2480
224.592112 91.155 -13.1759
226.219600 91.135 -13.0922
227.858880 91.115 -12.9979
229.510039 91.095 -12.8928
231.173164 91.075 -12.7767
232.848340 91.056 -12.6510
234.535655 91.037 -12.5177
236.235197 91.019 -12.3794
237.947054 91.001 -12.2379
239.671317 90.983 -12.0934
241.408074 90.965 -11.9451
243.157416 90.945 -11.7909
244.919435 90.925 -11.6290
246.694223 90.905 -11.4573
248.481871 90.883 -11.2734
250.282473 90.863 -11.0752
252.096123 90.843 -10.8610
253.922915 90.825 -10.6321
255.762945 90.811 -10.3945
257.616309 90.800 -10.1583
259.483103 90.791 -9.9341
261.363424 90.784 -9.7272
263.257372 90.776 -9.5360
265.165043 90.768 -9.3538
267.086538 90.758 -9.1719
269.021957 90.747 -8.9830
270.971401 90.735 -8.7828
272.934972 90.725 -8.5711
274.912771 90.715 -8.3505
276.904902 90.706 -8.1242
278.911469 90.700 -7.8952
280.932577 90.695 -7.6656
282.968330 90.692 -7.4386
285.018835 90.691 -7.2190
287.084199 90.692 -7.0135
289.164530 90.694 -6.8287
291.259935 90.696 -6.6660
293.370525 90.695 -6.5208
295.496408 90.692 -6.3835
297.637697 90.686 -6.2446
299.794503 90.678 -6.0978
301.966937 90.669 -5.9407
304.155114 90.659 -5.7742
306.359147 90.649 -5.6002
308.579152 90.639 -5.4215
310.815244 90.629 -5.2411
313.067539 90.620 -5.0608
315.336156 90.609 -4.8802
317.621211 90.598 -4.6963
319.922826 90.587 -4.5048
322.241118 90.576 -4.3035
324.576210 90.565 -4.0930
326.928223 90.556 -3.8761
329.297280 90.547 -3.6559
331.683504 90.540 -3.4357
334.087019 90.533 -3.2184
336.507952 90.527 -3.0063
338.946427 90.520 -2.8005
341.402572 90.513 -2.6000
343.876516 90.506 -2.4020
346.368387 90.498 -2.2037
348.878315 90.489 -2.0029
351.406431 90.481 -1.7988
353.952867 90.472 -1.5912
356.517756 90.464 -1.3806
359.101230 90.455 -1.1681
361.703426 90.447 -0.9541
364.324478 90.438 -0.7394
366.964523 90.431 -0.5239
369.623699 90.423 -0.3074
372.302145 90.415 -0.0895
375.000000 90.408 0.1301
377.717405 90.401 0.3514
380.454501 90.394 0.5742
383.211431 90.387 0.7977
385.988339 90.380 1.0216
388.785369 90.374 1.2455
391.602668 90.368 1.4698
394.440383 90.362 1.6953
397.298660 90.356 1.9224
400.177650 90.352 2.1506
403.077502 90.347 2.3787
405.998368 90.343 2.6045
408.940400 90.338 2.8271
411.903750 90.333 3.0479
414.888575 90.327 3.2700
417.895028 90.321 3.4976
420.923268 90.314 3.7336
423.973452 90.308 3.9792
427.045738 90.303 4.2328
430.140287 90.300 4.4908
433.257261 90.298 4.7482
436.396822 90.298 5.0019
439.559133 90.299 5.2511
442.744360 90.300 5.4956
445.952668 90.303 5.7332
449.184225 90.306 5.9595
452.439199 90.310 6.1686
455.717760 90.313 6.3572
459.020079 90.314 6.5287
462.346327 90.311 6.6938
465.696680 90.306 6.8649
469.071310 90.298 7.0499
472.470394 90.290 7.2509
475.894109 90.281 7.4647
479.342634 90.273 7.6853
482.816148 90.265 7.9064
486.314833 90.257 8.1259
489.838871 90.248 8.3484
493.388445 90.238 8.5823
496.963741 90.228 8.8318
500.564945 90.219 9.0936
504.192245 90.212 9.3597
507.845830 90.206 9.6229
511.525890 90.201 9.8798
515.232618 90.195 10.1309
518.966206 90.189 10.3799
522.726849 90.181 10.6315
526.514743 90.173 10.8911
530.330086 90.165 11.1613
534.173076 90.157 11.4407
538.043915 90.149 11.7255
541.942803 90.142 12.0138
545.869944 90.136 12.3065
549.825542 90.131 12.6040
553.809805 90.126 12.9039
557.822939 90.122 13.2021
561.865154 90.118 13.4953
565.936660 90.115 13.7834
570.037671 90.110 14.0695
574.168399 90.104 14.3582
578.329060 90.098 14.6528
582.519870 90.092 14.9540
586.741049 90.084 15.2626
590.992817 90.077 15.5814
595.275394 90.069 15.9133
599.589005 90.062 16.2581
603.933874 90.056 16.6118
608.310228 90.051 16.9706
612.718295 90.047 17.3329
617.158304 90.043 17.7012
621.630488 90.039 18.0811
626.135079 90.036 18.4783
630.672311 90.034 18.8937
635.242423 90.036 19.3215
639.845651 90.039 19.7542
644.482237 90.046 20.1884
649.152421 90.055 20.6241
653.856447 90.066 21.0598
658.594560 90.081 21.4889
663.367008 90.099 21.9011
668.174039 90.118 22.2886
673.015903 90.137 22.6520
677.892854 90.155 22.9987
682.805145 90.170 23.3373
687.753032 90.183 23.6747
692.736774 90.195 24.0161
697.756631 90.206 24.3660
702.812863 90.216 24.7263
707.905735 90.227 25.0956
713.035511 90.239 25.4702
718.202461 90.251 25.8472
723.406852 90.264 26.2256
728.648956 90.278 26.6067
733.929047 90.291 26.9913
739.247399 90.305 27.3796
744.604290 90.319 27.7720
750.000000 90.333 28.1687
755.434809 90.348 28.5702
760.909001 90.364 28.9771
766.422861 90.380 29.3897
771.976677 90.397 29.8076
777.570739 90.415 30.2296
783.205337 90.434 30.6547
788.880766 90.454 31.0838
794.597321 90.475 31.5192
800.355301 90.498 31.9632
806.155005 90.523 32.4146
811.996736 90.552 32.8679
817.880799 90.584 33.3146
823.807501 90.620 33.7455
829.777150 90.658 34.1522
835.790057 90.695 34.5327
841.846536 90.731 34.8936
847.946903 90.765 35.2458
854.091476 90.797 35.5974
860.280575 90.827 35.9519
866.514523 90.857 36.3122
872.793644 90.886 36.6814
879.118267 90.916 37.0595
885.488720 90.946 37.4427
891.905336 90.978 37.8272
898.368450 91.011 38.2125
904.878398 91.044 38.6005
911.435520 91.079 38.9920
918.040157 91.115 39.3855
924.692655 91.153 39.7786
931.393359 91.193 40.1684
938.142619 91.234 40.5512
944.940787 91.276 40.9248
951.788218 91.320 41.2896
958.685268 91.363 41.6476
965.632296 91.407 42.0010
972.629666 91.451 42.3525
979.677741 91.496 42.7031
986.776890 91.542 43.0530
993.927482 91.588 43.4037
1001.129891 91.635 43.7594
1008.384491 91.683 44.1237
1015.691660 91.733 44.4951
1023.051781 91.787 44.8682
1030.465236 91.845 45.2349
1037.932411 91.906 45.5837
1045.453698 91.970 45.9028
1053.029486 92.035 46.1871
1060.660172 92.099 46.4406
1068.346153 92.161 46.6726
1076.087829 92.220 46.8929
1083.885605 92.278 47.1085
1091.739887 92.334 47.3221
1099.651084 92.390 47.5344
1107.619609 92.445 47.7460
1115.645878 92.499 47.9587
1123.730308 92.553 48.1743
1131.873321 92.607 48.3940
1140.075341 92.662 48.6186
1148.336797 92.717 48.8476
1156.658119 92.773 49.0796
1165.039741 92.832 49.3126
1173.482099 92.892 49.5448
1181.985634 92.956 49.7725
1190.550789 93.023 49.9874
1199.178011 93.093 50.1775
1207.867749 93.167 50.3311
1216.620457 93.240 50.4436
1225.436590 93.311 50.5194
1234.316609 93.379 50.5682
1243.260976 93.443 50.5996
1252.270157 93.503 50.6225
1261.344623 93.559 50.6422
1270.484846 93.613 50.6613
1279.691303 93.664 50.6829
1288.964474 93.713 50.7101
1298.304842 93.761 50.7441
1307.712894 93.807 50.7838
1317.189120 93.853 50.8266
1326.734016 93.898 50.8708
1336.348077 93.943 50.9173
1346.031806 93.987 50.9687
1355.785708 94.031 51.0286
1365.610290 94.076 51.1005
1375.506065 94.121 51.1884
1385.473549 94.168 51.2971
1395.513261 94.218 51.4272
1405.625726 94.272 51.5735
1415.811469 94.329 51.7244
1426.071023 94.391 51.8656
1436.404921 94.453 51.9875
1446.813703 94.516 52.0891
1457.297912 94.578 52.1748
1467.858093 94.637 52.2505
1478.494798 94.694 52.3211
1489.208581 94.749 52.3908
1500.000000 94.800 52.4635
1510.869618 94.847 52.5428
1521.818002 94.890 52.6313
1532.845723 94.928 52.7307
1543.953355 94.964 52.8423
1555.141477 94.997 52.9661
1566.410674 95.031 53.0978
1577.761531 95.066 53.2268
1589.194642 95.104 53.3394
1600.710601 95.142 53.4266
1612.310010 95.179 53.4876
1623.993473 95.215 53.5275
1635.761599 95.249 53.5533
1647.615002 95.281 53.5715
1659.554299 95.311 53.5871
1671.580114 95.339 53.6044
1683.693072 95.366 53.6247
1695.893807 95.393 53.6462
1708.182952 95.418 53.6669
1720.561150 95.441 53.6866
1733.029045 95.462 53.7086
1745.587288 95.480 53.7384
1758.236533 95.496 53.7829
1770.977440 95.511 53.8483
1783.810673 95.527 53.9345
1796.736900 95.546 54.0331
1809.756796 95.567 54.1304
1822.871040 95.590 54.2160
1836.080315 95.613 54.2864
1849.385310 95.637 54.3435
1862.786718 95.660 54.3916
1876.285239 95.682 54.4365
1889.881575 95.705 54.4848
1903.576436 95.730 54.5435
1917.370535 95.757 54.6188
1931.264593 95.790 54.7144
1945.259332 95.828 54.8292
1959.355483 95.875 54.9536
1973.553781 95.927 55.0721
1987.854965 95.985 55.1704
2002.259781 96.046 55.2401
2016.768981 96.108 55.2782
2031.383320 96.169 55.2853
2046.103561 96.228 55.2647
2060.930471 96.286 55.2211
2075.864823 96.339 55.1598
2090.907395 96.389 55.0868
2106.058972 96.432 55.0108
2121.320344 96.470 54.9449
2136.692305 96.501 54.9053
2152.175658 96.528 54.9081
2167.771210 96.553 54.9639
2183.479774 96.577 55.0732
2199.302169 96.605 55.2301
2215.239219 96.636 55.4287
2231.291755 96.672 55.6654
2247.460615 96.715 55.9371
2263.746641 96.765 56.2393
2280.150683 96.826 56.5639
2296.673595 96.899 56.8969
2313.316238 96.986 57.2166
2330.079481 97.087 57.4923
2346.964198 97.202 57.6861
2363.971268 97.327 57.7615
2381.101578 97.456 57.6941
2398.356022 97.584 57.4769
2415.735498 97.705 57.1190
2433.240913 97.815 56.6409
2450.873180 97.912 56.0686
2468.633217 97.995 55.4286
2486.521951 98.064 54.7460
2504.540314 98.120 54.0450
2522.689246 98.162 53.3481
2540.969692 98.195 52.6731
2559.382606 98.220 52.0272
2577.928947 98.239 51.4072
2596.609683 98.254 50.8049
2615.425787 98.263 50.2139
2634.378241 98.267 49.6324
2653.468031 98.263 49.0652
2672.696154 98.252 48.5233
2692.063613 98.235 48.0211
2711.571415 98.213 47.5710
2731.220579 98.188 47.1770
2751.012130 98.163 46.8342
2770.947098 98.137 46.5341
2791.026522 98.113 46.2683
2811.251451 98.089 46.0304
2831.622938 98.065 45.8157
2852.142045 98.042 45.6210
2872.809842 98.018 45.4446
2893.627406 97.993 45.2893
2914.595823 97.968 45.1616
2935.716186 97.942 45.0678
2956.989596 97.918 45.0080
2978.417161 97.896 44.9762
3000.000000 97.877 44.9649
3021.739237 97.859 44.9689
3043.636005 97.843 44.9883
3065.691446 97.827 45.0287
3087.906710 97.813 45.0987
3110.282955 97.801 45.2029
3132.821347 97.794 45.3378
3155.523062 97.792 45.4945
3178.389283 97.795 45.6626
3201.421202 97.803 45.8333
3224.620020 97.816 45.9992
3247.986946 97.832 46.1553
3271.523198 97.852 46.3004
3295.230004 97.873 46.4392
3319.108599 97.897 46.5791
3343.160228 97.924 46.7228
3367.386145 97.955 46.8664
3391.787613 97.990 47.0022
3416.365904 98.029 47.1234
3441.122300 98.070 47.2292
3466.058091 98.115 47.3247
3491.174576 98.163 47.4164
3516.473066 98.214 47.5057
3541.954880 98.271 47.5880
3567.621345 98.331 47.6557
3593.473800 98.396 47.7006
3619.513592 98.465 47.7151
3645.742080 98.535 47.6938
3672.160630 98.607 47.6365
3698.770620 98.679 47.5484
3725.573436 98.751 47.4345
3752.570477 98.825 47.2945
3779.763150 98.899 47.1236
3807.152872 98.973 46.9171
3834.741071 99.046 46.6753
3862.529185 99.116 46.4041
3890.518664 99.184 46.1101
3918.710966 99.252 45.7949
3947.107561 99.319 45.4543
3975.709929 99.388 45.0808
4004.519563 99.457 44.6651
4033.537962 99.527 44.1978
4062.766641 99.597 43.6730
4092.207123 99.664 43.0898
4121.860942 99.729 42.4497
4151.729646 99.789 41.7534
4181.814790 99.844 41.0018
4212.117944 99.893 40.1989
4242.640687 99.934 39.3557
4273.384610 99.968 38.4854
4304.351317 99.995 37.5968
4335.542421 100.017 36.6915
4366.959549 100.034 35.7638
4398.604338 100.046 34.8042
4430.478438 100.053 33.8036
4462.583511 100.052 32.7604
4494.921231 100.041 31.6809
4527.493283 100.021 30.5741
4560.301365 99.991 29.4492
4593.347189 99.949 28.3164
4626.632476 99.895 27.1912
4660.158962 99.830 26.0931
4693.928395 99.753 25.0409
4727.942535 99.669 24.0469
4762.203156 99.578 23.1154
4796.712043 99.483 22.2423
4831.470996 99.385 21.4203
4866.481826 99.283 20.6453
4901.746360 99.178 19.9166
4937.266434 99.070 19.2335
4973.043902 98.959 18.5951
5009.080628 98.844 18.0042
5045.378492 98.724 17.4700
5081.939384 98.600 17.0044
5118.765212 98.475 16.6165
5155.857894 98.349 16.3080
5193.219366 98.226 16.0721
5230.851574 98.107 15.8981
5268.756481 97.991 15.7760
5306.936062 97.881 15.6968
5345.392309 97.775 15.6500
5384.127225 97.673 15.6255
5423.142830 97.574 15.6188
5462.441159 97.477 15.6318
5502.024259 97.382 15.6685
5541.894195 97.290 15.7296
5582.053045 97.203 15.8081
5622.502902 97.121 15.8920
5663.245876 97.046 15.9689
5704.284090 96.976 16.0272
5745.619684 96.911 16.0555
5787.254813 96.849 16.0442
5829.191647 96.788 15.9913
5871.432373 96.724 15.9022
5913.979192 96.658 15.7866
5956.834323 96.589 15.6535
6000.000000 96.516 15.5076
6043.478473 96.441 15.3521
6087.272010 96.361 15.1902
6131.382892 96.278 15.0242
6175.813420 96.189 14.8564
6220.565910 96.095 14.6936
6265.642695 95.993 14.5490
6311.046124 95.883 14.4402
6356.778566 95.767 14.3840
6402.842404 95.646 14.3934
6449.240040 95.521 14.4769
6495.973891 95.395 14.6387
6543.046396 95.271 14.8782
6590.460007 95.149 15.1926
6638.217197 95.031 15.5814
6686.320456 94.917 16.0469
6734.772290 94.810 16.5914
6783.575226 94.712 17.2135
6832.731809 94.625 17.9067
6882.244600 94.551 18.6597
6932.116181 94.492 19.4550
6982.349153 94.448 20.2715
7032.946133 94.420 21.0900
7083.909760 94.408 21.8954
7135.242690 94.412 22.6743
7186.947600 94.434 23.4119
7239.027185 94.473 24.0913
7291.484160 94.530 24.6906
7344.321260 94.604 25.1830
7397.541239 94.694 25.5416
7451.146872 94.795 25.7456
7505.140954 94.905 25.7823
7559.526299 95.020 25.6447
7614.305743 95.136 25.3293
7669.482141 95.251 24.8346
7725.058371 95.360 24.1570
7781.037328 95.460 23.2944
7837.421932 95.546 22.2524
7894.215122 95.612 21.0485
7951.419859 95.654 19.7098
8009.039125 95.669 18.2710
8067.075924 95.655 16.7690
8125.533282 95.613 15.2377
8184.414245 95.543 13.7067
8243.721885 95.444 12.2061
8303.459292 95.318 10.7688
8363.629581 95.165 9.4301
8424.235888 94.989 8.2247
8485.281374 94.793 7.1809
8546.769221 94.583 6.3152
8608.702634 94.366 5.6328
8671.084842 94.144 5.1332
8733.919097 93.924 4.8141
8797.208675 93.708 4.6732
8860.956876 93.502 4.7061
8925.167022 93.309 4.9003
8989.842461 93.136 5.2328
9054.986566 92.985 5.6736
9120.602731 92.860 6.1917
9186.694378 92.761 6.7585
9253.264952 92.690 7.3493
9320.317925 92.650 7.9356
9387.856790 92.642 8.4790
9455.885071 92.668 8.9315
9524.406312 92.728 9.2409
9593.424086 92.818 9.3574
9662.941992 92.934 9.2375
9732.963653 93.071 8.8413
9803.492719 93.222 8.1298
9874.532869 93.376 7.0688
9946.087805 93.522 5.6377
10018.161257 93.647 3.8372
10090.756983 93.739 1.6937
10163.878768 93.784 -0.7454
10237.530423 93.774 -3.4149
10311.715789 93.699 -6.2343
10386.438732 93.553 -9.1071
10461.703149 93.334 -11.9240
10537.512962 93.041 -14.5717
10613.872125 92.680 -16.9459
10690.784618 92.261 -18.9600
10768.254450 91.794 -20.5474
10846.285661 91.291 -21.6582
10924.882318 90.767 -22.2581
11004.048518 90.235 -22.3315
11083.788390 89.711 -21.8862
11164.106090 89.211 -20.9540
11245.005805 88.748 -19.5837
11326.491752 88.335 -17.8374
11408.568180 87.982 -15.7931
11491.239368 87.699 -13.5508
11574.509626 87.489 -11.2310
11658.383294 87.353 -8.9610
11742.864745 87.285 -6.8574
11827.958384 87.274 -5.0149
11913.668646 87.305 -3.4995
12000.000000 87.361 -2.3401
12086.956947 87.425 -1.5217
12174.544019 87.482 -0.9882
12262.765784 87.522 -0.6583
12351.626840 87.540 -0.4441
12441.131819 87.538 -0.2625
12531.285389 87.519 -0.0422
12622.092249 87.492 0.2698
12713.557132 87.466 0.7017
12805.684808 87.452 1.2549
12898.480079 87.459 1.9133
12991.947783 87.494 2.6495
13086.092792 87.564 3.4247
13180.920015 87.675 4.1855
13276.434395 87.831 4.8671
13372.640911 88.033 5.4002
13469.544580 88.279 5.7154
13567.150452 88.567 5.7402
13665.463617 88.889 5.4017
13764.489200 89.238 4.6349
13864.232362 89.599 3.3914
13964.698305 89.961 1.6400
14065.892266 90.307 -0.6294
14167.819519 90.620 -3.3998
14270.485380 90.886 -6.6195
14373.895200 91.091 -10.2051
14478.054370 91.226 -14.0468
14582.968320 91.288 -18.0139
14688.642520 91.282 -21.9640
14795.082478 91.221 -25.7629
14902.293745 91.130 -29.3074
15010.281908 91.041 -32.5431
15119.052599 90.996 -35.4830
15228.611486 91.041 -38.2263
15338.964283 91.216 -40.9655
15450.116741 91.544 -43.9739
15562.074656 92.022 -47.5698
15674.843864 92.617 -52.0677
15788.430244 93.278 -57.7260
15902.839718 93.945 -64.7067
16018.078250 94.561 -73.0636
16134.151848 95.081 -82.7569
16251.066563 95.471 -93.6833
16368.828491 95.706 -105.7037
16487.443769 95.764 -118.6575
16606.918584 95.623 -132.3584
16727.259161 95.265 -146.5825
16848.471777 94.670 -161.0547
16970.562748 93.821 -175.4395
17093.538442 92.711 170.6459
17217.405268 91.342 157.5807
17342.169684 89.733 145.6735
17467.838194 87.907 135.1282
17594.417350 85.892 126.0479
17721.913751 83.717 118.4598
17850.334044 81.405 112.3384
17979.684923 78.980 107.6197
18109.973131 76.461 104.2097
18241.205462 73.867 101.9838
18373.388756 71.213 100.7854
18506.529905 68.514 100.4320
18640.635849 65.784 100.7246
18775.713581 63.037 101.4623
18911.770141 60.286 102.4578
19048.812624 57.548 103.5480
19186.848172 54.843 104.5975
19325.883983 52.209 105.4986
19465.927305 49.718 106.1791
19606.985439 47.505 106.6228
19749.065738 45.765 106.8786
19892.175609 44.654 107.0359
20036.322514 44.155 107.1347
