* Measurement data measured by REW V5.31
* Source: EXCL: Microphone (USB Sound Device        ), MICROPHONE (Master Volume), L, volume: 0.250
* Format: 256k Log Swept Sine, 1 sweep at -4.0 dBFS with no timing reference
* Dated: Jul 5, 2024 11:57:30 PM
* REW Settings:
*  C-weighting compensation: Off
*  Target level: 75.0 dB
* Note: 7HZ Aero R
* Measurement: R 7HZ Aero
* Smoothing: 1/12 octave
* Frequency Step: 96 ppo
* Start Frequency: 0.36621094 Hz
*
* Freq(Hz) SPL(dB) Phase(degrees)
0.366211 76.020 -118.9905
0.368865 76.033 -119.0231
0.371538 76.053 -119.0717
0.374230 76.078 -119.1323
0.376942 76.106 -119.2016
0.379673 76.136 -119.2769
0.382424 76.167 -119.3568
0.385196 76.199 -119.4401
0.387987 76.232 -119.5262
0.390798 76.264 -119.6149
0.393630 76.298 -119.7059
0.396483 76.331 -119.7990
0.399356 76.365 -119.8944
0.402250 76.399 -119.9919
0.405165 76.433 -120.0914
0.408101 76.468 -120.1930
0.411058 76.503 -120.2966
0.414037 76.538 -120.4023
0.417037 76.573 -120.5099
0.420059 76.609 -120.6195
0.423103 76.645 -120.7310
0.426169 76.681 -120.8444
0.429257 76.717 -120.9597
0.432368 76.754 -121.0769
0.435501 76.790 -121.1959
0.438656 76.828 -121.3167
0.441835 76.865 -121.4392
0.445037 76.903 -121.5635
0.448262 76.941 -121.6894
0.451510 76.979 -121.8170
0.454782 77.017 -121.9463
0.458077 77.056 -122.0771
0.461397 77.095 -122.2094
0.464740 77.135 -122.3433
0.468108 77.174 -122.4787
0.471500 77.214 -122.6155
0.474917 77.254 -122.7537
0.478358 77.295 -122.8932
0.481825 77.336 -123.0341
0.485316 77.377 -123.1763
0.488833 77.418 -123.3197
0.492375 77.460 -123.4642
0.495943 77.502 -123.6100
0.499537 77.544 -123.7569
0.503157 77.587 -123.9048
0.506803 77.630 -124.0538
0.510475 77.673 -124.2038
0.514175 77.717 -124.3548
0.517900 77.760 -124.5067
0.521653 77.805 -124.6594
0.525434 77.849 -124.8130
0.529241 77.894 -124.9674
0.533076 77.939 -125.1226
0.536939 77.985 -125.2785
0.540830 78.030 -125.4352
0.544749 78.077 -125.5924
0.548696 78.123 -125.7504
0.552673 78.170 -125.9089
0.556677 78.217 -126.0679
0.560711 78.264 -126.2275
0.564774 78.312 -126.3876
0.568867 78.360 -126.5482
0.572989 78.409 -126.7092
0.577141 78.458 -126.8707
0.581324 78.507 -127.0325
0.585536 78.557 -127.1947
0.589779 78.607 -127.3572
0.594053 78.657 -127.5201
0.598358 78.708 -127.6833
0.602694 78.759 -127.8468
0.607061 78.810 -128.0105
0.611460 78.862 -128.1745
0.615891 78.914 -128.3387
0.620354 78.967 -128.5032
0.624849 79.020 -128.6679
0.629377 79.073 -128.8328
0.633938 79.127 -128.9979
0.638532 79.181 -129.1632
0.643159 79.235 -129.3287
0.647819 79.290 -129.4945
0.652514 79.345 -129.6604
0.657242 79.401 -129.8266
0.662005 79.457 -129.9930
0.666802 79.514 -130.1596
0.671634 79.570 -130.3265
0.676501 79.628 -130.4936
0.681403 79.685 -130.6611
0.686341 79.743 -130.8289
0.691314 79.802 -130.9970
0.696324 79.860 -131.1655
0.701370 79.919 -131.3345
0.706452 79.978 -131.5041
0.711571 80.036 -131.6745
0.716728 80.093 -131.8457
0.721921 80.148 -132.0183
0.727153 80.201 -132.1926
0.732422 80.249 -132.3694
0.737729 80.293 -132.5493
0.743075 80.333 -132.7330
0.748460 80.369 -132.9211
0.753883 80.403 -133.1139
0.759346 80.435 -133.3116
0.764849 80.466 -133.5142
0.770391 80.496 -133.7218
0.775974 80.524 -133.9343
0.781597 80.552 -134.1516
0.787261 80.579 -134.3736
0.792966 80.605 -134.6000
0.798712 80.630 -134.8308
0.804500 80.654 -135.0658
0.810329 80.678 -135.3049
0.816201 80.701 -135.5478
0.822116 80.723 -135.7944
0.828073 80.744 -136.0446
0.834074 80.764 -136.2980
0.840118 80.783 -136.5547
0.846206 80.801 -136.8143
0.852338 80.818 -137.0767
0.858514 80.834 -137.3417
0.864735 80.849 -137.6090
0.871001 80.863 -137.8785
0.877313 80.876 -138.1500
0.883670 80.888 -138.4231
0.890074 80.899 -138.6978
0.896524 80.909 -138.9737
0.903020 80.917 -139.2507
0.909564 80.925 -139.5285
0.916155 80.931 -139.8068
0.922794 80.935 -140.0854
0.929481 80.939 -140.3641
0.936216 80.941 -140.6426
0.943000 80.942 -140.9205
0.949834 80.942 -141.1977
0.956717 80.940 -141.4738
0.963649 80.936 -141.7486
0.970632 80.932 -142.0218
0.977666 80.926 -142.2930
0.984750 80.918 -142.5619
0.991886 80.909 -142.8283
0.999074 80.898 -143.0917
1.006314 80.886 -143.3519
1.013606 80.872 -143.6084
1.020951 80.856 -143.8609
1.028349 80.839 -144.1091
1.035801 80.820 -144.3525
1.043307 80.799 -144.5907
1.050867 80.776 -144.8236
1.058482 80.752 -145.0507
1.066152 80.725 -145.2720
1.073878 80.697 -145.4874
1.081660 80.667 -145.6974
1.089498 80.634 -145.9028
1.097393 80.600 -146.1051
1.105345 80.563 -146.3059
1.113355 80.523 -146.5073
1.121423 80.481 -146.7110
1.129549 80.437 -146.9181
1.137734 80.390 -147.1295
1.145979 80.340 -147.3455
1.154283 80.287 -147.5663
1.162647 80.232 -147.7918
1.171072 80.174 -148.0219
1.179558 80.113 -148.2562
1.188106 80.050 -148.4946
1.196715 79.983 -148.7366
1.205387 79.914 -148.9818
1.214122 79.842 -149.2298
1.222920 79.767 -149.4800
1.231782 79.689 -149.7318
1.240708 79.609 -149.9846
1.249699 79.526 -150.2377
1.258754 79.440 -150.4903
1.267876 79.351 -150.7415
1.277063 79.260 -150.9902
1.286318 79.165 -151.2355
1.295639 79.068 -151.4761
1.305027 78.969 -151.7106
1.314484 78.866 -151.9376
1.324009 78.761 -152.1555
1.333604 78.653 -152.3624
1.343268 78.542 -152.5563
1.353002 78.429 -152.7351
1.362806 78.313 -152.8961
1.372681 78.195 -153.0369
1.382628 78.074 -153.1544
1.392647 77.950 -153.2455
1.402739 77.824 -153.3068
1.412904 77.695 -153.3345
1.423142 77.563 -153.3250
1.433455 77.427 -153.2746
1.443843 77.287 -153.1801
1.454305 77.142 -153.0385
1.464844 76.990 -152.8479
1.475459 76.829 -152.6067
1.486150 76.658 -152.3136
1.496920 76.474 -151.9662
1.507767 76.278 -151.5616
1.518693 76.069 -151.0954
1.529698 75.848 -150.5619
1.540783 75.615 -149.9545
1.551948 75.371 -149.2655
1.563194 75.118 -148.4857
1.574521 74.856 -147.6050
1.585931 74.588 -146.6118
1.597423 74.314 -145.4932
1.608999 74.037 -144.2349
1.620658 73.758 -142.8211
1.632402 73.479 -141.2347
1.644232 73.202 -139.4574
1.656146 72.929 -137.4705
1.668147 72.662 -135.2552
1.680235 72.404 -132.7941
1.692411 72.157 -130.0729
1.704675 71.923 -127.0824
1.717028 71.705 -123.8213
1.729470 71.506 -120.2991
1.742003 71.330 -116.5389
1.754626 71.179 -112.5786
1.767341 71.057 -108.4708
1.780147 70.967 -104.2799
1.793047 70.913 -100.0763
1.806040 70.898 -95.9294
1.819128 70.926 -91.9004
1.832310 70.997 -88.0370
1.845587 71.115 -84.3729
1.858961 71.280 -80.9301
1.872432 71.490 -77.7227
1.886001 71.745 -74.7586
1.899667 72.041 -72.0401
1.913433 72.377 -69.5642
1.927299 72.748 -67.3236
1.941265 73.151 -65.3078
1.955332 73.583 -63.5039
1.969501 74.039 -61.8980
1.983773 74.516 -60.4756
1.998148 75.010 -59.2224
2.012627 75.517 -58.1248
2.027212 76.033 -57.1701
2.041902 76.552 -56.3466
2.056698 77.072 -55.6436
2.071602 77.588 -55.0516
2.086614 78.095 -54.5621
2.101734 78.591 -54.1676
2.116964 79.070 -53.8611
2.132304 79.530 -53.6367
2.147756 79.968 -53.4887
2.163320 80.382 -53.4119
2.178996 80.772 -53.4010
2.194786 81.139 -53.4505
2.210690 81.486 -53.5548
2.226710 81.814 -53.7082
2.242845 82.128 -53.9053
2.259098 82.428 -54.1412
2.275468 82.717 -54.4115
2.291957 82.996 -54.7122
2.308566 83.265 -55.0401
2.325295 83.525 -55.3920
2.342145 83.777 -55.7655
2.359117 84.022 -56.1581
2.376212 84.260 -56.5681
2.393431 84.491 -56.9935
2.410775 84.717 -57.4332
2.428244 84.938 -57.8860
2.445840 85.154 -58.3509
2.463564 85.367 -58.8275
2.481416 85.576 -59.3155
2.499397 85.782 -59.8151
2.517509 85.986 -60.3270
2.535752 86.188 -60.8523
2.554127 86.386 -61.3928
2.572635 86.581 -61.9503
2.591277 86.772 -62.5264
2.610055 86.957 -63.1218
2.628968 87.137 -63.7361
2.648019 87.311 -64.3678
2.667208 87.479 -65.0149
2.686535 87.642 -65.6747
2.706003 87.799 -66.3447
2.725612 87.951 -67.0223
2.745363 88.098 -67.7049
2.765257 88.241 -68.3900
2.785295 88.380 -69.0756
2.805478 88.516 -69.7598
2.825808 88.648 -70.4409
2.846285 88.777 -71.1179
2.866910 88.903 -71.7905
2.887685 89.028 -72.4590
2.908611 89.149 -73.1251
2.929688 89.268 -73.7914
2.950917 89.383 -74.4611
2.972301 89.495 -75.1372
2.993839 89.603 -75.8215
3.015534 89.707 -76.5144
3.037386 89.807 -77.2152
3.059396 89.902 -77.9225
3.081565 89.994 -78.6339
3.103896 90.082 -79.3470
3.126388 90.167 -80.0592
3.149043 90.248 -80.7677
3.171862 90.326 -81.4700
3.194847 90.401 -82.1636
3.217998 90.474 -82.8469
3.241317 90.544 -83.5186
3.264805 90.612 -84.1787
3.288463 90.677 -84.8283
3.312293 90.739 -85.4698
3.336295 90.798 -86.1058
3.360471 90.854 -86.7386
3.384822 90.906 -87.3694
3.409350 90.955 -87.9983
3.434056 91.000 -88.6245
3.458940 91.043 -89.2466
3.484005 91.082 -89.8626
3.509252 91.120 -90.4701
3.534681 91.155 -91.0668
3.560295 91.188 -91.6502
3.586094 91.219 -92.2180
3.612081 91.249 -92.7686
3.638255 91.278 -93.3007
3.664620 91.305 -93.8144
3.691175 91.330 -94.3102
3.717923 91.352 -94.7896
3.744864 91.373 -95.2536
3.772001 91.392 -95.7034
3.799335 91.409 -96.1396
3.826866 91.424 -96.5626
3.854597 91.438 -96.9722
3.882529 91.452 -97.3683
3.910664 91.465 -97.7503
3.939002 91.478 -98.1175
3.967546 91.492 -98.4690
3.996296 91.506 -98.8037
4.025255 91.521 -99.1205
4.054423 91.537 -99.4185
4.083804 91.553 -99.6974
4.113396 91.570 -99.9577
4.143204 91.587 -100.2007
4.173227 91.605 -100.4280
4.203468 91.624 -100.6421
4.233928 91.644 -100.8453
4.264609 91.665 -101.0401
4.295512 91.688 -101.2285
4.326639 91.713 -101.4123
4.357992 91.741 -101.5924
4.389572 91.771 -101.7686
4.421380 91.804 -101.9404
4.453419 91.839 -102.1072
4.485691 91.877 -102.2690
4.518196 91.918 -102.4271
4.550936 91.960 -102.5835
4.583914 92.005 -102.7413
4.617131 92.051 -102.9036
4.650589 92.100 -103.0736
4.684289 92.150 -103.2542
4.718233 92.202 -103.4477
4.752424 92.255 -103.6551
4.786862 92.310 -103.8768
4.821549 92.367 -104.1122
4.856488 92.425 -104.3609
4.891680 92.485 -104.6227
4.927127 92.546 -104.8979
4.962831 92.608 -105.1869
4.998794 92.669 -105.4909
5.035017 92.731 -105.8109
5.071503 92.792 -106.1480
5.108253 92.853 -106.5033
5.145270 92.912 -106.8773
5.182555 92.971 -107.2701
5.220110 93.029 -107.6811
5.257937 93.086 -108.1088
5.296038 93.142 -108.5517
5.334415 93.196 -109.0076
5.373071 93.248 -109.4750
5.412006 93.299 -109.9524
5.451224 93.347 -110.4390
5.490725 93.393 -110.9348
5.530514 93.436 -111.4400
5.570590 93.477 -111.9545
5.610957 93.515 -112.4775
5.651616 93.551 -113.0074
5.692570 93.584 -113.5415
5.733821 93.615 -114.0772
5.775370 93.644 -114.6117
5.817221 93.670 -115.1430
5.859375 93.694 -115.6701
5.901834 93.715 -116.1925
5.944602 93.734 -116.7102
5.987679 93.750 -117.2230
6.031068 93.765 -117.7298
6.074771 93.778 -118.2292
6.118792 93.789 -118.7193
6.163131 93.800 -119.1983
6.207792 93.809 -119.6647
6.252776 93.818 -120.1177
6.298086 93.826 -120.5571
6.343725 93.833 -120.9834
6.389694 93.841 -121.3971
6.435996 93.848 -121.7990
6.482634 93.856 -122.1897
6.529610 93.865 -122.5696
6.576926 93.875 -122.9386
6.624585 93.886 -123.2971
6.672590 93.899 -123.6453
6.720942 93.913 -123.9845
6.769645 93.929 -124.3164
6.818700 93.947 -124.6435
6.868111 93.966 -124.9681
6.917881 93.988 -125.2921
6.968010 94.012 -125.6171
7.018504 94.037 -125.9439
7.069362 94.065 -126.2733
7.120590 94.095 -126.6067
7.172189 94.126 -126.9456
7.224161 94.159 -127.2920
7.276511 94.193 -127.6475
7.329239 94.227 -128.0135
7.382350 94.263 -128.3905
7.435845 94.299 -128.7786
7.489729 94.336 -129.1776
7.544002 94.373 -129.5871
7.598669 94.409 -130.0068
7.653732 94.445 -130.4364
7.709194 94.480 -130.8759
7.765058 94.514 -131.3245
7.821327 94.547 -131.7815
7.878004 94.579 -132.2450
7.935091 94.609 -132.7134
7.992592 94.638 -133.1846
8.050510 94.665 -133.6571
8.108847 94.690 -134.1298
8.167607 94.714 -134.6015
8.226793 94.736 -135.0710
8.286408 94.757 -135.5364
8.346454 94.776 -135.9959
8.406936 94.794 -136.4481
8.467856 94.811 -136.8918
8.529218 94.828 -137.3263
8.591024 94.843 -137.7513
8.653278 94.858 -138.1666
8.715983 94.873 -138.5717
8.779143 94.888 -138.9666
8.842760 94.903 -139.3513
8.906839 94.919 -139.7262
8.971381 94.935 -140.0922
9.036392 94.952 -140.4505
9.101873 94.970 -140.8024
9.167829 94.988 -141.1489
9.234263 95.008 -141.4910
9.301178 95.029 -141.8299
9.368578 95.051 -142.1669
9.436467 95.073 -142.5033
9.504847 95.096 -142.8405
9.573723 95.119 -143.1794
9.643099 95.142 -143.5205
9.712976 95.165 -143.8643
9.783361 95.186 -144.2111
9.854255 95.205 -144.5611
9.925663 95.221 -144.9142
9.997588 95.235 -145.2701
10.070035 95.246 -145.6284
10.143007 95.254 -145.9882
10.216507 95.259 -146.3486
10.290540 95.262 -146.7088
10.365109 95.263 -147.0680
10.440219 95.261 -147.4252
10.515873 95.258 -147.7797
10.592076 95.254 -148.1304
10.668830 95.248 -148.4768
10.746141 95.242 -148.8183
10.824012 95.234 -149.1547
10.902447 95.227 -149.4860
10.981451 95.218 -149.8121
11.061027 95.210 -150.1334
11.141180 95.201 -150.4501
11.221913 95.192 -150.7629
11.303232 95.183 -151.0726
11.385140 95.173 -151.3799
11.467641 95.164 -151.6855
11.550741 95.155 -151.9901
11.634442 95.146 -152.2945
11.718750 95.137 -152.5993
11.803669 95.128 -152.9051
11.889203 95.120 -153.2119
11.975357 95.111 -153.5201
12.062136 95.102 -153.8295
12.149543 95.093 -154.1401
12.237583 95.083 -154.4517
12.326262 95.073 -154.7640
12.415583 95.062 -155.0764
12.505552 95.051 -155.3886
12.596172 95.039 -155.7004
12.687449 95.026 -156.0114
12.779387 95.013 -156.3216
12.871992 94.999 -156.6307
12.965268 94.985 -156.9390
13.059220 94.971 -157.2467
13.153852 94.957 -157.5543
13.249170 94.943 -157.8620
13.345179 94.930 -158.1705
13.441884 94.916 -158.4803
13.539289 94.903 -158.7918
13.637401 94.890 -159.1057
13.736223 94.878 -159.4220
13.835761 94.865 -159.7410
13.936021 94.852 -160.0628
14.037007 94.838 -160.3872
14.138725 94.825 -160.7140
14.241180 94.811 -161.0426
14.344377 94.796 -161.3726
14.448323 94.781 -161.7036
14.553021 94.766 -162.0351
14.658478 94.751 -162.3665
14.764700 94.735 -162.6977
14.871691 94.720 -163.0284
14.979457 94.705 -163.3587
15.088005 94.690 -163.6887
15.197339 94.676 -164.0186
15.307465 94.662 -164.3489
15.418389 94.649 -164.6799
15.530117 94.636 -165.0121
15.642655 94.624 -165.3458
15.756008 94.611 -165.6811
15.870182 94.599 -166.0180
15.985184 94.587 -166.3564
16.101019 94.575 -166.6959
16.217694 94.562 -167.0359
16.335214 94.550 -167.3756
16.453586 94.538 -167.7144
16.572815 94.525 -168.0514
16.692909 94.513 -168.3860
16.813872 94.501 -168.7175
16.935713 94.489 -169.0455
17.058436 94.478 -169.3700
17.182048 94.468 -169.6909
17.306556 94.458 -170.0084
17.431967 94.448 -170.3230
17.558286 94.439 -170.6350
17.685521 94.430 -170.9449
17.813677 94.421 -171.2530
17.942762 94.412 -171.5597
18.072783 94.404 -171.8651
18.203746 94.395 -172.1690
18.335658 94.386 -172.4713
18.468526 94.376 -172.7717
18.602356 94.367 -173.0697
18.737156 94.357 -173.3651
18.872934 94.348 -173.6576
19.009695 94.338 -173.9470
19.147447 94.328 -174.2334
19.286197 94.317 -174.5168
19.425953 94.307 -174.7975
19.566721 94.296 -175.0759
19.708510 94.285 -175.3523
19.851326 94.274 -175.6269
19.995177 94.262 -175.8999
20.140070 94.250 -176.1715
20.286013 94.237 -176.4415
20.433014 94.223 -176.7098
20.581080 94.209 -176.9765
20.730219 94.194 -177.2413
20.880439 94.179 -177.5046
21.031747 94.163 -177.7664
21.184152 94.148 -178.0274
21.337661 94.133 -178.2880
21.492282 94.117 -178.5491
21.648024 94.102 -178.8113
21.804895 94.087 -179.0752
21.962902 94.071 -179.3413
22.122054 94.056 -179.6098
22.282360 94.039 -179.8806
22.443827 94.023 179.8464
22.606464 94.006 179.5717
22.770280 93.988 179.2958
22.935283 93.970 179.0191
23.101481 93.952 178.7419
23.268884 93.934 178.4645
23.437500 93.916 178.1866
23.607338 93.897 177.9084
23.778406 93.879 177.6296
23.950714 93.860 177.3501
24.124271 93.841 177.0698
24.299086 93.823 176.7890
24.475167 93.804 176.5079
24.652524 93.785 176.2269
24.831166 93.766 175.9464
25.011103 93.748 175.6670
25.192344 93.729 175.3889
25.374898 93.711 175.1124
25.558775 93.693 174.8377
25.743984 93.674 174.5650
25.930536 93.656 174.2943
26.118439 93.639 174.0257
26.307704 93.621 173.7597
26.498341 93.603 173.4964
26.690359 93.585 173.2361
26.883768 93.567 172.9792
27.078579 93.548 172.7255
27.274801 93.530 172.4752
27.472446 93.512 172.2278
27.671522 93.493 171.9831
27.872042 93.475 171.7406
28.074014 93.456 171.5000
28.277450 93.437 171.2610
28.482360 93.417 171.0236
28.688755 93.397 170.7876
28.896645 93.376 170.5532
29.106042 93.355 170.3202
29.316957 93.334 170.0885
29.529400 93.312 169.8578
29.743382 93.290 169.6278
29.958915 93.267 169.3980
30.176009 93.245 169.1683
30.394677 93.222 168.9384
30.614929 93.198 168.7082
30.836778 93.175 168.4778
31.060234 93.151 168.2473
31.285309 93.127 168.0164
31.512015 93.103 167.7851
31.740364 93.079 167.5530
31.970368 93.055 167.3201
32.202039 93.031 167.0859
32.435388 93.007 166.8506
32.670428 92.983 166.6141
32.907171 92.959 166.3768
33.145630 92.935 166.1390
33.385817 92.911 165.9008
33.627745 92.887 165.6626
33.871425 92.863 165.4247
34.116871 92.839 165.1873
34.364096 92.814 164.9510
34.613113 92.790 164.7162
34.863934 92.765 164.4836
35.116572 92.740 164.2538
35.371041 92.715 164.0271
35.627354 92.690 163.8039
35.885525 92.665 163.5840
36.145566 92.639 163.3673
36.407492 92.614 163.1533
36.671316 92.588 162.9415
36.937051 92.563 162.7314
37.204712 92.537 162.5224
37.474313 92.510 162.3144
37.745867 92.484 162.1071
38.019389 92.457 161.9006
38.294893 92.429 161.6950
38.572394 92.402 161.4908
38.851905 92.373 161.2881
39.133442 92.344 161.0873
39.417019 92.315 160.8884
39.702651 92.286 160.6913
39.990353 92.257 160.4957
40.280140 92.228 160.3015
40.572026 92.198 160.1083
40.866028 92.169 159.9159
41.162160 92.140 159.7242
41.460438 92.110 159.5330
41.760877 92.081 159.3423
42.063494 92.052 159.1521
42.368303 92.022 158.9625
42.675322 91.993 158.7737
42.984565 91.963 158.5859
43.296048 91.933 158.3992
43.609789 91.903 158.2141
43.925804 91.872 158.0306
44.244108 91.841 157.8491
44.564719 91.810 157.6699
44.887654 91.779 157.4932
45.212928 91.747 157.3193
45.540560 91.715 157.1481
45.870565 91.683 156.9791
46.202962 91.651 156.8118
46.537768 91.620 156.6456
46.875000 91.588 156.4799
47.214676 91.556 156.3146
47.556813 91.524 156.1495
47.901429 91.492 155.9849
48.248542 91.460 155.8210
48.598171 91.428 155.6583
48.950334 91.395 155.4974
49.305048 91.362 155.3387
49.662333 91.330 155.1828
50.022206 91.297 155.0296
50.384688 91.264 154.8792
50.749796 91.231 154.7315
51.117550 91.198 154.5864
51.487969 91.165 154.4440
51.861072 91.132 154.3041
52.236879 91.099 154.1665
52.615409 91.066 154.0309
52.996681 91.033 153.8968
53.380717 91.000 153.7642
53.767536 90.967 153.6334
54.157158 90.933 153.5052
54.549603 90.900 153.3802
54.944892 90.867 153.2584
55.343045 90.835 153.1385
55.744084 90.804 153.0189
56.148028 90.773 152.8973
56.554900 90.742 152.7718
56.964720 90.712 152.6414
57.377510 90.682 152.5058
57.793291 90.651 152.3658
58.212085 90.620 152.2231
58.633914 90.588 152.0801
59.058799 90.555 151.9390
59.486764 90.521 151.8012
59.917829 90.487 151.6671
60.352019 90.452 151.5362
60.789354 90.417 151.4076
61.229859 90.381 151.2811
61.673556 90.345 151.1567
62.120468 90.309 151.0349
62.570618 90.272 150.9158
63.024031 90.235 150.7991
63.480729 90.198 150.6844
63.940736 90.161 150.5714
64.404077 90.123 150.4596
64.870776 90.086 150.3493
65.340856 90.049 150.2409
65.814343 90.011 150.1349
66.291261 89.973 150.0318
66.771635 89.936 149.9318
67.255489 89.898 149.8344
67.742850 89.860 149.7395
68.233743 89.822 149.6470
68.728193 89.784 149.5577
69.226226 89.746 149.4721
69.727867 89.708 149.3903
70.233144 89.670 149.3112
70.742083 89.633 149.2336
71.254709 89.595 149.1569
71.771050 89.558 149.0802
72.291132 89.521 149.0031
72.814984 89.483 148.9250
73.342631 89.446 148.8463
73.874102 89.408 148.7687
74.409424 89.371 148.6939
74.948626 89.333 148.6231
75.491734 89.296 148.5555
76.038779 89.259 148.4900
76.589787 89.222 148.4255
77.144788 89.186 148.3622
77.703811 89.149 148.3004
78.266885 89.113 148.2404
78.834039 89.078 148.1813
79.405303 89.042 148.1217
79.980706 89.007 148.0597
80.560280 88.972 147.9931
81.144053 88.938 147.9190
81.732056 88.903 147.8339
82.324320 88.868 147.7364
82.920876 88.830 147.6289
83.521755 88.790 147.5171
84.126988 88.748 147.4073
84.736607 88.704 147.3042
85.350643 88.659 147.2106
85.969129 88.613 147.1280
86.592097 88.567 147.0567
87.219579 88.521 146.9962
87.851608 88.476 146.9453
88.488217 88.432 146.9032
89.129439 88.388 146.8689
89.775308 88.346 146.8411
90.425856 88.304 146.8179
91.081119 88.263 146.7980
91.741131 88.222 146.7807
92.405925 88.182 146.7657
93.075536 88.142 146.7527
93.750000 88.102 146.7407
94.429351 88.062 146.7292
95.113625 88.021 146.7180
95.802858 87.981 146.7067
96.497085 87.940 146.6951
97.196342 87.899 146.6834
97.900667 87.857 146.6730
98.610096 87.816 146.6653
99.324665 87.774 146.6616
100.044413 87.732 146.6630
100.769376 87.690 146.6703
101.499592 87.650 146.6835
102.235100 87.610 146.7015
102.975938 87.570 146.7226
103.722144 87.532 146.7451
104.473757 87.493 146.7678
105.230817 87.455 146.7892
105.993363 87.418 146.8081
106.761435 87.380 146.8234
107.535072 87.343 146.8344
108.314315 87.306 146.8407
109.099206 87.268 146.8420
109.889783 87.231 146.8382
110.686090 87.193 146.8301
111.488167 87.155 146.8196
112.296056 87.115 146.8088
113.109800 87.073 146.7999
113.929440 87.028 146.7951
114.755020 86.981 146.7976
115.586582 86.931 146.8115
116.424170 86.879 146.8419
117.267827 86.825 146.8936
118.117598 86.773 146.9686
118.973527 86.723 147.0649
119.835658 86.678 147.1732
120.704037 86.638 147.2786
121.578708 86.603 147.3692
122.459718 86.571 147.4426
123.347111 86.539 147.5042
124.240935 86.506 147.5605
125.141236 86.473 147.6162
126.048061 86.438 147.6728
126.961458 86.402 147.7300
127.881473 86.366 147.7872
128.808154 86.329 147.8431
129.741551 86.292 147.8974
130.681712 86.255 147.9501
131.628686 86.218 148.0014
132.582521 86.182 148.0518
133.543269 86.144 148.1029
134.510979 86.107 148.1568
135.485701 86.069 148.2156
136.467486 86.030 148.2797
137.456386 85.992 148.3480
138.452451 85.953 148.4187
139.455735 85.914 148.4904
140.466288 85.876 148.5626
141.484165 85.838 148.6353
142.509418 85.799 148.7086
143.542100 85.761 148.7825
144.582265 85.722 148.8571
145.629968 85.683 148.9328
146.685262 85.644 149.0108
147.748204 85.605 149.0923
148.818849 85.564 149.1783
149.897251 85.523 149.2697
150.983469 85.481 149.3672
152.077557 85.438 149.4713
153.179574 85.396 149.5821
154.289576 85.353 149.6995
155.407622 85.311 149.8242
156.533770 85.271 149.9561
157.668078 85.232 150.0928
158.810606 85.195 150.2301
159.961413 85.159 150.3635
161.120559 85.123 150.4895
162.288105 85.086 150.6066
163.464112 85.049 150.7137
164.648640 85.011 150.8109
165.841752 84.973 150.9008
167.043510 84.933 150.9896
168.253976 84.893 151.0846
169.473213 84.852 151.1913
170.701286 84.812 151.3118
171.938258 84.772 151.4449
173.184194 84.733 151.5867
174.439158 84.696 151.7319
175.703216 84.659 151.8765
176.976434 84.624 152.0181
178.258878 84.590 152.1568
179.550615 84.556 152.2932
180.851713 84.522 152.4284
182.162239 84.488 152.5623
183.482262 84.453 152.6939
184.811850 84.417 152.8226
186.151073 84.381 152.9489
187.500000 84.345 153.0740
188.858702 84.308 153.1995
190.227250 84.272 153.3268
191.605715 84.236 153.4573
192.994169 84.200 153.5920
194.392685 84.165 153.7313
195.801334 84.129 153.8759
197.220191 84.094 154.0269
198.649330 84.059 154.1858
200.088825 84.024 154.3528
201.538751 83.990 154.5268
202.999184 83.957 154.7050
204.470200 83.925 154.8836
205.951875 83.894 155.0585
207.444287 83.864 155.2266
208.947514 83.834 155.3875
210.461634 83.802 155.5430
211.986726 83.769 155.6973
213.522869 83.734 155.8554
215.070144 83.697 156.0227
216.628631 83.659 156.2028
218.198411 83.621 156.3970
219.779567 83.584 156.6028
221.372180 83.548 156.8148
222.976334 83.514 157.0273
224.592112 83.481 157.2362
226.219600 83.449 157.4407
227.858880 83.417 157.6422
229.510039 83.384 157.8425
231.173164 83.352 158.0422
232.848340 83.319 158.2412
234.535655 83.286 158.4384
236.235197 83.253 158.6323
237.947054 83.221 158.8214
239.671317 83.187 159.0063
241.408074 83.154 159.1895
243.157416 83.118 159.3758
244.919435 83.082 159.5715
246.694223 83.043 159.7839
248.481871 83.003 160.0187
250.282473 82.961 160.2781
252.096123 82.920 160.5610
253.922915 82.881 160.8643
255.762945 82.843 161.1829
257.616309 82.808 161.5091
259.483103 82.774 161.8354
261.363424 82.742 162.1598
263.257372 82.709 162.4876
265.165043 82.677 162.8290
267.086538 82.644 163.1946
269.021957 82.613 163.5920
270.971401 82.585 164.0244
272.934972 82.563 164.4897
274.912771 82.548 164.9814
276.904902 82.542 165.4885
278.911469 82.546 165.9966
280.932577 82.561 166.4879
282.968330 82.586 166.9411
285.018835 82.620 167.3327
287.084199 82.660 167.6416
289.164530 82.703 167.8547
291.259935 82.743 167.9719
293.370525 82.776 168.0071
295.496408 82.799 167.9845
297.637697 82.812 167.9305
299.794503 82.816 167.8682
301.966937 82.810 167.8150
304.155114 82.797 167.7817
306.359147 82.778 167.7734
308.579152 82.756 167.7906
310.815244 82.729 167.8311
313.067539 82.700 167.8928
315.336156 82.669 167.9752
317.621211 82.636 168.0800
319.922826 82.603 168.2096
322.241118 82.569 168.3646
324.576210 82.537 168.5422
326.928223 82.507 168.7374
329.297280 82.479 168.9445
331.683504 82.452 169.1583
334.087019 82.428 169.3743
336.507952 82.405 169.5889
338.946427 82.382 169.8004
341.402572 82.359 170.0092
343.876516 82.337 170.2164
346.368387 82.314 170.4240
348.878315 82.291 170.6342
351.406431 82.268 170.8484
353.952867 82.245 171.0674
356.517756 82.222 171.2909
359.101230 82.199 171.5181
361.703426 82.176 171.7478
364.324478 82.153 171.9790
366.964523 82.129 172.2118
369.623699 82.106 172.4467
372.302145 82.083 172.6846
375.000000 82.061 172.9258
377.717405 82.038 173.1705
380.454501 82.016 173.4184
383.211431 81.995 173.6694
385.988339 81.974 173.9237
388.785369 81.954 174.1819
391.602668 81.934 174.4440
394.440383 81.915 174.7096
397.298660 81.896 174.9774
400.177650 81.877 175.2460
403.077502 81.859 175.5135
405.998368 81.841 175.7787
408.940400 81.824 176.0413
411.903750 81.806 176.3027
414.888575 81.787 176.5667
417.895028 81.768 176.8369
420.923268 81.749 177.1167
423.973452 81.731 177.4075
427.045738 81.715 177.7079
430.140287 81.700 178.0139
433.257261 81.687 178.3203
436.396822 81.676 178.6236
439.559133 81.666 178.9227
442.744360 81.657 179.2171
445.952668 81.650 179.5043
449.184225 81.643 179.7797
452.439199 81.637 -179.9624
455.717760 81.630 -179.7245
459.020079 81.620 -179.5024
462.346327 81.608 -179.2852
465.696680 81.593 -179.0606
469.071310 81.576 -178.8206
472.470394 81.558 -178.5642
475.894109 81.540 -178.2948
479.342634 81.523 -178.0190
482.816148 81.507 -177.7426
486.314833 81.490 -177.4673
489.838871 81.472 -177.1881
493.388445 81.454 -176.8967
496.963741 81.436 -176.5887
500.564945 81.420 -176.2672
504.192245 81.405 -175.9405
507.845830 81.392 -175.6163
511.525890 81.380 -175.2987
515.232618 81.368 -174.9871
518.966206 81.356 -174.6781
522.726849 81.344 -174.3668
526.514743 81.331 -174.0479
530.330086 81.318 -173.7187
534.173076 81.307 -173.3811
538.043915 81.297 -173.0401
541.942803 81.288 -172.6988
545.869944 81.280 -172.3569
549.825542 81.273 -172.0143
553.809805 81.267 -171.6733
557.822939 81.262 -171.3370
561.865154 81.258 -171.0070
565.936660 81.252 -170.6820
570.037671 81.247 -170.3589
574.168399 81.240 -170.0342
578.329060 81.232 -169.7060
582.519870 81.225 -169.3745
586.741049 81.217 -169.0396
590.992817 81.209 -168.6989
595.275394 81.201 -168.3490
599.589005 81.194 -167.9905
603.933874 81.188 -167.6269
608.310228 81.183 -167.2623
612.718295 81.178 -166.8983
617.158304 81.172 -166.5329
621.630488 81.166 -166.1611
626.135079 81.161 -165.7770
630.672311 81.156 -165.3782
635.242423 81.153 -164.9684
639.845651 81.153 -164.5537
644.482237 81.155 -164.1362
649.152421 81.159 -163.7151
653.856447 81.165 -163.2915
658.594560 81.175 -162.8725
663.367008 81.187 -162.4689
668.174039 81.200 -162.0892
673.015903 81.213 -161.7332
677.892854 81.223 -161.3929
682.805145 81.231 -161.0582
687.753032 81.237 -160.7216
692.736774 81.242 -160.3779
697.756631 81.245 -160.0227
702.812863 81.248 -159.6543
707.905735 81.252 -159.2749
713.035511 81.257 -158.8886
718.202461 81.263 -158.4992
723.406852 81.269 -158.1076
728.648956 81.276 -157.7134
733.929047 81.283 -157.3160
739.247399 81.291 -156.9154
744.604290 81.299 -156.5112
750.000000 81.307 -156.1033
755.434809 81.316 -155.6918
760.909001 81.326 -155.2764
766.422861 81.337 -154.8568
771.976677 81.348 -154.4330
777.570739 81.361 -154.0057
783.205337 81.375 -153.5760
788.880766 81.390 -153.1435
794.597321 81.406 -152.7054
800.355301 81.424 -152.2588
806.155005 81.445 -151.8040
811.996736 81.468 -151.3466
817.880799 81.496 -150.8961
823.807501 81.526 -150.4632
829.777150 81.558 -150.0566
835.790057 81.590 -149.6783
841.846536 81.620 -149.3207
847.946903 81.648 -148.9730
854.091476 81.673 -148.6271
860.280575 81.698 -148.2788
866.514523 81.721 -147.9253
872.793644 81.743 -147.5631
879.118267 81.766 -147.1922
885.488720 81.790 -146.8168
891.905336 81.815 -146.4407
898.368450 81.841 -146.0641
904.878398 81.867 -145.6847
911.435520 81.894 -145.3015
918.040157 81.923 -144.9162
924.692655 81.953 -144.5320
931.393359 81.985 -144.1519
938.142619 82.019 -143.7790
944.940787 82.053 -143.4143
951.788218 82.087 -143.0562
958.685268 82.122 -142.7024
965.632296 82.157 -142.3507
972.629666 82.192 -141.9992
979.677741 82.227 -141.6474
986.776890 82.263 -141.2957
993.927482 82.299 -140.9432
1001.129891 82.336 -140.5857
1008.384491 82.375 -140.2196
1015.691660 82.416 -139.8454
1023.051781 82.460 -139.4675
1030.465236 82.509 -139.0935
1037.932411 82.561 -138.7351
1045.453698 82.616 -138.4048
1053.029486 82.671 -138.1083
1060.660172 82.726 -137.8424
1068.346153 82.778 -137.5987
1076.087829 82.829 -137.3680
1083.885605 82.878 -137.1438
1091.739887 82.925 -136.9236
1099.651084 82.971 -136.7067
1107.619609 83.016 -136.4926
1115.645878 83.061 -136.2802
1123.730308 83.104 -136.0680
1131.873321 83.147 -135.8547
1140.075341 83.189 -135.6395
1148.336797 83.231 -135.4218
1156.658119 83.274 -135.2011
1165.039741 83.316 -134.9758
1173.482099 83.359 -134.7440
1181.985634 83.404 -134.5061
1190.550789 83.452 -134.2688
1199.178011 83.503 -134.0433
1207.867749 83.556 -133.8418
1216.620457 83.609 -133.6698
1225.436590 83.661 -133.5236
1234.316609 83.709 -133.3940
1243.260976 83.755 -133.2722
1252.270157 83.798 -133.1507
1261.344623 83.838 -133.0252
1270.484846 83.877 -132.8947
1279.691303 83.914 -132.7576
1288.964474 83.950 -132.6117
1298.304842 83.987 -132.4570
1307.712894 84.023 -132.2961
1317.189120 84.059 -132.1326
1326.734016 84.096 -131.9689
1336.348077 84.133 -131.8043
1346.031806 84.170 -131.6358
1355.785708 84.207 -131.4596
1365.610290 84.245 -131.2718
1375.506065 84.284 -131.0678
1385.473549 84.325 -130.8427
1395.513261 84.368 -130.5953
1405.625726 84.415 -130.3309
1415.811469 84.467 -130.0616
1426.071023 84.523 -129.8024
1436.404921 84.582 -129.5627
1446.813703 84.640 -129.3431
1457.297912 84.698 -129.1377
1467.858093 84.755 -128.9397
1478.494798 84.809 -128.7443
1489.208581 84.861 -128.5481
1500.000000 84.910 -128.3482
1510.869618 84.956 -128.1419
1521.818002 84.998 -127.9263
1532.845723 85.037 -127.6993
1543.953355 85.072 -127.4588
1555.141477 85.107 -127.2045
1566.410674 85.142 -126.9405
1577.761531 85.180 -126.6781
1589.194642 85.221 -126.4321
1600.710601 85.263 -126.2121
1612.310010 85.306 -126.0193
1623.993473 85.347 -125.8485
1635.761599 85.387 -125.6921
1647.615002 85.425 -125.5438
1659.554299 85.462 -125.3992
1671.580114 85.499 -125.2556
1683.693072 85.535 -125.1132
1695.893807 85.572 -124.9744
1708.182952 85.608 -124.8415
1720.561150 85.642 -124.7141
1733.029045 85.674 -124.5888
1745.587288 85.704 -124.4596
1758.236533 85.731 -124.3192
1770.977440 85.758 -124.1615
1783.810673 85.785 -123.9871
1796.736900 85.816 -123.8049
1809.756796 85.849 -123.6296
1822.871040 85.885 -123.4720
1836.080315 85.921 -123.3354
1849.385310 85.957 -123.2173
1862.786718 85.992 -123.1130
1876.285239 86.026 -123.0168
1889.881575 86.060 -122.9223
1903.576436 86.094 -122.8225
1917.370535 86.131 -122.7113
1931.264593 86.171 -122.5839
1945.259332 86.216 -122.4405
1959.355483 86.267 -122.2889
1973.553781 86.323 -122.1424
1987.854965 86.383 -122.0107
2002.259781 86.443 -121.8965
2016.768981 86.502 -121.7961
2031.383320 86.559 -121.7029
2046.103561 86.614 -121.6089
2060.930471 86.668 -121.5077
2075.864823 86.719 -121.3954
2090.907395 86.769 -121.2697
2106.058972 86.818 -121.1269
2121.320344 86.866 -120.9608
2136.692305 86.914 -120.7633
2152.175658 86.963 -120.5286
2167.771210 87.017 -120.2592
2183.479774 87.077 -119.9696
2199.302169 87.145 -119.6815
2215.239219 87.220 -119.4155
2231.291755 87.300 -119.1863
2247.460615 87.384 -119.0021
2263.746641 87.468 -118.8639
2280.150683 87.551 -118.7656
2296.673595 87.631 -118.6956
2313.316238 87.709 -118.6402
2330.079481 87.786 -118.5891
2346.964198 87.862 -118.5403
2363.971268 87.939 -118.4977
2381.101578 88.016 -118.4650
2398.356022 88.094 -118.4433
2415.735498 88.171 -118.4320
2433.240913 88.250 -118.4315
2450.873180 88.329 -118.4446
2468.633217 88.408 -118.4767
2486.521951 88.487 -118.5328
2504.540314 88.564 -118.6132
2522.689246 88.639 -118.7117
2540.969692 88.711 -118.8195
2559.382606 88.781 -118.9313
2577.928947 88.850 -119.0478
2596.609683 88.917 -119.1718
2615.425787 88.982 -119.3031
2634.378241 89.044 -119.4378
2653.468031 89.103 -119.5674
2672.696154 89.158 -119.6805
2692.063613 89.212 -119.7650
2711.571415 89.266 -119.8131
2731.220579 89.323 -119.8270
2751.012130 89.386 -119.8177
2770.947098 89.455 -119.7989
2791.026522 89.530 -119.7834
2811.251451 89.612 -119.7822
2831.622938 89.700 -119.8063
2852.142045 89.792 -119.8674
2872.809842 89.889 -119.9754
2893.627406 89.987 -120.1347
2914.595823 90.085 -120.3424
2935.716186 90.182 -120.5927
2956.989596 90.277 -120.8828
2978.417161 90.371 -121.2135
3000.000000 90.463 -121.5851
3021.739237 90.550 -121.9951
3043.636005 90.632 -122.4365
3065.691446 90.709 -122.8979
3087.906710 90.781 -123.3671
3110.282955 90.850 -123.8366
3132.821347 90.916 -124.3068
3155.523062 90.980 -124.7826
3178.389283 91.042 -125.2687
3201.421202 91.102 -125.7676
3224.620020 91.160 -126.2801
3247.986946 91.214 -126.8055
3271.523198 91.264 -127.3404
3295.230004 91.309 -127.8764
3319.108599 91.351 -128.4039
3343.160228 91.391 -128.9184
3367.386145 91.430 -129.4227
3391.787613 91.470 -129.9234
3416.365904 91.509 -130.4265
3441.122300 91.548 -130.9332
3466.058091 91.586 -131.4390
3491.174576 91.624 -131.9388
3516.473066 91.663 -132.4326
3541.954880 91.703 -132.9270
3567.621345 91.745 -133.4313
3593.473800 91.788 -133.9550
3619.513592 91.831 -134.5062
3645.742080 91.872 -135.0901
3672.160630 91.910 -135.7049
3698.770620 91.942 -136.3415
3725.573436 91.970 -136.9896
3752.570477 91.993 -137.6436
3779.763150 92.010 -138.3024
3807.152872 92.023 -138.9659
3834.741071 92.029 -139.6300
3862.529185 92.029 -140.2856
3890.518664 92.024 -140.9243
3918.710966 92.016 -141.5439
3947.107561 92.005 -142.1485
3975.709929 91.994 -142.7462
4004.519563 91.982 -143.3469
4033.537962 91.969 -143.9588
4062.766641 91.953 -144.5840
4092.207123 91.932 -145.2172
4121.860942 91.908 -145.8514
4151.729646 91.879 -146.4830
4181.814790 91.846 -147.1115
4212.117944 91.807 -147.7344
4242.640687 91.763 -148.3438
4273.384610 91.714 -148.9288
4304.351317 91.660 -149.4821
4335.542421 91.604 -150.0033
4366.959549 91.547 -150.4983
4398.604338 91.490 -150.9780
4430.478438 91.432 -151.4534
4462.583511 91.373 -151.9293
4494.921231 91.311 -152.4044
4527.493283 91.247 -152.8760
4560.301365 91.180 -153.3434
4593.347189 91.110 -153.8061
4626.632476 91.035 -154.2587
4660.158962 90.956 -154.6902
4693.928395 90.873 -155.0904
4727.942535 90.787 -155.4539
4762.203156 90.701 -155.7822
4796.712043 90.615 -156.0829
4831.470996 90.530 -156.3649
4866.481826 90.445 -156.6319
4901.746360 90.360 -156.8836
4937.266434 90.275 -157.1199
4973.043902 90.188 -157.3412
5009.080628 90.099 -157.5445
5045.378492 90.008 -157.7207
5081.939384 89.914 -157.8585
5118.765212 89.819 -157.9499
5155.857894 89.726 -157.9943
5193.219366 89.635 -157.9989
5230.851574 89.548 -157.9741
5268.756481 89.465 -157.9282
5306.936062 89.384 -157.8675
5345.392309 89.306 -157.7991
5384.127225 89.229 -157.7285
5423.142830 89.152 -157.6544
5462.441159 89.072 -157.5683
5502.024259 88.992 -157.4591
5541.894195 88.911 -157.3192
5582.053045 88.831 -157.1480
5622.502902 88.754 -156.9505
5663.245876 88.681 -156.7326
5704.284090 88.612 -156.5008
5745.619684 88.547 -156.2636
5787.254813 88.486 -156.0288
5829.191647 88.428 -155.7980
5871.432373 88.371 -155.5668
5913.979192 88.317 -155.3274
5956.834323 88.264 -155.0746
6000.000000 88.214 -154.8087
6043.478473 88.169 -154.5328
6087.272010 88.127 -154.2512
6131.382892 88.090 -153.9705
6175.813420 88.057 -153.6973
6220.565910 88.026 -153.4339
6265.642695 87.997 -153.1755
6311.046124 87.968 -152.9131
6356.778566 87.941 -152.6384
6402.842404 87.916 -152.3470
6449.240040 87.895 -152.0376
6495.973891 87.879 -151.7119
6543.046396 87.868 -151.3748
6590.460007 87.863 -151.0312
6638.217197 87.863 -150.6823
6686.320456 87.870 -150.3246
6734.772290 87.883 -149.9532
6783.575226 87.904 -149.5657
6832.731809 87.934 -149.1638
6882.244600 87.976 -148.7543
6932.116181 88.030 -148.3504
6982.349153 88.096 -147.9688
7032.946133 88.176 -147.6246
7083.909760 88.270 -147.3294
7135.242690 88.379 -147.0942
7186.947600 88.504 -146.9326
7239.027185 88.647 -146.8627
7291.484160 88.807 -146.9087
7344.321260 88.986 -147.1010
7397.541239 89.180 -147.4716
7451.146872 89.388 -148.0481
7505.140954 89.605 -148.8534
7559.526299 89.828 -149.9075
7614.305743 90.052 -151.2285
7669.482141 90.273 -152.8330
7725.058371 90.484 -154.7370
7781.037328 90.678 -156.9510
7837.421932 90.844 -159.4729
7894.215122 90.974 -162.2831
7951.419859 91.058 -165.3451
8009.039125 91.089 -168.6077
8067.075924 91.062 -172.0101
8125.533282 90.972 -175.4877
8184.414245 90.819 -178.9753
8243.721885 90.603 177.5938
8303.459292 90.323 174.2879
8363.629581 89.985 171.1731
8424.235888 89.592 168.3101
8485.281374 89.153 165.7470
8546.769221 88.677 163.5139
8608.702634 88.174 161.6230
8671.084842 87.652 160.0744
8733.919097 87.118 158.8619
8797.208675 86.579 157.9769
8860.956876 86.041 157.4092
8925.167022 85.510 157.1432
8989.842461 84.990 157.1540
9054.986566 84.487 157.4116
9120.602731 84.003 157.8859
9186.694378 83.538 158.5524
9253.264952 83.095 159.3940
9320.317925 82.675 160.3966
9387.856790 82.279 161.5424
9455.885071 81.908 162.8085
9524.406312 81.564 164.1706
9593.424086 81.245 165.6091
9662.941992 80.952 167.1123
9732.963653 80.683 168.6729
9803.492719 80.440 170.2816
9874.532869 80.220 171.9268
9946.087805 80.025 173.5971
10018.161257 79.851 175.2880
10090.756983 79.698 177.0025
10163.878768 79.566 178.7433
10237.530423 79.455 -179.4932
10311.715789 79.367 -177.7173
10386.438732 79.300 -175.9399
10461.703149 79.255 -174.1646
10537.512962 79.232 -172.3906
10613.872125 79.233 -170.6195
10690.784618 79.257 -168.8604
10768.254450 79.306 -167.1261
10846.285661 79.380 -165.4267
10924.882318 79.478 -163.7675
11004.048518 79.603 -162.1545
11083.788390 79.756 -160.5997
11164.106090 79.937 -159.1208
11245.005805 80.150 -157.7353
11326.491752 80.394 -156.4586
11408.568180 80.672 -155.3092
11491.239368 80.986 -154.3146
11574.509626 81.337 -153.5128
11658.383294 81.724 -152.9462
11742.864745 82.148 -152.6581
11827.958384 82.605 -152.6963
11913.668646 83.093 -153.1164
12000.000000 83.605 -153.9788
12086.956947 84.133 -155.3403
12174.544019 84.663 -157.2473
12262.765784 85.183 -159.7340
12351.626840 85.676 -162.8195
12441.131819 86.123 -166.4999
12531.285389 86.504 -170.7400
12622.092249 86.803 -175.4701
12713.557132 87.004 179.4102
12805.684808 87.094 174.0256
12898.480079 87.070 168.5186
12991.947783 86.928 163.0401
13086.092792 86.676 157.7350
13180.920015 86.324 152.7264
13276.434395 85.888 148.1067
13372.640911 85.384 143.9374
13469.544580 84.830 140.2508
13567.150452 84.244 137.0511
13665.463617 83.642 134.3172
13764.489200 83.037 132.0107
13864.232362 82.441 130.0846
13964.698305 81.861 128.4865
14065.892266 81.305 127.1599
14167.819519 80.779 126.0479
14270.485380 80.284 125.0987
14373.895200 79.824 124.2638
14478.054370 79.399 123.4949
14582.968320 79.009 122.7454
14688.642520 78.654 121.9743
14795.082478 78.333 121.1442
14902.293745 78.044 120.2172
15010.281908 77.786 119.1555
15119.052599 77.557 117.9231
15228.611486 77.356 116.4841
15338.964283 77.180 114.8024
15450.116741 77.024 112.8443
15562.074656 76.883 110.5799
15674.843864 76.748 107.9843
15788.430244 76.608 105.0390
15902.839718 76.449 101.7375
16018.078250 76.259 98.0903
16134.151848 76.022 94.1264
16251.066563 75.726 89.8949
16368.828491 75.357 85.4670
16487.443769 74.907 80.9340
16606.918584 74.368 76.4004
16727.259161 73.738 71.9760
16848.471777 73.018 67.7680
16970.562748 72.216 63.8706
17093.538442 71.340 60.3578
17217.405268 70.403 57.2820
17342.169684 69.419 54.6723
17467.838194 68.401 52.5338
17594.417350 67.363 50.8521
17721.913751 66.314 49.5988
17850.334044 65.263 48.7326
17979.684923 64.215 48.2051
18109.973131 63.174 47.9669
18241.205462 62.139 47.9706
18373.388756 61.107 48.1750
18506.529905 60.074 48.5526
18640.635849 59.036 49.0914
18775.713581 57.987 49.7900
18911.770141 56.926 50.6469
19048.812624 55.852 51.6447
19186.848172 54.767 52.7390
19325.883983 53.681 53.8556
19465.927305 52.615 54.8860
19606.985439 51.603 55.7101
19749.065738 50.703 56.2783
19892.175609 50.001 56.6685
20036.322514 49.608 56.9281
