* Measurement data measured by REW V5.31
* Source: EXCL: Microphone (USB Sound Device        ), MICROPHONE (Master Volume), L, volume: 0.250
* Format: 256k Log Swept Sine, 1 sweep at -4.0 dBFS with no timing reference
* Dated: Jul 6, 2024 12:15:35 AM
* REW Settings:
*  C-weighting compensation: Off
*  Target level: 75.0 dB
* Note: 7HZ FIVE L
* Measurement: L 7HZ FIVE
* Smoothing: 1/12 octave
* Frequency Step: 96 ppo
* Start Frequency: 0.36621094 Hz
*
* Freq(Hz) SPL(dB) Phase(degrees)
0.366211 82.960 166.0689
0.368865 82.956 166.0521
0.371538 82.950 166.0271
0.374230 82.942 165.9957
0.376942 82.933 165.9595
0.379673 82.924 165.9199
0.382424 82.914 165.8776
0.385196 82.904 165.8331
0.387987 82.894 165.7868
0.390798 82.884 165.7387
0.393630 82.873 165.6889
0.396483 82.863 165.6375
0.399356 82.852 165.5844
0.402250 82.841 165.5297
0.405165 82.831 165.4733
0.408101 82.820 165.4153
0.411058 82.809 165.3556
0.414037 82.798 165.2942
0.417037 82.787 165.2311
0.420059 82.776 165.1663
0.423103 82.764 165.0997
0.426169 82.753 165.0314
0.429257 82.742 164.9613
0.432368 82.730 164.8895
0.435501 82.719 164.8158
0.438656 82.707 164.7403
0.441835 82.695 164.6630
0.445037 82.683 164.5839
0.448262 82.671 164.5029
0.451510 82.659 164.4200
0.454782 82.647 164.3353
0.458077 82.635 164.2487
0.461397 82.623 164.1601
0.464740 82.611 164.0697
0.468108 82.598 163.9773
0.471500 82.586 163.8830
0.474917 82.573 163.7867
0.478358 82.560 163.6885
0.481825 82.547 163.5883
0.485316 82.535 163.4862
0.488833 82.522 163.3820
0.492375 82.508 163.2759
0.495943 82.495 163.1678
0.499537 82.482 163.0576
0.503157 82.469 162.9455
0.506803 82.455 162.8314
0.510475 82.442 162.7152
0.514175 82.428 162.5970
0.517900 82.414 162.4768
0.521653 82.400 162.3546
0.525434 82.386 162.2303
0.529241 82.372 162.1040
0.533076 82.358 161.9758
0.536939 82.344 161.8455
0.540830 82.330 161.7132
0.544749 82.315 161.5788
0.548696 82.300 161.4425
0.552673 82.286 161.3042
0.556677 82.271 161.1639
0.560711 82.256 161.0217
0.564774 82.241 160.8775
0.568867 82.226 160.7314
0.572989 82.211 160.5833
0.577141 82.195 160.4333
0.581324 82.180 160.2815
0.585536 82.164 160.1278
0.589779 82.149 159.9722
0.594053 82.133 159.8148
0.598358 82.117 159.6557
0.602694 82.101 159.4948
0.607061 82.085 159.3321
0.611460 82.069 159.1678
0.615891 82.052 159.0019
0.620354 82.036 158.8343
0.624849 82.019 158.6651
0.629377 82.003 158.4945
0.633938 81.986 158.3224
0.638532 81.969 158.1488
0.643159 81.952 157.9739
0.647819 81.934 157.7977
0.652514 81.917 157.6202
0.657242 81.900 157.4416
0.662005 81.882 157.2619
0.666802 81.864 157.0811
0.671634 81.846 156.8994
0.676501 81.829 156.7168
0.681403 81.810 156.5334
0.686341 81.792 156.3493
0.691314 81.774 156.1646
0.696324 81.755 155.9794
0.701370 81.736 155.7937
0.706452 81.717 155.6076
0.711571 81.698 155.4211
0.716728 81.678 155.2341
0.721921 81.657 155.0465
0.727153 81.635 154.8580
0.732422 81.611 154.6680
0.737729 81.586 154.4760
0.743075 81.559 154.2812
0.748460 81.532 154.0833
0.753883 81.503 153.8817
0.759346 81.473 153.6761
0.764849 81.443 153.4664
0.770391 81.412 153.2523
0.775974 81.381 153.0338
0.781597 81.349 152.8109
0.787261 81.317 152.5834
0.792966 81.284 152.3514
0.798712 81.251 152.1148
0.804500 81.218 151.8736
0.810329 81.184 151.6277
0.816201 81.149 151.3771
0.822116 81.114 151.1219
0.828073 81.079 150.8619
0.834074 81.043 150.5972
0.840118 81.006 150.3278
0.846206 80.969 150.0536
0.852338 80.931 149.7747
0.858514 80.893 149.4910
0.864735 80.853 149.2025
0.871001 80.814 148.9093
0.877313 80.773 148.6113
0.883670 80.732 148.3086
0.890074 80.690 148.0012
0.896524 80.647 147.6891
0.903020 80.604 147.3724
0.909564 80.559 147.0511
0.916155 80.514 146.7252
0.922794 80.468 146.3948
0.929481 80.421 146.0600
0.936216 80.372 145.7207
0.943000 80.323 145.3772
0.949834 80.273 145.0295
0.956717 80.222 144.6777
0.963649 80.170 144.3219
0.970632 80.116 143.9622
0.977666 80.062 143.5987
0.984750 80.006 143.2317
0.991886 79.949 142.8612
0.999074 79.890 142.4874
1.006314 79.831 142.1106
1.013606 79.770 141.7309
1.020951 79.707 141.3485
1.028349 79.643 140.9637
1.035801 79.577 140.5767
1.043307 79.510 140.1878
1.050867 79.441 139.7973
1.058482 79.371 139.4053
1.066152 79.299 139.0121
1.073878 79.225 138.6178
1.081660 79.149 138.2224
1.089498 79.071 137.8256
1.097393 78.992 137.4271
1.105345 78.910 137.0261
1.113355 78.826 136.6218
1.121423 78.740 136.2133
1.129549 78.652 135.7999
1.137734 78.562 135.3809
1.145979 78.469 134.9560
1.154283 78.375 134.5245
1.162647 78.278 134.0861
1.171072 78.179 133.6404
1.179558 78.078 133.1870
1.188106 77.975 132.7255
1.196715 77.870 132.2554
1.205387 77.762 131.7764
1.214122 77.653 131.2879
1.222920 77.541 130.7896
1.231782 77.427 130.2808
1.240708 77.311 129.7612
1.249699 77.194 129.2300
1.258754 77.074 128.6868
1.267876 76.952 128.1309
1.277063 76.828 127.5617
1.286318 76.703 126.9785
1.295639 76.575 126.3807
1.305027 76.446 125.7675
1.314484 76.314 125.1381
1.324009 76.181 124.4917
1.333604 76.046 123.8276
1.343268 75.910 123.1447
1.353002 75.772 122.4422
1.362806 75.632 121.7192
1.372681 75.491 120.9745
1.382628 75.348 120.2073
1.392647 75.203 119.4163
1.402739 75.057 118.6004
1.412904 74.910 117.7583
1.423142 74.761 116.8886
1.433455 74.610 115.9899
1.443843 74.456 115.0600
1.454305 74.300 114.0969
1.464844 74.139 113.0976
1.475459 73.973 112.0587
1.486150 73.800 110.9764
1.496920 73.619 109.8465
1.507767 73.430 108.6649
1.518693 73.233 107.4272
1.529698 73.028 106.1289
1.540783 72.816 104.7653
1.551948 72.597 103.3314
1.563194 72.372 101.8221
1.574521 72.142 100.2316
1.585931 71.907 98.5543
1.597423 71.670 96.7839
1.608999 71.431 94.9141
1.620658 71.191 92.9382
1.632402 70.951 90.8497
1.644232 70.714 88.6419
1.656146 70.479 86.3084
1.668147 70.249 83.8435
1.680235 70.025 81.2419
1.692411 69.809 78.4999
1.704675 69.602 75.6150
1.717028 69.406 72.5868
1.729470 69.224 69.4176
1.742003 69.056 66.1123
1.754626 68.905 62.6791
1.767341 68.774 59.1294
1.780147 68.663 55.4779
1.793047 68.576 51.7415
1.806040 68.514 47.9392
1.819128 68.480 44.0902
1.832310 68.474 40.2138
1.845587 68.498 36.3287
1.858961 68.551 32.4540
1.872432 68.634 28.6094
1.886001 68.746 24.8156
1.899667 68.885 21.0927
1.913433 69.050 17.4598
1.927299 69.240 13.9336
1.941265 69.451 10.5280
1.955332 69.682 7.2537
1.969501 69.932 4.1179
1.983773 70.198 1.1249
1.998148 70.476 -1.7235
2.012627 70.767 -4.4283
2.027212 71.065 -6.9919
2.041902 71.370 -9.4184
2.056698 71.679 -11.7128
2.071602 71.989 -13.8809
2.086614 72.297 -15.9291
2.101734 72.601 -17.8639
2.116964 72.899 -19.6922
2.132304 73.188 -21.4211
2.147756 73.467 -23.0580
2.163320 73.735 -24.6108
2.178996 73.991 -26.0879
2.194786 74.236 -27.4984
2.210690 74.472 -28.8511
2.226710 74.702 -30.1545
2.242845 74.927 -31.4151
2.259098 75.148 -32.6376
2.275468 75.366 -33.8252
2.291957 75.583 -34.9799
2.308566 75.797 -36.1030
2.325295 76.010 -37.1952
2.342145 76.220 -38.2569
2.359117 76.428 -39.2885
2.376212 76.634 -40.2901
2.393431 76.838 -41.2617
2.410775 77.038 -42.2035
2.428244 77.236 -43.1155
2.445840 77.430 -43.9978
2.463564 77.621 -44.8506
2.481416 77.809 -45.6741
2.499397 77.992 -46.4692
2.517509 78.171 -47.2370
2.535752 78.346 -47.9793
2.554127 78.516 -48.6987
2.572635 78.681 -49.3986
2.591277 78.840 -50.0826
2.610055 78.994 -50.7536
2.628968 79.143 -51.4137
2.648019 79.287 -52.0641
2.667208 79.426 -52.7053
2.686535 79.560 -53.3369
2.706003 79.689 -53.9585
2.725612 79.815 -54.5694
2.745363 79.937 -55.1684
2.765257 80.055 -55.7547
2.785295 80.170 -56.3271
2.805478 80.283 -56.8846
2.825808 80.394 -57.4262
2.846285 80.502 -57.9510
2.866910 80.609 -58.4586
2.887685 80.715 -58.9486
2.908611 80.818 -59.4217
2.929688 80.920 -59.8790
2.950917 81.020 -60.3222
2.972301 81.117 -60.7531
2.993839 81.212 -61.1731
3.015534 81.303 -61.5831
3.037386 81.391 -61.9836
3.059396 81.477 -62.3744
3.081565 81.560 -62.7552
3.103896 81.640 -63.1254
3.126388 81.719 -63.4843
3.149043 81.796 -63.8310
3.171862 81.872 -64.1645
3.194847 81.946 -64.4841
3.217998 82.020 -64.7887
3.241317 82.094 -65.0776
3.264805 82.166 -65.3503
3.288463 82.239 -65.6064
3.312293 82.310 -65.8461
3.336295 82.381 -66.0699
3.360471 82.450 -66.2784
3.384822 82.519 -66.4724
3.409350 82.586 -66.6530
3.434056 82.652 -66.8209
3.458940 82.717 -66.9771
3.484005 82.781 -67.1223
3.509252 82.846 -67.2575
3.534681 82.910 -67.3832
3.560295 82.975 -67.5000
3.586094 83.040 -67.6083
3.612081 83.106 -67.7083
3.638255 83.173 -67.7998
3.664620 83.241 -67.8823
3.691175 83.310 -67.9553
3.717923 83.379 -68.0185
3.744864 83.449 -68.0721
3.772001 83.520 -68.1168
3.799335 83.591 -68.1540
3.826866 83.663 -68.1851
3.854597 83.735 -68.2119
3.882529 83.809 -68.2361
3.910664 83.883 -68.2595
3.939002 83.958 -68.2836
3.967546 84.035 -68.3095
3.996296 84.112 -68.3378
4.025255 84.191 -68.3684
4.054423 84.271 -68.4009
4.083804 84.353 -68.4348
4.113396 84.435 -68.4700
4.143204 84.519 -68.5069
4.173227 84.604 -68.5464
4.203468 84.689 -68.5899
4.233928 84.775 -68.6388
4.264609 84.862 -68.6948
4.295512 84.949 -68.7593
4.326639 85.036 -68.8337
4.357992 85.124 -68.9189
4.389572 85.211 -69.0153
4.421380 85.299 -69.1229
4.453419 85.387 -69.2412
4.485691 85.475 -69.3697
4.518196 85.563 -69.5081
4.550936 85.651 -69.6560
4.583914 85.739 -69.8133
4.617131 85.826 -69.9800
4.650589 85.913 -70.1560
4.684289 85.998 -70.3417
4.718233 86.083 -70.5373
4.752424 86.166 -70.7430
4.786862 86.248 -70.9591
4.821549 86.329 -71.1854
4.856488 86.409 -71.4215
4.891680 86.488 -71.6668
4.927127 86.565 -71.9201
4.962831 86.641 -72.1802
4.998794 86.716 -72.4461
5.035017 86.789 -72.7167
5.071503 86.860 -72.9913
5.108253 86.930 -73.2696
5.145270 86.998 -73.5517
5.182555 87.065 -73.8376
5.220110 87.129 -74.1274
5.257937 87.192 -74.4205
5.296038 87.254 -74.7160
5.334415 87.314 -75.0126
5.373071 87.372 -75.3091
5.412006 87.429 -75.6043
5.451224 87.485 -75.8973
5.490725 87.540 -76.1876
5.530514 87.594 -76.4750
5.570590 87.646 -76.7597
5.610957 87.697 -77.0417
5.651616 87.747 -77.3210
5.692570 87.797 -77.5973
5.733821 87.845 -77.8701
5.775370 87.894 -78.1389
5.817221 87.942 -78.4034
5.859375 87.990 -78.6630
5.901834 88.037 -78.9178
5.944602 88.085 -79.1680
5.987679 88.133 -79.4141
6.031068 88.181 -79.6568
6.074771 88.229 -79.8968
6.118792 88.277 -80.1348
6.163131 88.326 -80.3714
6.207792 88.376 -80.6071
6.252776 88.426 -80.8420
6.298086 88.478 -81.0764
6.343725 88.530 -81.3109
6.389694 88.582 -81.5462
6.435996 88.636 -81.7833
6.482634 88.690 -82.0235
6.529610 88.745 -82.2677
6.576926 88.801 -82.5167
6.624585 88.858 -82.7710
6.672590 88.916 -83.0308
6.720942 88.974 -83.2963
6.769645 89.032 -83.5680
6.818700 89.092 -83.8462
6.868111 89.151 -84.1315
6.917881 89.211 -84.4244
6.968010 89.271 -84.7253
7.018504 89.331 -85.0341
7.069362 89.391 -85.3507
7.120590 89.450 -85.6747
7.172189 89.510 -86.0056
7.224161 89.570 -86.3430
7.276511 89.629 -86.6865
7.329239 89.687 -87.0358
7.382350 89.745 -87.3905
7.435845 89.803 -87.7504
7.489729 89.860 -88.1146
7.544002 89.916 -88.4823
7.598669 89.972 -88.8527
7.653732 90.027 -89.2250
7.709194 90.082 -89.5984
7.765058 90.137 -89.9728
7.821327 90.190 -90.3476
7.878004 90.244 -90.7224
7.935091 90.297 -91.0966
7.992592 90.350 -91.4697
8.050510 90.403 -91.8412
8.108847 90.456 -92.2108
8.167607 90.508 -92.5784
8.226793 90.561 -92.9441
8.286408 90.614 -93.3079
8.346454 90.668 -93.6700
8.406936 90.721 -94.0303
8.467856 90.775 -94.3890
8.529218 90.830 -94.7463
8.591024 90.885 -95.1024
8.653278 90.940 -95.4577
8.715983 90.996 -95.8126
8.779143 91.053 -96.1675
8.842760 91.110 -96.5225
8.906839 91.167 -96.8779
8.971381 91.225 -97.2338
9.036392 91.283 -97.5903
9.101873 91.341 -97.9476
9.167829 91.399 -98.3058
9.234263 91.458 -98.6648
9.301178 91.517 -99.0246
9.368578 91.575 -99.3848
9.436467 91.634 -99.7453
9.504847 91.693 -100.1057
9.573723 91.751 -100.4660
9.643099 91.808 -100.8258
9.712976 91.865 -101.1849
9.783361 91.920 -101.5429
9.854255 91.973 -101.8998
9.925663 92.024 -102.2552
9.997588 92.072 -102.6091
10.070035 92.119 -102.9615
10.143007 92.163 -103.3125
10.216507 92.206 -103.6623
10.290540 92.248 -104.0110
10.365109 92.288 -104.3588
10.440219 92.327 -104.7061
10.515873 92.366 -105.0532
10.592076 92.405 -105.4007
10.668830 92.443 -105.7487
10.746141 92.481 -106.0976
10.824012 92.519 -106.4475
10.902447 92.556 -106.7985
10.981451 92.593 -107.1508
11.061027 92.629 -107.5042
11.141180 92.664 -107.8583
11.221913 92.698 -108.2128
11.303232 92.731 -108.5668
11.385140 92.764 -108.9199
11.467641 92.795 -109.2711
11.550741 92.825 -109.6196
11.634442 92.854 -109.9643
11.718750 92.883 -110.3041
11.803669 92.911 -110.6382
11.889203 92.938 -110.9658
11.975357 92.965 -111.2864
12.062136 92.992 -111.5994
12.149543 93.019 -111.9046
12.237583 93.046 -112.2023
12.326262 93.074 -112.4930
12.415583 93.102 -112.7777
12.505552 93.131 -113.0574
12.596172 93.161 -113.3337
12.687449 93.192 -113.6084
12.779387 93.224 -113.8836
12.871992 93.256 -114.1615
12.965268 93.290 -114.4440
13.059220 93.325 -114.7334
13.153852 93.361 -115.0314
13.249170 93.397 -115.3398
13.345179 93.433 -115.6597
13.441884 93.470 -115.9919
13.539289 93.506 -116.3365
13.637401 93.541 -116.6934
13.736223 93.574 -117.0617
13.835761 93.607 -117.4399
13.936021 93.636 -117.8263
14.037007 93.664 -118.2186
14.138725 93.689 -118.6145
14.241180 93.712 -119.0110
14.344377 93.732 -119.4054
14.448323 93.749 -119.7951
14.553021 93.765 -120.1777
14.658478 93.779 -120.5509
14.764700 93.791 -120.9131
14.871691 93.803 -121.2632
14.979457 93.815 -121.6007
15.088005 93.827 -121.9256
15.197339 93.840 -122.2388
15.307465 93.854 -122.5417
15.418389 93.869 -122.8362
15.530117 93.886 -123.1246
15.642655 93.905 -123.4095
15.756008 93.926 -123.6938
15.870182 93.950 -123.9801
15.985184 93.974 -124.2712
16.101019 94.001 -124.5692
16.217694 94.029 -124.8761
16.335214 94.058 -125.1932
16.453586 94.088 -125.5214
16.572815 94.119 -125.8609
16.692909 94.149 -126.2116
16.813872 94.180 -126.5726
16.935713 94.211 -126.9430
17.058436 94.241 -127.3213
17.182048 94.271 -127.7061
17.306556 94.300 -128.0956
17.431967 94.328 -128.4882
17.558286 94.355 -128.8825
17.685521 94.381 -129.2770
17.813677 94.406 -129.6707
17.942762 94.430 -130.0627
18.072783 94.454 -130.4524
18.203746 94.478 -130.8396
18.335658 94.501 -131.2240
18.468526 94.523 -131.6059
18.602356 94.546 -131.9853
18.737156 94.569 -132.3627
18.872934 94.591 -132.7383
19.009695 94.614 -133.1125
19.147447 94.636 -133.4855
19.286197 94.658 -133.8576
19.425953 94.680 -134.2287
19.566721 94.702 -134.5989
19.708510 94.722 -134.9680
19.851326 94.743 -135.3359
19.995177 94.762 -135.7022
20.140070 94.781 -136.0667
20.286013 94.799 -136.4292
20.433014 94.816 -136.7893
20.581080 94.832 -137.1469
20.730219 94.848 -137.5017
20.880439 94.863 -137.8536
21.031747 94.878 -138.2027
21.184152 94.892 -138.5487
21.337661 94.906 -138.8918
21.492282 94.920 -139.2320
21.648024 94.933 -139.5695
21.804895 94.947 -139.9045
21.962902 94.960 -140.2374
22.122054 94.973 -140.5685
22.282360 94.986 -140.8985
22.443827 94.999 -141.2280
22.606464 95.012 -141.5578
22.770280 95.025 -141.8885
22.935283 95.038 -142.2209
23.101481 95.051 -142.5557
23.268884 95.064 -142.8933
23.437500 95.077 -143.2339
23.607338 95.090 -143.5778
23.778406 95.102 -143.9248
23.950714 95.113 -144.2745
24.124271 95.124 -144.6264
24.299086 95.135 -144.9802
24.475167 95.145 -145.3352
24.652524 95.155 -145.6911
24.831166 95.165 -146.0474
25.011103 95.175 -146.4039
25.192344 95.184 -146.7607
25.374898 95.194 -147.1174
25.558775 95.203 -147.4743
25.743984 95.212 -147.8313
25.930536 95.222 -148.1882
26.118439 95.231 -148.5450
26.307704 95.240 -148.9014
26.498341 95.249 -149.2573
26.690359 95.258 -149.6123
26.883768 95.266 -149.9662
27.078579 95.274 -150.3186
27.274801 95.282 -150.6692
27.472446 95.289 -151.0179
27.671522 95.297 -151.3642
27.872042 95.303 -151.7081
28.074014 95.310 -152.0493
28.277450 95.316 -152.3880
28.482360 95.321 -152.7241
28.688755 95.326 -153.0579
28.896645 95.331 -153.3898
29.106042 95.336 -153.7201
29.316957 95.340 -154.0493
29.529400 95.344 -154.3778
29.743382 95.348 -154.7059
29.958915 95.351 -155.0339
30.176009 95.354 -155.3617
30.394677 95.357 -155.6895
30.614929 95.359 -156.0174
30.836778 95.362 -156.3457
31.060234 95.363 -156.6746
31.285309 95.365 -157.0047
31.512015 95.366 -157.3364
31.740364 95.367 -157.6700
31.970368 95.367 -158.0056
32.202039 95.367 -158.3432
32.435388 95.367 -158.6822
32.670428 95.366 -159.0224
32.907171 95.364 -159.3631
33.145630 95.363 -159.7041
33.385817 95.361 -160.0452
33.627745 95.359 -160.3863
33.871425 95.357 -160.7277
34.116871 95.355 -161.0694
34.364096 95.353 -161.4115
34.613113 95.351 -161.7536
34.863934 95.348 -162.0952
35.116572 95.345 -162.4357
35.371041 95.342 -162.7744
35.627354 95.339 -163.1112
35.885525 95.336 -163.4459
36.145566 95.333 -163.7790
36.407492 95.329 -164.1112
36.671316 95.326 -164.4431
36.937051 95.322 -164.7749
37.204712 95.318 -165.1063
37.474313 95.312 -165.4364
37.745867 95.306 -165.7637
38.019389 95.300 -166.0865
38.294893 95.292 -166.4035
38.572394 95.284 -166.7138
38.851905 95.277 -167.0177
39.133442 95.269 -167.3163
39.417019 95.262 -167.6115
39.702651 95.256 -167.9053
39.990353 95.250 -168.1999
40.280140 95.245 -168.4969
40.572026 95.239 -168.7970
40.866028 95.234 -169.1008
41.162160 95.228 -169.4077
41.460438 95.222 -169.7169
41.760877 95.215 -170.0272
42.063494 95.208 -170.3372
42.368303 95.201 -170.6459
42.675322 95.193 -170.9525
42.984565 95.186 -171.2573
43.296048 95.179 -171.5614
43.609789 95.172 -171.8665
43.925804 95.165 -172.1745
44.244108 95.159 -172.4862
44.564719 95.152 -172.8014
44.887654 95.145 -173.1187
45.212928 95.137 -173.4364
45.540560 95.128 -173.7528
45.870565 95.119 -174.0673
46.202962 95.110 -174.3803
46.537768 95.101 -174.6926
46.875000 95.092 -175.0052
47.214676 95.083 -175.3184
47.556813 95.073 -175.6317
47.901429 95.062 -175.9441
48.248542 95.051 -176.2542
48.598171 95.039 -176.5608
48.950334 95.027 -176.8632
49.305048 95.015 -177.1610
49.662333 95.003 -177.4547
50.022206 94.991 -177.7457
50.384688 94.979 -178.0358
50.749796 94.968 -178.3270
51.117550 94.957 -178.6202
51.487969 94.945 -178.9151
51.861072 94.932 -179.2105
52.236879 94.920 -179.5052
52.615409 94.907 -179.7985
52.996681 94.893 179.9095
53.380717 94.880 179.6191
53.767536 94.866 179.3309
54.157158 94.852 179.0457
54.549603 94.839 178.7638
54.944892 94.826 178.4837
55.343045 94.814 178.2025
55.744084 94.803 177.9174
56.148028 94.791 177.6273
56.554900 94.780 177.3336
56.964720 94.767 177.0386
57.377510 94.755 176.7438
57.793291 94.742 176.4485
58.212085 94.729 176.1508
58.633914 94.716 175.8493
59.058799 94.702 175.5452
59.486764 94.687 175.2413
59.917829 94.671 174.9404
60.352019 94.654 174.6436
60.789354 94.636 174.3495
61.229859 94.619 174.0565
61.673556 94.600 173.7637
62.120468 94.582 173.4722
62.570618 94.562 173.1838
63.024031 94.542 172.8993
63.480729 94.523 172.6177
63.940736 94.503 172.3373
64.404077 94.484 172.0563
64.870776 94.464 171.7747
65.340856 94.444 171.4934
65.814343 94.424 171.2140
66.291261 94.404 170.9371
66.771635 94.383 170.6628
67.255489 94.363 170.3901
67.742850 94.342 170.1185
68.233743 94.321 169.8479
68.728193 94.301 169.5789
69.226226 94.279 169.3119
69.727867 94.258 169.0468
70.233144 94.237 168.7827
70.742083 94.216 168.5184
71.254709 94.194 168.2530
71.771050 94.172 167.9869
72.291132 94.149 167.7214
72.814984 94.126 167.4581
73.342631 94.103 167.1981
73.874102 94.080 166.9418
74.409424 94.056 166.6884
74.948626 94.034 166.4366
75.491734 94.011 166.1851
76.038779 93.989 165.9326
76.589787 93.967 165.6784
77.144788 93.946 165.4224
77.703811 93.925 165.1644
78.266885 93.903 164.9041
78.834039 93.882 164.6401
79.405303 93.861 164.3712
79.980706 93.840 164.0962
80.560280 93.818 163.8148
81.144053 93.796 163.5274
81.732056 93.772 163.2354
82.324320 93.747 162.9404
82.920876 93.721 162.6444
83.521755 93.693 162.3497
84.126988 93.663 162.0590
84.736607 93.632 161.7745
85.350643 93.600 161.4977
85.969129 93.567 161.2296
86.592097 93.534 160.9705
87.219579 93.500 160.7208
87.851608 93.467 160.4798
88.488217 93.433 160.2465
89.129439 93.401 160.0191
89.775308 93.369 159.7957
90.425856 93.337 159.5743
91.081119 93.307 159.3536
91.741131 93.276 159.1325
92.405925 93.245 158.9113
93.075536 93.215 158.6909
93.750000 93.184 158.4723
94.429351 93.153 158.2559
95.113625 93.122 158.0417
95.802858 93.091 157.8291
96.497085 93.060 157.6176
97.196342 93.029 157.4068
97.900667 92.997 157.1966
98.610096 92.965 156.9878
99.324665 92.932 156.7815
100.044413 92.899 156.5796
100.769376 92.865 156.3839
101.499592 92.830 156.1959
102.235100 92.796 156.0155
102.975938 92.762 155.8421
103.722144 92.729 155.6735
104.473757 92.697 155.5066
105.230817 92.666 155.3381
105.993363 92.636 155.1650
106.761435 92.607 154.9853
107.535072 92.578 154.7978
108.314315 92.550 154.6014
109.099206 92.522 154.3957
109.889783 92.493 154.1801
110.686090 92.464 153.9548
111.488167 92.433 153.7213
112.296056 92.401 153.4821
113.109800 92.366 153.2402
113.929440 92.328 152.9994
114.755020 92.287 152.7641
115.586582 92.243 152.5393
116.424170 92.197 152.3295
117.267827 92.150 152.1384
118.117598 92.103 151.9678
118.973527 92.059 151.8172
119.835658 92.017 151.6819
120.704037 91.979 151.5532
121.578708 91.944 151.4223
122.459718 91.911 151.2852
123.347111 91.879 151.1429
124.240935 91.847 150.9980
125.141236 91.813 150.8522
126.048061 91.779 150.7064
126.961458 91.743 150.5608
127.881473 91.705 150.4156
128.808154 91.666 150.2712
129.741551 91.626 150.1272
130.681712 91.585 149.9830
131.628686 91.543 149.8375
132.582521 91.499 149.6896
133.543269 91.455 149.5385
134.510979 91.409 149.3839
135.485701 91.362 149.2261
136.467486 91.315 149.0659
137.456386 91.268 148.9048
138.452451 91.222 148.7451
139.455735 91.176 148.5903
140.466288 91.131 148.4436
141.484165 91.086 148.3071
142.509418 91.041 148.1810
143.542100 90.995 148.0630
144.582265 90.947 147.9490
145.629968 90.896 147.8344
146.685262 90.844 147.7159
147.748204 90.790 147.5931
148.818849 90.734 147.4696
149.897251 90.678 147.3524
150.983469 90.621 147.2503
152.077557 90.565 147.1702
153.179574 90.510 147.1149
154.289576 90.455 147.0850
155.407622 90.402 147.0786
156.533770 90.351 147.0892
157.668078 90.301 147.1064
158.810606 90.251 147.1207
159.961413 90.201 147.1278
161.120559 90.150 147.1292
162.288105 90.098 147.1290
163.464112 90.046 147.1327
164.648640 89.994 147.1479
165.841752 89.945 147.1825
167.043510 89.899 147.2387
168.253976 89.859 147.3113
169.473213 89.824 147.3928
170.701286 89.793 147.4767
171.938258 89.764 147.5574
173.184194 89.738 147.6290
174.439158 89.713 147.6847
175.703216 89.690 147.7188
176.976434 89.668 147.7283
178.258878 89.648 147.7134
179.550615 89.628 147.6765
180.851713 89.609 147.6204
182.162239 89.589 147.5471
183.482262 89.569 147.4572
184.811850 89.547 147.3501
186.151073 89.524 147.2254
187.500000 89.498 147.0831
188.858702 89.469 146.9249
190.227250 89.438 146.7540
191.605715 89.403 146.5742
192.994169 89.365 146.3899
194.392685 89.325 146.2048
195.801334 89.281 146.0227
197.220191 89.236 145.8473
198.649330 89.188 145.6824
200.088825 89.138 145.5315
201.538751 89.088 145.3965
202.999184 89.037 145.2775
204.470200 88.986 145.1714
205.951875 88.935 145.0736
207.444287 88.883 144.9796
208.947514 88.831 144.8871
210.461634 88.776 144.7964
211.986726 88.719 144.7104
213.522869 88.660 144.6335
215.070144 88.599 144.5708
216.628631 88.536 144.5264
218.198411 88.473 144.5020
219.779567 88.411 144.4952
221.372180 88.350 144.5005
222.976334 88.290 144.5114
224.592112 88.231 144.5233
226.219600 88.172 144.5337
227.858880 88.114 144.5424
229.510039 88.056 144.5505
231.173164 87.998 144.5603
232.848340 87.940 144.5734
234.535655 87.882 144.5903
236.235197 87.824 144.6100
237.947054 87.765 144.6313
239.671317 87.706 144.6537
241.408074 87.646 144.6784
243.157416 87.585 144.7081
244.919435 87.523 144.7458
246.694223 87.460 144.7949
248.481871 87.396 144.8584
250.282473 87.331 144.9393
252.096123 87.267 145.0387
253.922915 87.205 145.1553
255.762945 87.145 145.2835
257.616309 87.089 145.4139
259.483103 87.035 145.5366
261.363424 86.982 145.6462
263.257372 86.928 145.7435
265.165043 86.873 145.8348
267.086538 86.816 145.9278
269.021957 86.757 146.0293
270.971401 86.698 146.1435
272.934972 86.639 146.2714
274.912771 86.582 146.4118
276.904902 86.525 146.5625
278.911469 86.471 146.7216
280.932577 86.418 146.8867
282.968330 86.367 147.0539
285.018835 86.319 147.2170
287.084199 86.272 147.3685
289.164530 86.225 147.5019
291.259935 86.178 147.6161
293.370525 86.129 147.7167
295.496408 86.077 147.8136
297.637697 86.023 147.9171
299.794503 85.966 148.0336
301.966937 85.907 148.1652
304.155114 85.848 148.3101
306.359147 85.789 148.4644
308.579152 85.731 148.6240
310.815244 85.673 148.7859
313.067539 85.614 148.9492
315.336156 85.556 149.1160
317.621211 85.496 149.2902
319.922826 85.436 149.4760
322.241118 85.376 149.6756
324.576210 85.316 149.8881
326.928223 85.257 150.1108
329.297280 85.199 150.3401
331.683504 85.143 150.5727
334.087019 85.087 150.8055
336.507952 85.031 151.0371
338.946427 84.976 151.2675
341.402572 84.921 151.4986
343.876516 84.865 151.7330
346.368387 84.808 151.9733
348.878315 84.750 152.2208
351.406431 84.693 152.4757
353.952867 84.635 152.7374
356.517756 84.578 153.0047
359.101230 84.521 153.2770
361.703426 84.464 153.5539
364.324478 84.407 153.8352
366.964523 84.351 154.1212
369.623699 84.295 154.4126
372.302145 84.240 154.7099
375.000000 84.185 155.0130
377.717405 84.131 155.3212
380.454501 84.078 155.6336
383.211431 84.024 155.9504
385.988339 83.972 156.2718
388.785369 83.919 156.5981
391.602668 83.867 156.9294
394.440383 83.815 157.2654
397.298660 83.764 157.6064
400.177650 83.713 157.9517
403.077502 83.664 158.3003
405.998368 83.614 158.6505
408.940400 83.565 159.0012
411.903750 83.516 159.3533
414.888575 83.466 159.7100
417.895028 83.416 160.0751
420.923268 83.366 160.4514
423.973452 83.317 160.8400
427.045738 83.270 161.2399
430.140287 83.224 161.6474
433.257261 83.181 162.0578
436.396822 83.139 162.4675
439.559133 83.099 162.8755
442.744360 83.060 163.2820
445.952668 83.023 163.6847
449.184225 82.988 164.0791
452.439199 82.953 164.4588
455.717760 82.918 164.8201
459.020079 82.881 165.1663
462.346327 82.841 165.5081
465.696680 82.798 165.8583
469.071310 82.753 166.2255
472.470394 82.707 166.6117
475.894109 82.661 167.0135
479.342634 82.616 167.4245
482.816148 82.571 167.8385
486.314833 82.527 168.2543
489.838871 82.482 168.6770
493.388445 82.437 169.1151
496.963741 82.393 169.5726
500.564945 82.350 170.0453
504.192245 82.310 170.5242
507.845830 82.272 171.0014
511.525890 82.235 171.4735
515.232618 82.198 171.9412
518.966206 82.161 172.4082
522.726849 82.123 172.8799
526.514743 82.086 173.3618
530.330086 82.048 173.8566
534.173076 82.012 174.3622
538.043915 81.978 174.8736
541.942803 81.945 175.3878
545.869944 81.913 175.9051
549.825542 81.883 176.4265
553.809805 81.854 176.9503
557.822939 81.826 177.4734
561.865154 81.799 177.9934
565.936660 81.772 178.5101
570.037671 81.745 179.0260
574.168399 81.717 179.5445
578.329060 81.690 -179.9322
582.519870 81.662 -179.4038
586.741049 81.635 -178.8702
590.992817 81.609 -178.3290
595.275394 81.583 -177.7776
599.589005 81.558 -177.2165
603.933874 81.535 -176.6497
608.310228 81.514 -176.0816
612.718295 81.493 -175.5138
617.158304 81.472 -174.9441
621.630488 81.451 -174.3660
626.135079 81.431 -173.7730
630.672311 81.412 -173.1635
635.242423 81.396 -172.5429
639.845651 81.382 -171.9185
644.482237 81.371 -171.2932
649.152421 81.363 -170.6656
653.856447 81.358 -170.0371
658.594560 81.355 -169.4143
663.367008 81.356 -168.8075
668.174039 81.357 -168.2242
673.015903 81.358 -167.6627
677.892854 81.357 -167.1136
682.805145 81.354 -166.5663
687.753032 81.348 -166.0132
692.736774 81.341 -165.4493
697.756631 81.334 -164.8720
702.812863 81.326 -164.2821
707.905735 81.320 -163.6843
713.035511 81.315 -163.0844
718.202461 81.312 -162.4860
723.406852 81.311 -161.8896
728.648956 81.310 -161.2932
733.929047 81.311 -160.6947
739.247399 81.312 -160.0916
744.604290 81.314 -159.4819
750.000000 81.316 -158.8637
755.434809 81.318 -158.2365
760.909001 81.321 -157.6008
766.422861 81.325 -156.9586
771.976677 81.329 -156.3123
777.570739 81.335 -155.6647
783.205337 81.342 -155.0166
788.880766 81.351 -154.3664
794.597321 81.361 -153.7104
800.355301 81.373 -153.0461
806.155005 81.388 -152.3753
811.996736 81.407 -151.7044
817.880799 81.429 -151.0419
823.807501 81.455 -150.3968
829.777150 81.483 -149.7768
835.790057 81.510 -149.1841
841.846536 81.537 -148.6121
847.946903 81.560 -148.0503
854.091476 81.582 -147.4904
860.280575 81.602 -146.9280
866.514523 81.621 -146.3595
872.793644 81.638 -145.7806
879.118267 81.656 -145.1904
885.488720 81.674 -144.5922
891.905336 81.692 -143.9895
898.368450 81.711 -143.3819
904.878398 81.730 -142.7670
911.435520 81.750 -142.1434
918.040157 81.771 -141.5122
924.692655 81.793 -140.8753
931.393359 81.817 -140.2341
938.142619 81.842 -139.5905
944.940787 81.869 -138.9443
951.788218 81.896 -138.2929
958.685268 81.925 -137.6328
965.632296 81.954 -136.9603
972.629666 81.986 -136.2723
979.677741 82.021 -135.5685
986.776890 82.060 -134.8516
993.927482 82.102 -134.1249
1001.129891 82.149 -133.3897
1008.384491 82.200 -132.6488
1015.691660 82.258 -131.9105
1023.051781 82.321 -131.1857
1030.465236 82.390 -130.4862
1037.932411 82.464 -129.8257
1045.453698 82.542 -129.2169
1053.029486 82.620 -128.6639
1060.660172 82.697 -128.1604
1068.346153 82.771 -127.6939
1076.087829 82.840 -127.2509
1083.885605 82.906 -126.8200
1091.739887 82.969 -126.3947
1099.651084 83.030 -125.9709
1107.619609 83.088 -125.5455
1115.645878 83.144 -125.1155
1123.730308 83.198 -124.6787
1131.873321 83.250 -124.2330
1140.075341 83.302 -123.7769
1148.336797 83.353 -123.3090
1156.658119 83.404 -122.8278
1165.039741 83.455 -122.3320
1173.482099 83.509 -121.8203
1181.985634 83.565 -121.2944
1190.550789 83.625 -120.7619
1199.178011 83.689 -120.2351
1207.867749 83.757 -119.7269
1216.620457 83.826 -119.2439
1225.436590 83.896 -118.7831
1234.316609 83.964 -118.3360
1243.260976 84.031 -117.8942
1252.270157 84.098 -117.4509
1261.344623 84.164 -117.0031
1270.484846 84.231 -116.5515
1279.691303 84.298 -116.0964
1288.964474 84.367 -115.6377
1298.304842 84.436 -115.1778
1307.712894 84.507 -114.7215
1317.189120 84.580 -114.2747
1326.734016 84.654 -113.8412
1336.348077 84.730 -113.4216
1346.031806 84.806 -113.0136
1355.785708 84.883 -112.6147
1365.610290 84.961 -112.2223
1375.506065 85.041 -111.8327
1385.473549 85.121 -111.4420
1395.513261 85.203 -111.0494
1405.625726 85.287 -110.6600
1415.811469 85.372 -110.2845
1426.071023 85.457 -109.9346
1436.404921 85.540 -109.6152
1446.813703 85.618 -109.3204
1457.297912 85.689 -109.0374
1467.858093 85.753 -108.7514
1478.494798 85.810 -108.4489
1489.208581 85.859 -108.1168
1500.000000 85.900 -107.7426
1510.869618 85.933 -107.3137
1521.818002 85.960 -106.8185
1532.845723 85.981 -106.2462
1543.953355 85.998 -105.5874
1555.141477 86.017 -104.8350
1566.410674 86.040 -103.9883
1577.761531 86.072 -103.0568
1589.194642 86.117 -102.0582
1600.710601 86.178 -101.0120
1612.310010 86.255 -99.9363
1623.993473 86.350 -98.8518
1635.761599 86.464 -97.7844
1647.615002 86.596 -96.7661
1659.554299 86.745 -95.8293
1671.580114 86.908 -95.0016
1683.693072 87.078 -94.3008
1695.893807 87.251 -93.7327
1708.182952 87.421 -93.2887
1720.561150 87.583 -92.9466
1733.029045 87.734 -92.6752
1745.587288 87.873 -92.4407
1758.236533 88.002 -92.2117
1770.977440 88.123 -91.9639
1783.810673 88.240 -91.6854
1796.736900 88.357 -91.3784
1809.756796 88.476 -91.0536
1822.871040 88.596 -90.7207
1836.080315 88.719 -90.3831
1849.385310 88.844 -90.0401
1862.786718 88.972 -89.6905
1876.285239 89.105 -89.3341
1889.881575 89.244 -88.9725
1903.576436 89.391 -88.6091
1917.370535 89.548 -88.2487
1931.264593 89.716 -87.8977
1945.259332 89.895 -87.5653
1959.355483 90.084 -87.2661
1973.553781 90.283 -87.0162
1987.854965 90.488 -86.8263
2002.259781 90.697 -86.6991
2016.768981 90.907 -86.6314
2031.383320 91.119 -86.6185
2046.103561 91.332 -86.6569
2060.930471 91.545 -86.7459
2075.864823 91.759 -86.8889
2090.907395 91.973 -87.0912
2106.058972 92.185 -87.3567
2121.320344 92.394 -87.6858
2136.692305 92.599 -88.0742
2152.175658 92.798 -88.5158
2167.771210 92.993 -89.0064
2183.479774 93.184 -89.5477
2199.302169 93.368 -90.1426
2215.239219 93.546 -90.7903
2231.291755 93.716 -91.4844
2247.460615 93.877 -92.2152
2263.746641 94.030 -92.9712
2280.150683 94.176 -93.7405
2296.673595 94.314 -94.5119
2313.316238 94.448 -95.2776
2330.079481 94.579 -96.0361
2346.964198 94.710 -96.7951
2363.971268 94.840 -97.5675
2381.101578 94.969 -98.3651
2398.356022 95.097 -99.1949
2415.735498 95.222 -100.0599
2433.240913 95.344 -100.9611
2450.873180 95.462 -101.8998
2468.633217 95.576 -102.8785
2486.521951 95.686 -103.8990
2504.540314 95.789 -104.9599
2522.689246 95.886 -106.0560
2540.969692 95.977 -107.1811
2559.382606 96.061 -108.3333
2577.928947 96.140 -109.5166
2596.609683 96.213 -110.7363
2615.425787 96.278 -111.9952
2634.378241 96.333 -113.2913
2653.468031 96.378 -114.6173
2672.696154 96.411 -115.9613
2692.063613 96.432 -117.3082
2711.571415 96.443 -118.6452
2731.220579 96.444 -119.9662
2751.012130 96.437 -121.2714
2770.947098 96.422 -122.5619
2791.026522 96.397 -123.8369
2811.251451 96.363 -125.0919
2831.622938 96.320 -126.3207
2852.142045 96.267 -127.5158
2872.809842 96.204 -128.6691
2893.627406 96.132 -129.7697
2914.595823 96.051 -130.8038
2935.716186 95.963 -131.7594
2956.989596 95.871 -132.6319
2978.417161 95.777 -133.4243
3000.000000 95.682 -134.1443
3021.739237 95.587 -134.8008
3043.636005 95.492 -135.3997
3065.691446 95.398 -135.9429
3087.906710 95.306 -136.4294
3110.282955 95.216 -136.8612
3132.821347 95.130 -137.2476
3155.523062 95.049 -137.6026
3178.389283 94.972 -137.9404
3201.421202 94.898 -138.2719
3224.620020 94.825 -138.6042
3247.986946 94.752 -138.9400
3271.523198 94.678 -139.2767
3295.230004 94.599 -139.6050
3319.108599 94.517 -139.9108
3343.160228 94.430 -140.1823
3367.386145 94.341 -140.4111
3391.787613 94.249 -140.5909
3416.365904 94.157 -140.7140
3441.122300 94.063 -140.7706
3466.058091 93.971 -140.7497
3491.174576 93.883 -140.6458
3516.473066 93.802 -140.4650
3541.954880 93.732 -140.2249
3567.621345 93.674 -139.9494
3593.473800 93.627 -139.6637
3619.513592 93.590 -139.3909
3645.742080 93.560 -139.1483
3672.160630 93.535 -138.9429
3698.770620 93.512 -138.7703
3725.573436 93.489 -138.6210
3752.570477 93.465 -138.4873
3779.763150 93.440 -138.3647
3807.152872 93.413 -138.2485
3834.741071 93.381 -138.1300
3862.529185 93.346 -137.9955
3890.518664 93.307 -137.8325
3918.710966 93.268 -137.6358
3947.107561 93.230 -137.4077
3975.709929 93.193 -137.1557
4004.519563 93.159 -136.8892
4033.537962 93.127 -136.6165
4062.766641 93.095 -136.3387
4092.207123 93.062 -136.0487
4121.860942 93.028 -135.7366
4151.729646 92.994 -135.3956
4181.814790 92.959 -135.0213
4212.117944 92.923 -134.6076
4242.640687 92.886 -134.1419
4273.384610 92.850 -133.6087
4304.351317 92.816 -132.9974
4335.542421 92.788 -132.3055
4366.959549 92.768 -131.5392
4398.604338 92.758 -130.7116
4430.478438 92.761 -129.8380
4462.583511 92.775 -128.9285
4494.921231 92.801 -127.9879
4527.493283 92.841 -127.0207
4560.301365 92.895 -126.0347
4593.347189 92.963 -125.0379
4626.632476 93.045 -124.0331
4660.158962 93.144 -123.0187
4693.928395 93.259 -121.9954
4727.942535 93.394 -120.9720
4762.203156 93.550 -119.9659
4796.712043 93.730 -119.0024
4831.470996 93.932 -118.1080
4866.481826 94.156 -117.3049
4901.746360 94.401 -116.6124
4937.266434 94.665 -116.0506
4973.043902 94.945 -115.6400
5009.080628 95.238 -115.3958
5045.378492 95.542 -115.3268
5081.939384 95.855 -115.4410
5118.765212 96.176 -115.7510
5155.857894 96.502 -116.2758
5193.219366 96.833 -117.0390
5230.851574 97.163 -118.0632
5268.756481 97.489 -119.3655
5306.936062 97.804 -120.9571
5345.392309 98.104 -122.8444
5384.127225 98.380 -125.0254
5423.142830 98.628 -127.4861
5462.441159 98.841 -130.2003
5502.024259 99.015 -133.1336
5541.894195 99.148 -136.2480
5582.053045 99.239 -139.5055
5622.502902 99.287 -142.8674
5663.245876 99.291 -146.2928
5704.284090 99.254 -149.7400
5745.619684 99.175 -153.1694
5787.254813 99.056 -156.5432
5829.191647 98.898 -159.8233
5871.432373 98.703 -162.9711
5913.979192 98.473 -165.9484
5956.834323 98.210 -168.7215
6000.000000 97.918 -171.2637
6043.478473 97.601 -173.5533
6087.272010 97.262 -175.5734
6131.382892 96.905 -177.3123
6175.813420 96.535 -178.7639
6220.565910 96.158 -179.9242
6265.642695 95.776 179.2093
6311.046124 95.396 178.6362
6356.778566 95.024 178.3477
6402.842404 94.667 178.3240
6449.240040 94.329 178.5353
6495.973891 94.015 178.9441
6543.046396 93.730 179.5063
6590.460007 93.473 -179.8227
6638.217197 93.244 -179.0812
6686.320456 93.043 -178.2973
6734.772290 92.867 -177.4902
6783.575226 92.714 -176.6739
6832.731809 92.584 -175.8582
6882.244600 92.476 -175.0505
6932.116181 92.387 -174.2588
6982.349153 92.317 -173.4902
7032.946133 92.266 -172.7484
7083.909760 92.234 -172.0328
7135.242690 92.222 -171.3428
7186.947600 92.234 -170.6829
7239.027185 92.272 -170.0654
7291.484160 92.339 -169.5147
7344.321260 92.439 -169.0690
7397.541239 92.573 -168.7767
7451.146872 92.741 -168.6907
7505.140954 92.942 -168.8671
7559.526299 93.172 -169.3654
7614.305743 93.428 -170.2475
7669.482141 93.700 -171.5755
7725.058371 93.977 -173.4073
7781.037328 94.244 -175.7866
7837.421932 94.483 -178.7294
7894.215122 94.673 177.7852
7951.419859 94.796 173.8181
8009.039125 94.834 169.4684
8067.075924 94.774 164.8669
8125.533282 94.611 160.1639
8184.414245 94.340 155.5165
8243.721885 93.965 151.0772
8303.459292 93.494 146.9833
8363.629581 92.938 143.3468
8424.235888 92.312 140.2497
8485.281374 91.632 137.7397
8546.769221 90.917 135.8286
8608.702634 90.183 134.4970
8671.084842 89.445 133.7052
8733.919097 88.716 133.4025
8797.208675 88.006 133.5363
8860.956876 87.321 134.0558
8925.167022 86.668 134.9100
8989.842461 86.050 136.0438
9054.986566 85.471 137.4027
9120.602731 84.930 138.9391
9186.694378 84.426 140.6172
9253.264952 83.958 142.4147
9320.317925 83.524 144.3169
9387.856790 83.123 146.3085
9455.885071 82.755 148.3726
9524.406312 82.419 150.4934
9593.424086 82.114 152.6611
9662.941992 81.838 154.8741
9732.963653 81.593 157.1322
9803.492719 81.378 159.4297
9874.532869 81.195 161.7541
9946.087805 81.044 164.0905
10018.161257 80.923 166.4298
10090.756983 80.833 168.7699
10163.878768 80.775 171.1084
10237.530423 80.749 173.4357
10311.715789 80.757 175.7349
10386.438732 80.799 177.9874
10461.703149 80.876 -179.8194
10537.512962 80.989 -177.6957
10613.872125 81.140 -175.6565
10690.784618 81.331 -173.7269
10768.254450 81.562 -171.9397
10846.285661 81.836 -170.3289
10924.882318 82.153 -168.9298
11004.048518 82.513 -167.7862
11083.788390 82.916 -166.9559
11164.106090 83.360 -166.5083
11245.005805 83.839 -166.5152
11326.491752 84.343 -167.0443
11408.568180 84.862 -168.1581
11491.239368 85.378 -169.9106
11574.509626 85.873 -172.3378
11658.383294 86.322 -175.4430
11742.864745 86.702 -179.1869
11827.958384 86.990 176.5151
11913.668646 87.168 171.7888
12000.000000 87.220 166.7964
12086.956947 87.140 161.7267
12174.544019 86.927 156.7787
12262.765784 86.591 152.1389
12351.626840 86.149 147.9604
12441.131819 85.621 144.3528
12531.285389 85.032 141.3808
12622.092249 84.406 139.0683
12713.557132 83.766 137.4007
12805.684808 83.134 136.3302
12898.480079 82.528 135.7861
12991.947783 81.960 135.6888
13086.092792 81.442 135.9586
13180.920015 80.979 136.5176
13276.434395 80.575 137.2933
13372.640911 80.232 138.2255
13469.544580 79.952 139.2678
13567.150452 79.739 140.3778
13665.463617 79.598 141.5051
13764.489200 79.536 142.5824
13864.232362 79.562 143.5206
13964.698305 79.682 144.2045
14065.892266 79.898 144.4973
14167.819519 80.207 144.2551
14270.485380 80.602 143.3413
14373.895200 81.068 141.6318
14478.054370 81.586 139.0156
14582.968320 82.132 135.3999
14688.642520 82.676 130.7177
14795.082478 83.183 124.9326
14902.293745 83.616 118.0471
15010.281908 83.933 110.1182
15119.052599 84.092 101.2733
15228.611486 84.056 91.7211
15338.964283 83.793 81.7490
15450.116741 83.288 71.7010
15562.074656 82.539 61.9321
15674.843864 81.561 52.7559
15788.430244 80.376 44.4113
15902.839718 79.016 37.0541
16018.078250 77.513 30.7652
16134.151848 75.898 25.5607
16251.066563 74.202 21.4045
16368.828491 72.452 18.2214
16487.443769 70.671 15.9114
16606.918584 68.881 14.3616
16727.259161 67.094 13.4619
16848.471777 65.321 13.1219
16970.562748 63.563 13.2833
17093.538442 61.821 13.9237
17217.405268 60.088 15.0615
17342.169684 58.358 16.7589
17467.838194 56.627 19.1198
17594.417350 54.891 22.2920
17721.913751 53.153 26.4841
17850.334044 51.421 31.9794
17979.684923 49.718 39.0957
18109.973131 48.082 48.0143
18241.205462 46.559 58.5500
18373.388756 45.194 70.1506
18506.529905 44.018 82.2099
18640.635849 43.046 94.3128
18775.713581 42.279 106.2278
18911.770141 41.716 117.8054
19048.812624 41.357 128.8806
19186.848172 41.209 139.2468
19325.883983 41.279 148.7175
19465.927305 41.563 157.1745
19606.985439 42.017 164.5313
19749.065738 42.549 170.6205
19892.175609 43.024 175.0961
20036.322514 43.304 177.5049
