* Measurement data measured by REW V5.31
* Source: EXCL: Microphone (USB Sound Device        ), MICROPHONE (Master Volume), L, volume: 0.390
* Format: 256k Log Swept Sine, 1 sweep at -5.0 dBFS with no timing reference
* Dated: Sep 11, 2024 11:46:32 PM
* REW Settings:
*  C-weighting compensation: Off
*  Target level: 75.0 dB
* Note: Binary Dynaquattro R
* Measurement: R Binary Dynaquattro
* Smoothing: 1/12 octave
* Frequency Step: 96 ppo
* Start Frequency: 0.36621094 Hz
*
* Freq(Hz)	SPL(dB)	Phase(degrees)
0.366211	80.147	-179.4020
0.368865	80.151	-179.4111
0.371538	80.157	-179.4245
0.374230	80.164	-179.4411
0.376942	80.172	-179.4599
0.379673	80.181	-179.4802
0.382424	80.191	-179.5015
0.385196	80.200	-179.5235
0.387987	80.210	-179.5460
0.390798	80.220	-179.5690
0.393630	80.230	-179.5924
0.396483	80.240	-179.6162
0.399356	80.250	-179.6403
0.402250	80.260	-179.6648
0.405165	80.270	-179.6897
0.408101	80.281	-179.7149
0.411058	80.291	-179.7406
0.414037	80.302	-179.7666
0.417037	80.312	-179.7931
0.420059	80.323	-179.8199
0.423103	80.334	-179.8472
0.426169	80.345	-179.8749
0.429257	80.355	-179.9031
0.432368	80.366	-179.9317
0.435501	80.377	-179.9608
0.438656	80.389	-179.9903
0.441835	80.400	179.9796
0.445037	80.411	179.9491
0.448262	80.422	179.9180
0.451510	80.434	179.8865
0.454782	80.445	179.8544
0.458077	80.457	179.8218
0.461397	80.469	179.7886
0.464740	80.481	179.7548
0.468108	80.492	179.7205
0.471500	80.504	179.6856
0.474917	80.516	179.6501
0.478358	80.529	179.6139
0.481825	80.541	179.5771
0.485316	80.553	179.5397
0.488833	80.566	179.5016
0.492375	80.578	179.4629
0.495943	80.591	179.4234
0.499537	80.603	179.3832
0.503157	80.616	179.3423
0.506803	80.629	179.3007
0.510475	80.642	179.2584
0.514175	80.655	179.2152
0.517900	80.668	179.1712
0.521653	80.681	179.1265
0.525434	80.695	179.0809
0.529241	80.708	179.0344
0.533076	80.722	178.9871
0.536939	80.735	178.9389
0.540830	80.749	178.8898
0.544749	80.763	178.8397
0.548696	80.777	178.7887
0.552673	80.791	178.7368
0.556677	80.805	178.6838
0.560711	80.819	178.6298
0.564774	80.833	178.5748
0.568867	80.848	178.5187
0.572989	80.862	178.4615
0.577141	80.877	178.4031
0.581324	80.892	178.3437
0.585536	80.907	178.2831
0.589779	80.922	178.2213
0.594053	80.937	178.1582
0.598358	80.952	178.0938
0.602694	80.967	178.0283
0.607061	80.982	177.9613
0.611460	80.998	177.8930
0.615891	81.014	177.8234
0.620354	81.029	177.7523
0.624849	81.045	177.6797
0.629377	81.061	177.6057
0.633938	81.077	177.5302
0.638532	81.093	177.4531
0.643159	81.110	177.3744
0.647819	81.126	177.2941
0.652514	81.143	177.2120
0.657242	81.159	177.1283
0.662005	81.176	177.0428
0.666802	81.193	176.9555
0.671634	81.210	176.8664
0.676501	81.227	176.7753
0.681403	81.245	176.6823
0.686341	81.262	176.5873
0.691314	81.280	176.4903
0.696324	81.297	176.3912
0.701370	81.315	176.2899
0.706452	81.333	176.1864
0.711571	81.351	176.0806
0.716728	81.369	175.9725
0.721921	81.387	175.8621
0.727153	81.405	175.7493
0.732422	81.424	175.6340
0.737729	81.442	175.5163
0.743075	81.460	175.3961
0.748460	81.479	175.2734
0.753883	81.497	175.1482
0.759346	81.515	175.0205
0.764849	81.534	174.8904
0.770391	81.553	174.7578
0.775974	81.572	174.6227
0.781597	81.591	174.4852
0.787261	81.610	174.3452
0.792966	81.630	174.2028
0.798712	81.649	174.0579
0.804500	81.669	173.9106
0.810329	81.689	173.7609
0.816201	81.709	173.6087
0.822116	81.729	173.4542
0.828073	81.749	173.2972
0.834074	81.769	173.1379
0.840118	81.790	172.9763
0.846206	81.810	172.8122
0.852338	81.831	172.6458
0.858514	81.852	172.4770
0.864735	81.873	172.3059
0.871001	81.894	172.1325
0.877313	81.915	171.9568
0.883670	81.936	171.7788
0.890074	81.958	171.5985
0.896524	81.979	171.4159
0.903020	82.001	171.2310
0.909564	82.022	171.0439
0.916155	82.044	170.8546
0.922794	82.066	170.6630
0.929481	82.087	170.4692
0.936216	82.109	170.2731
0.943000	82.131	170.0749
0.949834	82.153	169.8744
0.956717	82.175	169.6718
0.963649	82.197	169.4669
0.970632	82.220	169.2598
0.977666	82.242	169.0505
0.984750	82.264	168.8391
0.991886	82.286	168.6254
0.999074	82.308	168.4095
1.006314	82.330	168.1915
1.013606	82.352	167.9712
1.020951	82.375	167.7487
1.028349	82.397	167.5240
1.035801	82.419	167.2970
1.043307	82.441	167.0678
1.050867	82.462	166.8362
1.058482	82.484	166.6023
1.066152	82.506	166.3660
1.073878	82.528	166.1270
1.081660	82.549	165.8854
1.089498	82.571	165.6408
1.097393	82.592	165.3928
1.105345	82.613	165.1412
1.113355	82.634	164.8854
1.121423	82.656	164.6253
1.129549	82.677	164.3606
1.137734	82.698	164.0911
1.145979	82.719	163.8170
1.154283	82.739	163.5381
1.162647	82.760	163.2545
1.171072	82.781	162.9663
1.179558	82.802	162.6736
1.188106	82.822	162.3765
1.196715	82.843	162.0751
1.205387	82.863	161.7696
1.214122	82.884	161.4599
1.222920	82.904	161.1463
1.231782	82.924	160.8289
1.240708	82.945	160.5079
1.249699	82.965	160.1832
1.258754	82.985	159.8552
1.267876	83.005	159.5240
1.277063	83.024	159.1896
1.286318	83.044	158.8524
1.295639	83.064	158.5123
1.305027	83.083	158.1697
1.314484	83.103	157.8247
1.324009	83.122	157.4774
1.333604	83.141	157.1282
1.343268	83.161	156.7770
1.353002	83.180	156.4243
1.362806	83.199	156.0701
1.372681	83.217	155.7147
1.382628	83.236	155.3582
1.392647	83.255	155.0009
1.402739	83.273	154.6430
1.412904	83.291	154.2846
1.423142	83.310	153.9258
1.433455	83.328	153.5668
1.443843	83.346	153.2072
1.454305	83.363	152.8470
1.464844	83.381	152.4855
1.475459	83.398	152.1222
1.486150	83.415	151.7565
1.496920	83.432	151.3877
1.507767	83.449	151.0156
1.518693	83.465	150.6400
1.529698	83.481	150.2606
1.540783	83.497	149.8777
1.551948	83.512	149.4911
1.563194	83.528	149.1011
1.574521	83.543	148.7077
1.585931	83.557	148.3110
1.597423	83.572	147.9113
1.608999	83.586	147.5087
1.620658	83.600	147.1033
1.632402	83.614	146.6954
1.644232	83.628	146.2852
1.656146	83.641	145.8727
1.668147	83.654	145.4584
1.680235	83.668	145.0424
1.692411	83.681	144.6249
1.704675	83.693	144.2062
1.717028	83.706	143.7866
1.729470	83.719	143.3663
1.742003	83.731	142.9455
1.754626	83.744	142.5246
1.767341	83.756	142.1037
1.780147	83.769	141.6831
1.793047	83.781	141.2629
1.806040	83.793	140.8430
1.819128	83.806	140.4232
1.832310	83.818	140.0031
1.845587	83.830	139.5823
1.858961	83.841	139.1601
1.872432	83.852	138.7361
1.886001	83.864	138.3100
1.899667	83.874	137.8816
1.913433	83.885	137.4509
1.927299	83.895	137.0179
1.941265	83.905	136.5828
1.955332	83.914	136.1457
1.969501	83.924	135.7069
1.983773	83.933	135.2665
1.998148	83.942	134.8250
2.012627	83.952	134.3824
2.027212	83.961	133.9392
2.041902	83.970	133.4957
2.056698	83.979	133.0523
2.071602	83.989	132.6093
2.086614	83.999	132.1673
2.101734	84.008	131.7266
2.116964	84.019	131.2876
2.132304	84.029	130.8509
2.147756	84.040	130.4168
2.163320	84.051	129.9858
2.178996	84.063	129.5580
2.194786	84.075	129.1338
2.210690	84.087	128.7129
2.226710	84.099	128.2952
2.242845	84.112	127.8806
2.259098	84.125	127.4688
2.275468	84.137	127.0596
2.291957	84.150	126.6527
2.308566	84.163	126.2480
2.325295	84.177	125.8453
2.342145	84.190	125.4445
2.359117	84.204	125.0453
2.376212	84.219	124.6478
2.393431	84.234	124.2518
2.410775	84.249	123.8572
2.428244	84.266	123.4640
2.445840	84.283	123.0721
2.463564	84.301	122.6815
2.481416	84.319	122.2924
2.499397	84.339	121.9049
2.517509	84.360	121.5193
2.535752	84.382	121.1359
2.554127	84.405	120.7554
2.572635	84.430	120.3784
2.591277	84.455	120.0055
2.610055	84.482	119.6373
2.628968	84.509	119.2737
2.648019	84.538	118.9147
2.667208	84.568	118.5599
2.686535	84.598	118.2087
2.706003	84.630	117.8603
2.725612	84.663	117.5141
2.745363	84.697	117.1691
2.765257	84.733	116.8247
2.785295	84.769	116.4799
2.805478	84.807	116.1339
2.825808	84.846	115.7860
2.846285	84.886	115.4356
2.866910	84.928	115.0821
2.887685	84.971	114.7254
2.908611	85.016	114.3656
2.929688	85.062	114.0034
2.950917	85.110	113.6395
2.972301	85.160	113.2749
2.993839	85.211	112.9102
3.015534	85.264	112.5455
3.037386	85.319	112.1807
3.059396	85.375	111.8152
3.081565	85.433	111.4485
3.103896	85.492	111.0797
3.126388	85.553	110.7078
3.149043	85.614	110.3321
3.171862	85.677	109.9514
3.194847	85.741	109.5650
3.217998	85.806	109.1720
3.241317	85.871	108.7718
3.264805	85.938	108.3640
3.288463	86.005	107.9487
3.312293	86.074	107.5262
3.336295	86.143	107.0972
3.360471	86.214	106.6621
3.384822	86.286	106.2215
3.409350	86.360	105.7757
3.434056	86.434	105.3248
3.458940	86.509	104.8688
3.484005	86.585	104.4075
3.509252	86.662	103.9407
3.534681	86.739	103.4680
3.560295	86.816	102.9893
3.586094	86.893	102.5038
3.612081	86.970	102.0113
3.638255	87.047	101.5112
3.664620	87.124	101.0033
3.691175	87.201	100.4871
3.717923	87.278	99.9630
3.744864	87.355	99.4312
3.772001	87.432	98.8923
3.799335	87.509	98.3473
3.826866	87.586	97.7969
3.854597	87.663	97.2422
3.882529	87.739	96.6839
3.910664	87.815	96.1228
3.939002	87.890	95.5593
3.967546	87.965	94.9937
3.996296	88.038	94.4260
4.025255	88.111	93.8556
4.054423	88.183	93.2819
4.083804	88.254	92.7045
4.113396	88.325	92.1232
4.143204	88.394	91.5385
4.173227	88.463	90.9513
4.203468	88.530	90.3628
4.233928	88.597	89.7743
4.264609	88.663	89.1872
4.295512	88.728	88.6028
4.326639	88.792	88.0218
4.357992	88.855	87.4448
4.389572	88.918	86.8717
4.421380	88.979	86.3021
4.453419	89.039	85.7353
4.485691	89.097	85.1711
4.518196	89.155	84.6096
4.550936	89.212	84.0514
4.583914	89.268	83.4973
4.617131	89.323	82.9485
4.650589	89.377	82.4062
4.684289	89.431	81.8713
4.718233	89.484	81.3448
4.752424	89.537	80.8268
4.786862	89.589	80.3175
4.821549	89.641	79.8166
4.856488	89.692	79.3236
4.891680	89.742	78.8382
4.927127	89.792	78.3604
4.962831	89.842	77.8901
4.998794	89.891	77.4275
5.035017	89.941	76.9728
5.071503	89.990	76.5264
5.108253	90.040	76.0886
5.145270	90.090	75.6595
5.182555	90.141	75.2391
5.220110	90.192	74.8271
5.257937	90.243	74.4229
5.296038	90.294	74.0258
5.334415	90.346	73.6347
5.373071	90.398	73.2489
5.412006	90.451	72.8676
5.451224	90.504	72.4904
5.490725	90.558	72.1169
5.530514	90.613	71.7471
5.570590	90.669	71.3810
5.610957	90.725	71.0180
5.651616	90.782	70.6576
5.692570	90.840	70.2987
5.733821	90.898	69.9403
5.775370	90.956	69.5813
5.817221	91.015	69.2209
5.859375	91.074	68.8585
5.901834	91.134	68.4940
5.944602	91.194	68.1271
5.987679	91.254	67.7580
6.031068	91.314	67.3864
6.074771	91.374	67.0120
6.118792	91.434	66.6345
6.163131	91.493	66.2533
6.207792	91.552	65.8682
6.252776	91.611	65.4789
6.298086	91.669	65.0854
6.343725	91.726	64.6880
6.389694	91.783	64.2871
6.435996	91.838	63.8833
6.482634	91.893	63.4771
6.529610	91.947	63.0690
6.576926	91.999	62.6592
6.624585	92.051	62.2479
6.672590	92.101	61.8351
6.720942	92.150	61.4214
6.769645	92.197	61.0072
6.818700	92.243	60.5935
6.868111	92.288	60.1812
6.917881	92.332	59.7709
6.968010	92.375	59.3632
7.018504	92.416	58.9582
7.069362	92.456	58.5560
7.120590	92.495	58.1570
7.172189	92.533	57.7614
7.224161	92.570	57.3698
7.276511	92.606	56.9825
7.329239	92.642	56.5998
7.382350	92.677	56.2218
7.435845	92.711	55.8483
7.489729	92.745	55.4790
7.544002	92.778	55.1136
7.598669	92.811	54.7517
7.653732	92.843	54.3930
7.709194	92.876	54.0372
7.765058	92.909	53.6840
7.821327	92.941	53.3329
7.878004	92.973	52.9831
7.935091	93.006	52.6340
7.992592	93.038	52.2847
8.050510	93.071	51.9346
8.108847	93.103	51.5831
8.167607	93.136	51.2299
8.226793	93.168	50.8744
8.286408	93.200	50.5161
8.346454	93.232	50.1546
8.406936	93.264	49.7893
8.467856	93.295	49.4199
8.529218	93.326	49.0463
8.591024	93.357	48.6684
8.653278	93.387	48.2864
8.715983	93.416	47.9004
8.779143	93.445	47.5105
8.842760	93.473	47.1167
8.906839	93.500	46.7194
8.971381	93.526	46.3188
9.036392	93.551	45.9156
9.101873	93.576	45.5103
9.167829	93.600	45.1031
9.234263	93.623	44.6945
9.301178	93.645	44.2847
9.368578	93.667	43.8741
9.436467	93.688	43.4632
9.504847	93.708	43.0521
9.573723	93.727	42.6411
9.643099	93.746	42.2302
9.712976	93.763	41.8195
9.783361	93.779	41.4088
9.854255	93.793	40.9980
9.925663	93.804	40.5869
9.997588	93.813	40.1754
10.070035	93.821	39.7632
10.143007	93.826	39.3497
10.216507	93.830	38.9348
10.290540	93.832	38.5180
10.365109	93.834	38.0990
10.440219	93.834	37.6777
10.515873	93.835	37.2537
10.592076	93.834	36.8270
10.668830	93.834	36.3973
10.746141	93.834	35.9646
10.824012	93.833	35.5292
10.902447	93.833	35.0911
10.981451	93.832	34.6506
11.061027	93.831	34.2079
11.141180	93.831	33.7634
11.221913	93.829	33.3175
11.303232	93.828	32.8706
11.385140	93.827	32.4232
11.467641	93.825	31.9756
11.550741	93.824	31.5280
11.634442	93.823	31.0810
11.718750	93.822	30.6348
11.803669	93.821	30.1895
11.889203	93.821	29.7453
11.975357	93.822	29.3023
12.062136	93.823	28.8604
12.149543	93.825	28.4198
12.237583	93.827	27.9803
12.326262	93.830	27.5418
12.415583	93.833	27.1044
12.505552	93.836	26.6677
12.596172	93.840	26.2321
12.687449	93.843	25.7973
12.779387	93.847	25.3635
12.871992	93.851	24.9308
12.965268	93.854	24.4995
13.059220	93.858	24.0695
13.153852	93.862	23.6414
13.249170	93.866	23.2152
13.345179	93.871	22.7914
13.441884	93.875	22.3701
13.539289	93.880	21.9515
13.637401	93.884	21.5358
13.736223	93.889	21.1231
13.835761	93.894	20.7134
13.936021	93.899	20.3066
14.037007	93.904	19.9026
14.138725	93.908	19.5012
14.241180	93.913	19.1021
14.344377	93.917	18.7049
14.448323	93.921	18.3096
14.553021	93.925	17.9158
14.658478	93.928	17.5232
14.764700	93.931	17.1318
14.871691	93.934	16.7415
14.979457	93.937	16.3522
15.088005	93.939	15.9641
15.197339	93.941	15.5771
15.307465	93.942	15.1915
15.418389	93.942	14.8074
15.530117	93.942	14.4248
15.642655	93.942	14.0439
15.756008	93.940	13.6647
15.870182	93.939	13.2870
15.985184	93.936	12.9106
16.101019	93.934	12.5352
16.217694	93.930	12.1603
16.335214	93.927	11.7855
16.453586	93.923	11.4104
16.572815	93.919	11.0344
16.692909	93.915	10.6570
16.813872	93.911	10.2778
16.935713	93.906	9.8965
17.058436	93.902	9.5131
17.182048	93.897	9.1272
17.306556	93.892	8.7390
17.431967	93.886	8.3486
17.558286	93.880	7.9562
17.685521	93.874	7.5619
17.813677	93.867	7.1659
17.942762	93.860	6.7684
18.072783	93.852	6.3694
18.203746	93.844	5.9691
18.335658	93.836	5.5673
18.468526	93.828	5.1638
18.602356	93.820	4.7585
18.737156	93.812	4.3516
18.872934	93.804	3.9425
19.009695	93.797	3.5314
19.147447	93.790	3.1183
19.286197	93.784	2.7032
19.425953	93.777	2.2864
19.566721	93.771	1.8681
19.708510	93.765	1.4485
19.851326	93.759	1.0279
19.995177	93.753	0.6067
20.140070	93.747	0.1849
20.286013	93.741	-0.2369
20.433014	93.736	-0.6587
20.581080	93.731	-1.0804
20.730219	93.726	-1.5017
20.880439	93.721	-1.9225
21.031747	93.716	-2.3427
21.184152	93.712	-2.7618
21.337661	93.708	-3.1797
21.492282	93.705	-3.5962
21.648024	93.701	-4.0110
21.804895	93.698	-4.4237
21.962902	93.694	-4.8342
22.122054	93.691	-5.2424
22.282360	93.687	-5.6481
22.443827	93.683	-6.0514
22.606464	93.679	-6.4523
22.770280	93.675	-6.8507
22.935283	93.670	-7.2468
23.101481	93.665	-7.6406
23.268884	93.659	-8.0319
23.437500	93.653	-8.4209
23.607338	93.646	-8.8074
23.778406	93.638	-9.1913
23.950714	93.630	-9.5730
24.124271	93.621	-9.9525
24.299086	93.612	-10.3302
24.475167	93.602	-10.7064
24.652524	93.591	-11.0819
24.831166	93.581	-11.4572
25.011103	93.570	-11.8328
25.192344	93.558	-12.2094
25.374898	93.546	-12.5874
25.558775	93.534	-12.9674
25.743984	93.522	-13.3495
25.930536	93.509	-13.7341
26.118439	93.496	-14.1211
26.307704	93.482	-14.5107
26.498341	93.469	-14.9032
26.690359	93.455	-15.2985
26.883768	93.441	-15.6967
27.078579	93.426	-16.0978
27.274801	93.412	-16.5021
27.472446	93.397	-16.9092
27.671522	93.383	-17.3191
27.872042	93.368	-17.7314
28.074014	93.353	-18.1458
28.277450	93.338	-18.5615
28.482360	93.322	-18.9783
28.688755	93.307	-19.3954
28.896645	93.292	-19.8125
29.106042	93.277	-20.2290
29.316957	93.261	-20.6448
29.529400	93.247	-21.0598
29.743382	93.232	-21.4738
29.958915	93.217	-21.8871
30.176009	93.203	-22.2996
30.394677	93.189	-22.7114
30.614929	93.175	-23.1224
30.836778	93.161	-23.5324
31.060234	93.147	-23.9411
31.285309	93.133	-24.3481
31.512015	93.118	-24.7531
31.740364	93.103	-25.1558
31.970368	93.087	-25.5566
32.202039	93.072	-25.9556
32.435388	93.056	-26.3538
32.670428	93.040	-26.7516
32.907171	93.023	-27.1502
33.145630	93.007	-27.5501
33.385817	92.990	-27.9517
33.627745	92.972	-28.3550
33.871425	92.954	-28.7599
34.116871	92.935	-29.1658
34.364096	92.915	-29.5725
34.613113	92.895	-29.9797
34.863934	92.875	-30.3875
35.116572	92.854	-30.7960
35.371041	92.834	-31.2056
35.627354	92.812	-31.6167
35.885525	92.791	-32.0294
36.145566	92.770	-32.4437
36.407492	92.748	-32.8590
36.671316	92.726	-33.2750
36.937051	92.704	-33.6908
37.204712	92.681	-34.1059
37.474313	92.659	-34.5199
37.745867	92.637	-34.9327
38.019389	92.615	-35.3447
38.294893	92.593	-35.7561
38.572394	92.571	-36.1673
38.851905	92.549	-36.5786
39.133442	92.527	-36.9899
39.417019	92.505	-37.4011
39.702651	92.482	-37.8116
39.990353	92.459	-38.2211
40.280140	92.436	-38.6292
40.572026	92.412	-39.0358
40.866028	92.388	-39.4408
41.162160	92.364	-39.8444
41.460438	92.339	-40.2467
41.760877	92.314	-40.6481
42.063494	92.289	-41.0491
42.368303	92.263	-41.4498
42.675322	92.237	-41.8511
42.984565	92.211	-42.2529
43.296048	92.185	-42.6558
43.609789	92.158	-43.0597
43.925804	92.131	-43.4644
44.244108	92.104	-43.8699
44.564719	92.076	-44.2761
44.887654	92.049	-44.6830
45.212928	92.021	-45.0906
45.540560	91.993	-45.4987
45.870565	91.964	-45.9071
46.202962	91.936	-46.3152
46.537768	91.907	-46.7226
46.875000	91.878	-47.1291
47.214676	91.850	-47.5347
47.556813	91.821	-47.9398
47.901429	91.792	-48.3447
48.248542	91.764	-48.7496
48.598171	91.735	-49.1547
48.950334	91.706	-49.5594
49.305048	91.677	-49.9633
49.662333	91.648	-50.3659
50.022206	91.618	-50.7667
50.384688	91.589	-51.1655
50.749796	91.559	-51.5625
51.117550	91.529	-51.9583
51.487969	91.500	-52.3535
51.861072	91.471	-52.7493
52.236879	91.442	-53.1458
52.615409	91.412	-53.5427
52.996681	91.382	-53.9387
53.380717	91.352	-54.3323
53.767536	91.322	-54.7222
54.157158	91.292	-55.1088
54.549603	91.263	-55.4937
54.944892	91.235	-55.8796
55.343045	91.207	-56.2693
55.744084	91.179	-56.6646
56.148028	91.151	-57.0657
56.554900	91.123	-57.4719
56.964720	91.094	-57.8826
57.377510	91.065	-58.2971
57.793291	91.035	-58.7152
58.212085	91.005	-59.1367
58.633914	90.974	-59.5607
59.058799	90.942	-59.9852
59.486764	90.909	-60.4083
59.917829	90.877	-60.8287
60.352019	90.843	-61.2458
60.789354	90.810	-61.6599
61.229859	90.776	-62.0713
61.673556	90.743	-62.4797
62.120468	90.709	-62.8848
62.570618	90.675	-63.2865
63.024031	90.641	-63.6852
63.480729	90.606	-64.0820
63.940736	90.572	-64.4781
64.404077	90.537	-64.8742
64.870776	90.503	-65.2708
65.340856	90.467	-65.6682
65.814343	90.432	-66.0671
66.291261	90.396	-66.4680
66.771635	90.359	-66.8714
67.255489	90.322	-67.2772
67.742850	90.285	-67.6848
68.233743	90.247	-68.0931
68.728193	90.210	-68.5005
69.226226	90.172	-68.9058
69.727867	90.134	-69.3086
70.233144	90.097	-69.7093
70.742083	90.060	-70.1087
71.254709	90.024	-70.5073
71.771050	89.988	-70.9054
72.291132	89.952	-71.3026
72.814984	89.916	-71.6986
73.342631	89.880	-72.0927
73.874102	89.844	-72.4838
74.409424	89.807	-72.8718
74.948626	89.770	-73.2573
75.491734	89.734	-73.6422
76.038779	89.698	-74.0291
76.589787	89.662	-74.4203
77.144788	89.626	-74.8178
77.703811	89.591	-75.2225
78.266885	89.556	-75.6348
78.834039	89.521	-76.0548
79.405303	89.486	-76.4824
79.980706	89.452	-76.9175
80.560280	89.418	-77.3602
81.144053	89.383	-77.8097
81.732056	89.347	-78.2628
82.324320	89.310	-78.7137
82.920876	89.272	-79.1565
83.521755	89.233	-79.5879
84.126988	89.194	-80.0089
84.736607	89.155	-80.4225
85.350643	89.115	-80.8304
85.969129	89.074	-81.2317
86.592097	89.032	-81.6250
87.219579	88.989	-82.0107
87.851608	88.946	-82.3906
88.488217	88.902	-82.7665
89.129439	88.858	-83.1398
89.775308	88.814	-83.5120
90.425856	88.771	-83.8849
91.081119	88.729	-84.2605
91.741131	88.688	-84.6398
92.405925	88.647	-85.0222
93.075536	88.606	-85.4060
93.750000	88.565	-85.7885
94.429351	88.524	-86.1670
95.113625	88.484	-86.5399
95.802858	88.444	-86.9076
96.497085	88.404	-87.2726
97.196342	88.366	-87.6381
97.900667	88.327	-88.0066
98.610096	88.289	-88.3790
99.324665	88.250	-88.7549
100.044413	88.211	-89.1324
100.769376	88.172	-89.5096
101.499592	88.132	-89.8848
102.235100	88.093	-90.2572
102.975938	88.055	-90.6263
103.722144	88.017	-90.9918
104.473757	87.980	-91.3533
105.230817	87.943	-91.7108
105.993363	87.907	-92.0667
106.761435	87.871	-92.4246
107.535072	87.836	-92.7880
108.314315	87.800	-93.1593
109.099206	87.763	-93.5402
109.889783	87.726	-93.9312
110.686090	87.688	-94.3310
111.488167	87.648	-94.7366
112.296056	87.608	-95.1458
113.109800	87.567	-95.5568
113.929440	87.526	-95.9654
114.755020	87.483	-96.3641
115.586582	87.440	-96.7456
116.424170	87.397	-97.1050
117.267827	87.353	-97.4426
118.117598	87.311	-97.7640
118.973527	87.268	-98.0799
119.835658	87.226	-98.3998
120.704037	87.182	-98.7271
121.578708	87.136	-99.0588
122.459718	87.090	-99.3921
123.347111	87.043	-99.7265
124.240935	86.998	-100.0620
125.141236	86.953	-100.3969
126.048061	86.910	-100.7290
126.961458	86.868	-101.0582
127.881473	86.827	-101.3868
128.808154	86.788	-101.7188
129.741551	86.748	-102.0566
130.681712	86.708	-102.4012
131.628686	86.667	-102.7513
132.582521	86.626	-103.1027
133.543269	86.585	-103.4521
134.510979	86.546	-103.7995
135.485701	86.509	-104.1447
136.467486	86.472	-104.4844
137.456386	86.435	-104.8124
138.452451	86.399	-105.1220
139.455735	86.364	-105.4109
140.466288	86.330	-105.6835
141.484165	86.299	-105.9473
142.509418	86.268	-106.2093
143.542100	86.239	-106.4762
144.582265	86.211	-106.7532
145.629968	86.182	-107.0446
146.685262	86.153	-107.3533
147.748204	86.123	-107.6807
148.818849	86.092	-108.0266
149.897251	86.059	-108.3870
150.983469	86.024	-108.7533
152.077557	85.988	-109.1151
153.179574	85.952	-109.4626
154.289576	85.916	-109.7910
155.407622	85.881	-110.1012
156.533770	85.847	-110.3995
157.668078	85.815	-110.6955
158.810606	85.783	-110.9980
159.961413	85.751	-111.3129
161.120559	85.719	-111.6414
162.288105	85.687	-111.9808
163.464112	85.653	-112.3267
164.648640	85.618	-112.6741
165.841752	85.582	-113.0187
167.043510	85.544	-113.3568
168.253976	85.505	-113.6853
169.473213	85.465	-114.0032
170.701286	85.426	-114.3107
171.938258	85.387	-114.6102
173.184194	85.351	-114.9054
174.439158	85.316	-115.2009
175.703216	85.282	-115.5006
176.976434	85.249	-115.8058
178.258878	85.215	-116.1154
179.550615	85.182	-116.4269
180.851713	85.149	-116.7372
182.162239	85.115	-117.0436
183.482262	85.081	-117.3446
184.811850	85.048	-117.6415
186.151073	85.015	-117.9376
187.500000	84.982	-118.2358
188.858702	84.948	-118.5364
190.227250	84.915	-118.8375
191.605715	84.882	-119.1365
192.994169	84.848	-119.4310
194.392685	84.815	-119.7198
195.801334	84.782	-120.0026
197.220191	84.748	-120.2791
198.649330	84.714	-120.5490
200.088825	84.681	-120.8120
201.538751	84.649	-121.0686
202.999184	84.618	-121.3211
204.470200	84.589	-121.5726
205.951875	84.560	-121.8265
207.444287	84.532	-122.0856
208.947514	84.503	-122.3506
210.461634	84.473	-122.6204
211.986726	84.441	-122.8907
213.522869	84.408	-123.1559
215.070144	84.373	-123.4098
216.628631	84.337	-123.6481
218.198411	84.301	-123.8705
219.779567	84.266	-124.0807
221.372180	84.233	-124.2855
222.976334	84.202	-124.4915
224.592112	84.172	-124.7032
226.219600	84.143	-124.9221
227.858880	84.115	-125.1470
229.510039	84.087	-125.3759
231.173164	84.059	-125.6067
232.848340	84.030	-125.8386
234.535655	84.002	-126.0710
236.235197	83.973	-126.3037
237.947054	83.945	-126.5360
239.671317	83.915	-126.7672
241.408074	83.886	-126.9962
243.157416	83.855	-127.2218
244.919435	83.823	-127.4423
246.694223	83.791	-127.6549
248.481871	83.759	-127.8561
250.282473	83.726	-128.0425
252.096123	83.694	-128.2127
253.922915	83.664	-128.3682
255.762945	83.636	-128.5144
257.616309	83.611	-128.6606
259.483103	83.589	-128.8167
261.363424	83.568	-128.9875
263.257372	83.546	-129.1720
265.165043	83.522	-129.3637
267.086538	83.497	-129.5549
269.021957	83.471	-129.7388
270.971401	83.445	-129.9115
272.934972	83.419	-130.0718
274.912771	83.394	-130.2205
276.904902	83.371	-130.3589
278.911469	83.349	-130.4891
280.932577	83.330	-130.6140
282.968330	83.314	-130.7377
285.018835	83.299	-130.8662
287.084199	83.287	-131.0068
289.164530	83.276	-131.1661
291.259935	83.264	-131.3469
293.370525	83.251	-131.5450
295.496408	83.234	-131.7516
297.637697	83.215	-131.9572
299.794503	83.195	-132.1556
301.966937	83.172	-132.3445
304.155114	83.149	-132.5244
306.359147	83.126	-132.6973
308.579152	83.103	-132.8651
310.815244	83.080	-133.0298
313.067539	83.057	-133.1921
315.336156	83.033	-133.3503
317.621211	83.008	-133.5005
319.922826	82.982	-133.6385
322.241118	82.956	-133.7631
324.576210	82.930	-133.8765
326.928223	82.905	-133.9827
329.297280	82.881	-134.0857
331.683504	82.858	-134.1882
334.087019	82.836	-134.2919
336.507952	82.816	-134.3978
338.946427	82.795	-134.5055
341.402572	82.774	-134.6133
343.876516	82.752	-134.7183
346.368387	82.730	-134.8182
348.878315	82.707	-134.9126
351.406431	82.685	-135.0016
353.952867	82.662	-135.0859
356.517756	82.640	-135.1658
359.101230	82.619	-135.2422
361.703426	82.597	-135.3160
364.324478	82.576	-135.3878
366.964523	82.555	-135.4573
369.623699	82.534	-135.5242
372.302145	82.513	-135.5877
375.000000	82.492	-135.6477
377.717405	82.472	-135.7045
380.454501	82.451	-135.7588
383.211431	82.432	-135.8107
385.988339	82.412	-135.8602
388.785369	82.393	-135.9066
391.602668	82.374	-135.9496
394.440383	82.356	-135.9886
397.298660	82.338	-136.0237
400.177650	82.321	-136.0558
403.077502	82.304	-136.0865
405.998368	82.287	-136.1178
408.940400	82.270	-136.1501
411.903750	82.253	-136.1820
414.888575	82.235	-136.2098
417.895028	82.217	-136.2302
420.923268	82.198	-136.2410
423.973452	82.180	-136.2413
427.045738	82.163	-136.2321
430.140287	82.148	-136.2164
433.257261	82.134	-136.1988
436.396822	82.122	-136.1826
439.559133	82.112	-136.1691
442.744360	82.102	-136.1589
445.952668	82.095	-136.1546
449.184225	82.088	-136.1610
452.439199	82.083	-136.1836
455.717760	82.076	-136.2239
459.020079	82.067	-136.2767
462.346327	82.055	-136.3306
465.696680	82.040	-136.3736
469.071310	82.023	-136.3996
472.470394	82.004	-136.4088
475.894109	81.986	-136.4053
479.342634	81.968	-136.3943
482.816148	81.950	-136.3809
486.314833	81.932	-136.3663
489.838871	81.913	-136.3462
493.388445	81.894	-136.3127
496.963741	81.874	-136.2623
500.564945	81.857	-136.1990
504.192245	81.841	-136.1306
507.845830	81.826	-136.0636
511.525890	81.812	-136.0005
515.232618	81.798	-135.9395
518.966206	81.783	-135.8763
522.726849	81.768	-135.8058
526.514743	81.752	-135.7244
530.330086	81.736	-135.6310
534.173076	81.722	-135.5290
538.043915	81.709	-135.4231
541.942803	81.697	-135.3157
545.869944	81.686	-135.2055
549.825542	81.676	-135.0915
553.809805	81.667	-134.9750
557.822939	81.658	-134.8592
561.865154	81.650	-134.7460
565.936660	81.641	-134.6353
570.037671	81.632	-134.5245
574.168399	81.622	-134.4102
578.329060	81.612	-134.2897
582.519870	81.602	-134.1620
586.741049	81.592	-134.0265
590.992817	81.582	-133.8811
595.275394	81.572	-133.7243
599.589005	81.563	-133.5579
603.933874	81.556	-133.3866
608.310228	81.549	-133.2145
612.718295	81.543	-133.0427
617.158304	81.536	-132.8685
621.630488	81.530	-132.6860
626.135079	81.523	-132.4883
630.672311	81.517	-132.2733
635.242423	81.513	-132.0450
639.845651	81.512	-131.8103
644.482237	81.512	-131.5717
649.152421	81.515	-131.3287
653.856447	81.520	-131.0836
658.594560	81.528	-130.8434
663.367008	81.539	-130.6183
668.174039	81.551	-130.4152
673.015903	81.562	-130.2330
677.892854	81.571	-130.0631
682.805145	81.579	-129.8962
687.753032	81.584	-129.7253
692.736774	81.587	-129.5450
697.756631	81.589	-129.3512
702.812863	81.591	-129.1422
707.905735	81.594	-128.9208
713.035511	81.598	-128.6912
718.202461	81.602	-128.4564
723.406852	81.607	-128.2164
728.648956	81.612	-127.9697
733.929047	81.618	-127.7155
739.247399	81.624	-127.4539
744.604290	81.630	-127.1849
750.000000	81.638	-126.9089
755.434809	81.647	-126.6263
760.909001	81.657	-126.3375
766.422861	81.668	-126.0428
771.976677	81.681	-125.7423
777.570739	81.695	-125.4364
783.205337	81.710	-125.1260
788.880766	81.726	-124.8099
794.597321	81.744	-124.4854
800.355301	81.764	-124.1502
806.155005	81.787	-123.8057
811.996736	81.813	-123.4583
817.880799	81.844	-123.1172
823.807501	81.878	-122.7926
829.777150	81.915	-122.4924
835.790057	81.952	-122.2189
841.846536	81.988	-121.9651
847.946903	82.021	-121.7203
854.091476	82.054	-121.4764
860.280575	82.085	-121.2293
866.514523	82.115	-120.9760
872.793644	82.145	-120.7133
879.118267	82.176	-120.4417
885.488720	82.208	-120.1659
891.905336	82.242	-119.8901
898.368450	82.276	-119.6149
904.878398	82.310	-119.3383
911.435520	82.346	-119.0593
918.040157	82.384	-118.7802
924.692655	82.423	-118.5038
931.393359	82.465	-118.2339
938.142619	82.508	-117.9743
944.940787	82.552	-117.7269
951.788218	82.597	-117.4905
958.685268	82.642	-117.2628
965.632296	82.687	-117.0406
972.629666	82.732	-116.8214
979.677741	82.777	-116.6031
986.776890	82.822	-116.3849
993.927482	82.865	-116.1633
1001.129891	82.909	-115.9318
1008.384491	82.953	-115.6852
1015.691660	82.999	-115.4235
1023.051781	83.048	-115.1519
1030.465236	83.101	-114.8780
1037.932411	83.159	-114.6136
1045.453698	83.221	-114.3718
1053.029486	83.285	-114.1597
1060.660172	83.348	-113.9753
1068.346153	83.410	-113.8114
1076.087829	83.471	-113.6595
1083.885605	83.530	-113.5139
1091.739887	83.588	-113.3726
1099.651084	83.646	-113.2346
1107.619609	83.704	-113.0983
1115.645878	83.761	-112.9613
1123.730308	83.817	-112.8212
1131.873321	83.874	-112.6762
1140.075341	83.930	-112.5255
1148.336797	83.988	-112.3689
1156.658119	84.047	-112.2070
1165.039741	84.108	-112.0406
1173.482099	84.172	-111.8712
1181.985634	84.239	-111.7028
1190.550789	84.311	-111.5455
1199.178011	84.387	-111.4139
1207.867749	84.467	-111.3223
1216.620457	84.547	-111.2773
1225.436590	84.626	-111.2745
1234.316609	84.701	-111.3031
1243.260976	84.772	-111.3507
1252.270157	84.839	-111.4061
1261.344623	84.902	-111.4622
1270.484846	84.962	-111.5159
1279.691303	85.019	-111.5642
1288.964474	85.074	-111.6047
1298.304842	85.128	-111.6373
1307.712894	85.180	-111.6640
1317.189120	85.233	-111.6884
1326.734016	85.285	-111.7122
1336.348077	85.336	-111.7347
1346.031806	85.388	-111.7526
1355.785708	85.439	-111.7623
1365.610290	85.492	-111.7604
1375.506065	85.545	-111.7430
1385.473549	85.599	-111.7054
1395.513261	85.656	-111.6466
1405.625726	85.717	-111.5718
1415.811469	85.783	-111.4930
1426.071023	85.851	-111.4250
1436.404921	85.922	-111.3777
1446.813703	85.993	-111.3513
1457.297912	86.062	-111.3405
1467.858093	86.129	-111.3383
1478.494798	86.194	-111.3396
1489.208581	86.256	-111.3406
1500.000000	86.315	-111.3377
1510.869618	86.369	-111.3278
1521.818002	86.420	-111.3080
1532.845723	86.466	-111.2762
1543.953355	86.508	-111.2308
1555.141477	86.549	-111.1715
1566.410674	86.591	-111.1022
1577.761531	86.634	-111.0338
1589.194642	86.679	-110.9803
1600.710601	86.726	-110.9510
1612.310010	86.772	-110.9462
1623.993473	86.816	-110.9597
1635.761599	86.859	-110.9839
1647.615002	86.899	-111.0125
1659.554299	86.938	-111.0413
1671.580114	86.975	-111.0669
1683.693072	87.012	-111.0889
1695.893807	87.049	-111.1085
1708.182952	87.085	-111.1274
1720.561150	87.119	-111.1450
1733.029045	87.150	-111.1580
1745.587288	87.180	-111.1613
1758.236533	87.207	-111.1483
1770.977440	87.234	-111.1132
1783.810673	87.262	-111.0566
1796.736900	87.293	-110.9879
1809.756796	87.328	-110.9217
1822.871040	87.366	-110.8691
1836.080315	87.405	-110.8342
1849.385310	87.444	-110.8155
1862.786718	87.484	-110.8091
1876.285239	87.523	-110.8099
1889.881575	87.562	-110.8115
1903.576436	87.601	-110.8073
1917.370535	87.643	-110.7909
1931.264593	87.689	-110.7574
1945.259332	87.739	-110.7063
1959.355483	87.795	-110.6440
1973.553781	87.856	-110.5814
1987.854965	87.919	-110.5256
2002.259781	87.983	-110.4771
2016.768981	88.047	-110.4301
2031.383320	88.110	-110.3770
2046.103561	88.172	-110.3101
2060.930471	88.234	-110.2235
2075.864823	88.296	-110.1155
2090.907395	88.359	-109.9861
2106.058972	88.424	-109.8344
2121.320344	88.490	-109.6556
2136.692305	88.559	-109.4429
2152.175658	88.631	-109.1890
2167.771210	88.711	-108.8942
2183.479774	88.800	-108.5708
2199.302169	88.901	-108.2394
2215.239219	89.014	-107.9229
2231.291755	89.139	-107.6418
2247.460615	89.274	-107.4148
2263.746641	89.418	-107.2559
2280.150683	89.568	-107.1734
2296.673595	89.723	-107.1694
2313.316238	89.879	-107.2406
2330.079481	90.036	-107.3832
2346.964198	90.194	-107.5973
2363.971268	90.350	-107.8853
2381.101578	90.503	-108.2469
2398.356022	90.652	-108.6782
2415.735498	90.796	-109.1725
2433.240913	90.932	-109.7222
2450.873180	91.062	-110.3204
2468.633217	91.183	-110.9607
2486.521951	91.296	-111.6349
2504.540314	91.399	-112.3304
2522.689246	91.492	-113.0309
2540.969692	91.577	-113.7200
2559.382606	91.657	-114.3889
2577.928947	91.732	-115.0383
2596.609683	91.805	-115.6732
2615.425787	91.876	-116.2985
2634.378241	91.944	-116.9161
2653.468031	92.011	-117.5244
2672.696154	92.075	-118.1190
2692.063613	92.138	-118.6947
2711.571415	92.203	-119.2509
2731.220579	92.271	-119.7954
2751.012130	92.343	-120.3435
2770.947098	92.419	-120.9111
2791.026522	92.498	-121.5106
2811.251451	92.579	-122.1494
2831.622938	92.660	-122.8314
2852.142045	92.739	-123.5592
2872.809842	92.815	-124.3324
2893.627406	92.885	-125.1453
2914.595823	92.950	-125.9871
2935.716186	93.010	-126.8470
2956.989596	93.064	-127.7198
2978.417161	93.113	-128.6055
3000.000000	93.158	-129.5046
3021.739237	93.198	-130.4160
3043.636005	93.232	-131.3343
3065.691446	93.260	-132.2502
3087.906710	93.283	-133.1540
3110.282955	93.302	-134.0403
3132.821347	93.320	-134.9124
3155.523062	93.338	-135.7781
3178.389283	93.355	-136.6461
3201.421202	93.371	-137.5225
3224.620020	93.385	-138.4120
3247.986946	93.397	-139.3177
3271.523198	93.406	-140.2401
3295.230004	93.411	-141.1751
3319.108599	93.412	-142.1172
3343.160228	93.410	-143.0646
3367.386145	93.404	-144.0211
3391.787613	93.396	-144.9918
3416.365904	93.382	-145.9784
3441.122300	93.362	-146.9751
3466.058091	93.335	-147.9686
3491.174576	93.301	-148.9437
3516.473066	93.262	-149.8903
3541.954880	93.219	-150.8060
3567.621345	93.173	-151.6936
3593.473800	93.127	-152.5594
3619.513592	93.080	-153.4119
3645.742080	93.032	-154.2596
3672.160630	92.981	-155.1072
3698.770620	92.927	-155.9528
3725.573436	92.870	-156.7933
3752.570477	92.809	-157.6287
3779.763150	92.744	-158.4611
3807.152872	92.674	-159.2915
3834.741071	92.598	-160.1154
3862.529185	92.514	-160.9222
3890.518664	92.424	-161.7018
3918.710966	92.329	-162.4506
3947.107561	92.232	-163.1719
3975.709929	92.132	-163.8735
4004.519563	92.032	-164.5656
4033.537962	91.929	-165.2573
4062.766641	91.823	-165.9510
4092.207123	91.713	-166.6417
4121.860942	91.597	-167.3220
4151.729646	91.475	-167.9873
4181.814790	91.348	-168.6360
4212.117944	91.214	-169.2639
4242.640687	91.073	-169.8607
4273.384610	90.924	-170.4128
4304.351317	90.770	-170.9095
4335.542421	90.611	-171.3473
4366.959549	90.449	-171.7291
4398.604338	90.287	-172.0632
4430.478438	90.124	-172.3590
4462.583511	89.960	-172.6212
4494.921231	89.795	-172.8488
4527.493283	89.629	-173.0401
4560.301365	89.462	-173.1968
4593.347189	89.294	-173.3209
4626.632476	89.124	-173.4091
4660.158962	88.952	-173.4521
4693.928395	88.779	-173.4408
4727.942535	88.606	-173.3712
4762.203156	88.437	-173.2466
4796.712043	88.271	-173.0770
4831.470996	88.109	-172.8739
4866.481826	87.952	-172.6444
4901.746360	87.798	-172.3909
4937.266434	87.648	-172.1157
4973.043902	87.499	-171.8223
5009.080628	87.352	-171.5104
5045.378492	87.204	-171.1722
5081.939384	87.056	-170.7963
5118.765212	86.909	-170.3734
5155.857894	86.764	-169.9005
5193.219366	86.623	-169.3834
5230.851574	86.486	-168.8310
5268.756481	86.354	-168.2503
5306.936062	86.226	-167.6459
5345.392309	86.102	-167.0233
5384.127225	85.981	-166.3870
5423.142830	85.861	-165.7350
5462.441159	85.741	-165.0587
5502.024259	85.620	-164.3465
5541.894195	85.502	-163.5904
5582.053045	85.386	-162.7898
5622.502902	85.275	-161.9501
5663.245876	85.170	-161.0770
5704.284090	85.070	-160.1763
5745.619684	84.977	-159.2550
5787.254813	84.889	-158.3185
5829.191647	84.807	-157.3658
5871.432373	84.728	-156.3888
5913.979192	84.654	-155.3777
5956.834323	84.585	-154.3262
6000.000000	84.524	-153.2341
6043.478473	84.471	-152.1055
6087.272010	84.429	-150.9470
6131.382892	84.397	-149.7690
6175.813420	84.376	-148.5828
6220.565910	84.364	-147.3947
6265.642695	84.360	-146.2024
6311.046124	84.364	-144.9976
6356.778566	84.377	-143.7711
6402.842404	84.399	-142.5170
6449.240040	84.432	-141.2321
6495.973891	84.479	-139.9178
6543.046396	84.541	-138.5811
6590.460007	84.620	-137.2313
6638.217197	84.717	-135.8764
6686.320456	84.833	-134.5233
6734.772290	84.971	-133.1808
6783.575226	85.131	-131.8644
6832.731809	85.316	-130.5958
6882.244600	85.524	-129.4019
6932.116181	85.756	-128.3132
6982.349153	86.007	-127.3585
7032.946133	86.277	-126.5588
7083.909760	86.561	-125.9243
7135.242690	86.858	-125.4580
7186.947600	87.167	-125.1595
7239.027185	87.486	-125.0286
7291.484160	87.817	-125.0685
7344.321260	88.158	-125.2893
7397.541239	88.510	-125.7045
7451.146872	88.872	-126.3282
7505.140954	89.243	-127.1758
7559.526299	89.623	-128.2681
7614.305743	90.009	-129.6318
7669.482141	90.400	-131.3000
7725.058371	90.790	-133.3102
7781.037328	91.171	-135.6976
7837.421932	91.531	-138.4852
7894.215122	91.858	-141.6765
7951.419859	92.140	-145.2535
8009.039125	92.364	-149.1758
8067.075924	92.520	-153.3834
8125.533282	92.599	-157.8003
8184.414245	92.596	-162.3387
8243.721885	92.508	-166.9004
8303.459292	92.333	-171.3807
8363.629581	92.076	-175.6775
8424.235888	91.745	-179.6990
8485.281374	91.350	176.6268
8546.769221	90.905	173.3452
8608.702634	90.424	170.4747
8671.084842	89.920	168.0138
8733.919097	89.403	165.9469
8797.208675	88.883	164.2509
8860.956876	88.367	162.8977
8925.167022	87.863	161.8534
8989.842461	87.376	161.0763
9054.986566	86.910	160.5224
9120.602731	86.465	160.1505
9186.694378	86.043	159.9277
9253.264952	85.642	159.8306
9320.317925	85.263	159.8401
9387.856790	84.906	159.9351
9455.885071	84.571	160.0923
9524.406312	84.256	160.2894
9593.424086	83.960	160.5101
9662.941992	83.682	160.7460
9732.963653	83.420	160.9916
9803.492719	83.175	161.2386
9874.532869	82.944	161.4744
9946.087805	82.728	161.6861
10018.161257	82.522	161.8662
10090.756983	82.324	162.0148
10163.878768	82.133	162.1333
10237.530423	81.947	162.2194
10311.715789	81.767	162.2671
10386.438732	81.589	162.2719
10461.703149	81.411	162.2362
10537.512962	81.231	162.1676
10613.872125	81.050	162.0730
10690.784618	80.865	161.9548
10768.254450	80.677	161.8128
10846.285661	80.481	161.6516
10924.882318	80.277	161.4835
11004.048518	80.062	161.3246
11083.788390	79.837	161.1892
11164.106090	79.603	161.0883
11245.005805	79.358	161.0350
11326.491752	79.104	161.0471
11408.568180	78.842	161.1425
11491.239368	78.573	161.3340
11574.509626	78.300	161.6281
11658.383294	78.024	162.0305
11742.864745	77.746	162.5499
11827.958384	77.468	163.1945
11913.668646	77.195	163.9659
12000.000000	76.929	164.8584
12086.956947	76.671	165.8647
12174.544019	76.425	166.9807
12262.765784	76.190	168.2033
12351.626840	75.970	169.5244
12441.131819	75.767	170.9318
12531.285389	75.580	172.4142
12622.092249	75.412	173.9651
12713.557132	75.262	175.5783
12805.684808	75.133	177.2434
12898.480079	75.026	178.9486
12991.947783	74.942	-179.3149
13086.092792	74.882	-177.5535
13180.920015	74.848	-175.7778
13276.434395	74.842	-174.0043
13372.640911	74.865	-172.2496
13469.544580	74.917	-170.5271
13567.150452	74.998	-168.8513
13665.463617	75.111	-167.2405
13764.489200	75.254	-165.7137
13864.232362	75.429	-164.2856
13964.698305	75.637	-162.9714
14065.892266	75.879	-161.7910
14167.819519	76.158	-160.7680
14270.485380	76.473	-159.9280
14373.895200	76.827	-159.3013
14478.054370	77.219	-158.9240
14582.968320	77.650	-158.8336
14688.642520	78.118	-159.0648
14795.082478	78.622	-159.6525
14902.293745	79.161	-160.6353
15010.281908	79.734	-162.0531
15119.052599	80.336	-163.9446
15228.611486	80.963	-166.3481
15338.964283	81.609	-169.3012
15450.116741	82.265	-172.8374
15562.074656	82.921	-176.9846
15674.843864	83.564	178.2349
15788.430244	84.181	172.8049
15902.839718	84.758	166.7183
16018.078250	85.281	159.9796
16134.151848	85.732	152.6052
16251.066563	86.096	144.6262
16368.828491	86.357	136.0936
16487.443769	86.498	127.0817
16606.918584	86.505	117.6870
16727.259161	86.367	108.0265
16848.471777	86.074	98.2351
16970.562748	85.623	88.4571
17093.538442	85.013	78.8394
17217.405268	84.246	69.5287
17342.169684	83.327	60.6651
17467.838194	82.268	52.3760
17594.417350	81.078	44.7721
17721.913751	79.773	37.9458
17850.334044	78.367	31.9664
17979.684923	76.877	26.8785
18109.973131	75.321	22.7041
18241.205462	73.716	19.4420
18373.388756	72.080	17.0688
18506.529905	70.429	15.5444
18640.635849	68.778	14.8174
18775.713581	67.138	14.8281
18911.770141	65.520	15.5164
19048.812624	63.933	16.8276
19186.848172	62.387	18.7155
19325.883983	60.894	21.1356
19465.927305	59.479	24.0244
19606.985439	58.189	27.2491
19749.065738	57.100	30.5245
19892.175609	56.307	33.3380
20036.322514	55.891	35.0115
