* Measurement data measured by REW V5.31
* Source: EXCL: Microphone (USB Sound Device        ), MICROPHONE (Master Volume), L, volume: 0.250
* Format: 256k Log Swept Sine, 1 sweep at -5.0 dBFS with no timing reference
* Dated: Jun 19, 2024 12:11:34 AM
* REW Settings:
*  C-weighting compensation: Off
*  Target level: 75.0 dB
* Note: Celest Wyvern Abyss R
* Measurement: R Celest Wyvern Abyss
* Smoothing: 1/12 octave
* Frequency Step: 96 ppo
* Start Frequency: 0.36621094 Hz
*
* Freq(Hz) SPL(dB) Phase(degrees)
0.366211 86.737 167.0197
0.368865 86.732 167.0048
0.371538 86.726 166.9823
0.374230 86.717 166.9542
0.376942 86.708 166.9219
0.379673 86.697 166.8864
0.382424 86.687 166.8485
0.385196 86.676 166.8086
0.387987 86.665 166.7670
0.390798 86.653 166.7237
0.393630 86.642 166.6790
0.396483 86.630 166.6327
0.399356 86.619 166.5849
0.402250 86.607 166.5356
0.405165 86.595 166.4847
0.408101 86.583 166.4324
0.411058 86.571 166.3785
0.414037 86.559 166.3230
0.417037 86.547 166.2660
0.420059 86.535 166.2074
0.423103 86.523 166.1472
0.426169 86.510 166.0854
0.429257 86.498 166.0220
0.432368 86.485 165.9569
0.435501 86.473 165.8902
0.438656 86.460 165.8218
0.441835 86.447 165.7517
0.445037 86.434 165.6799
0.448262 86.421 165.6065
0.451510 86.408 165.5313
0.454782 86.395 165.4544
0.458077 86.381 165.3758
0.461397 86.368 165.2955
0.464740 86.354 165.2134
0.468108 86.341 165.1295
0.471500 86.327 165.0438
0.474917 86.313 164.9564
0.478358 86.299 164.8672
0.481825 86.285 164.7762
0.485316 86.271 164.6834
0.488833 86.257 164.5888
0.492375 86.243 164.4924
0.495943 86.228 164.3941
0.499537 86.214 164.2940
0.503157 86.199 164.1921
0.506803 86.184 164.0884
0.510475 86.170 163.9829
0.514175 86.155 163.8755
0.517900 86.140 163.7663
0.521653 86.124 163.6552
0.525434 86.109 163.5423
0.529241 86.094 163.4276
0.533076 86.078 163.3111
0.536939 86.063 163.1928
0.540830 86.047 163.0726
0.544749 86.031 162.9507
0.548696 86.015 162.8269
0.552673 85.999 162.7014
0.556677 85.983 162.5741
0.560711 85.967 162.4450
0.564774 85.950 162.3142
0.568867 85.934 162.1817
0.572989 85.917 162.0475
0.577141 85.900 161.9115
0.581324 85.883 161.7740
0.585536 85.866 161.6347
0.589779 85.849 161.4939
0.594053 85.832 161.3515
0.598358 85.814 161.2075
0.602694 85.797 161.0620
0.607061 85.779 160.9150
0.611460 85.761 160.7666
0.615891 85.743 160.6167
0.620354 85.725 160.4655
0.624849 85.707 160.3130
0.629377 85.689 160.1592
0.633938 85.671 160.0042
0.638532 85.652 159.8480
0.643159 85.633 159.6908
0.647819 85.614 159.5324
0.652514 85.595 159.3732
0.657242 85.576 159.2130
0.662005 85.557 159.0520
0.666802 85.538 158.8902
0.671634 85.518 158.7278
0.676501 85.498 158.5648
0.681403 85.479 158.4013
0.686341 85.459 158.2375
0.691314 85.439 158.0733
0.696324 85.418 157.9089
0.701370 85.398 157.7444
0.706452 85.377 157.5798
0.711571 85.355 157.4152
0.716728 85.333 157.2505
0.721921 85.310 157.0856
0.727153 85.286 156.9201
0.732422 85.260 156.7536
0.737729 85.233 156.5856
0.743075 85.204 156.4153
0.748460 85.173 156.2424
0.753883 85.141 156.0663
0.759346 85.109 155.8869
0.764849 85.075 155.7038
0.770391 85.042 155.5170
0.775974 85.008 155.3264
0.781597 84.973 155.1319
0.787261 84.938 154.9336
0.792966 84.903 154.7313
0.798712 84.867 154.5250
0.804500 84.831 154.3147
0.810329 84.794 154.1004
0.816201 84.757 153.8821
0.822116 84.720 153.6597
0.828073 84.681 153.4333
0.834074 84.642 153.2028
0.840118 84.603 152.9683
0.846206 84.563 152.7296
0.852338 84.522 152.4869
0.858514 84.481 152.2401
0.864735 84.438 151.9893
0.871001 84.395 151.7344
0.877313 84.352 151.4754
0.883670 84.307 151.2125
0.890074 84.262 150.9455
0.896524 84.215 150.6747
0.903020 84.168 150.3999
0.909564 84.119 150.1212
0.916155 84.070 149.8388
0.922794 84.019 149.5526
0.929481 83.967 149.2628
0.936216 83.915 148.9693
0.943000 83.860 148.6724
0.949834 83.805 148.3721
0.956717 83.748 148.0685
0.963649 83.690 147.7617
0.970632 83.630 147.4520
0.977666 83.569 147.1394
0.984750 83.507 146.8241
0.991886 83.442 146.5062
0.999074 83.376 146.1861
1.006314 83.308 145.8638
1.013606 83.239 145.5397
1.020951 83.167 145.2139
1.028349 83.094 144.8868
1.035801 83.018 144.5587
1.043307 82.941 144.2297
1.050867 82.861 143.9004
1.058482 82.779 143.5709
1.066152 82.695 143.2415
1.073878 82.608 142.9125
1.081660 82.519 142.5839
1.089498 82.427 142.2557
1.097393 82.333 141.9275
1.105345 82.237 141.5988
1.113355 82.138 141.2689
1.121423 82.038 140.9371
1.129549 81.935 140.6029
1.137734 81.829 140.2656
1.145979 81.722 139.9250
1.154283 81.613 139.5807
1.162647 81.501 139.2323
1.171072 81.387 138.8796
1.179558 81.270 138.5222
1.188106 81.151 138.1598
1.196715 81.030 137.7921
1.205387 80.906 137.4189
1.214122 80.780 137.0396
1.222920 80.651 136.6541
1.231782 80.519 136.2617
1.240708 80.385 135.8622
1.249699 80.248 135.4551
1.258754 80.107 135.0400
1.267876 79.964 134.6162
1.277063 79.818 134.1833
1.286318 79.669 133.7408
1.295639 79.517 133.2879
1.305027 79.362 132.8241
1.314484 79.203 132.3486
1.324009 79.041 131.8607
1.333604 78.876 131.3597
1.343268 78.707 130.8446
1.353002 78.534 130.3145
1.362806 78.358 129.7686
1.372681 78.178 129.2056
1.382628 77.994 128.6244
1.392647 77.806 128.0239
1.402739 77.614 127.4027
1.412904 77.418 126.7594
1.423142 77.217 126.0922
1.433455 77.010 125.3993
1.443843 76.797 124.6786
1.454305 76.577 123.9275
1.464844 76.347 123.1428
1.475459 76.106 122.3208
1.486150 75.850 121.4571
1.496920 75.580 120.5466
1.507767 75.293 119.5838
1.518693 74.989 118.5623
1.529698 74.670 117.4752
1.540783 74.336 116.3142
1.551948 73.988 115.0700
1.563194 73.627 113.7317
1.574521 73.255 112.2868
1.585931 72.874 110.7205
1.597423 72.486 109.0153
1.608999 72.092 107.1508
1.620658 71.695 105.1028
1.632402 71.297 102.8428
1.644232 70.900 100.3372
1.656146 70.507 97.5467
1.668147 70.121 94.4257
1.680235 69.744 90.9227
1.692411 69.379 86.9812
1.704675 69.030 82.5424
1.717028 68.699 77.5515
1.729470 68.391 71.9677
1.742003 68.110 65.7788
1.754626 67.859 59.0191
1.767341 67.643 51.7846
1.780147 67.466 44.2369
1.793047 67.333 36.5868
1.806040 67.248 29.0600
1.819128 67.215 21.8557
1.832310 67.238 15.1175
1.845587 67.319 8.9244
1.858961 67.457 3.3005
1.872432 67.654 -1.7683
1.886001 67.905 -6.3188
1.899667 68.209 -10.3985
1.913433 68.561 -14.0585
1.927299 68.957 -17.3482
1.941265 69.392 -20.3136
1.955332 69.863 -22.9958
1.969501 70.363 -25.4310
1.983773 70.888 -27.6505
1.998148 71.433 -29.6813
2.012627 71.992 -31.5466
2.027212 72.561 -33.2661
2.041902 73.134 -34.8568
2.056698 73.705 -36.3333
2.071602 74.271 -37.7082
2.086614 74.825 -38.9924
2.101734 75.363 -40.1953
2.116964 75.879 -41.3255
2.132304 76.371 -42.3905
2.147756 76.835 -43.3976
2.163320 77.269 -44.3536
2.178996 77.671 -45.2656
2.194786 78.044 -46.1406
2.210690 78.390 -46.9854
2.226710 78.712 -47.8059
2.242845 79.014 -48.6066
2.259098 79.298 -49.3904
2.275468 79.567 -50.1592
2.291957 79.821 -50.9136
2.308566 80.062 -51.6539
2.325295 80.292 -52.3801
2.342145 80.511 -53.0918
2.359117 80.720 -53.7886
2.376212 80.920 -54.4703
2.393431 81.112 -55.1363
2.410775 81.298 -55.7863
2.428244 81.478 -56.4198
2.445840 81.654 -57.0366
2.463564 81.826 -57.6364
2.481416 81.997 -58.2192
2.499397 82.165 -58.7853
2.517509 82.333 -59.3353
2.535752 82.501 -59.8705
2.554127 82.667 -60.3930
2.572635 82.831 -60.9051
2.591277 82.993 -61.4098
2.610055 83.150 -61.9091
2.628968 83.303 -62.4046
2.648019 83.450 -62.8970
2.667208 83.592 -63.3862
2.686535 83.729 -63.8718
2.706003 83.862 -64.3531
2.725612 83.989 -64.8292
2.745363 84.113 -65.2991
2.765257 84.233 -65.7616
2.785295 84.349 -66.2158
2.805478 84.463 -66.6606
2.825808 84.574 -67.0949
2.846285 84.684 -67.5180
2.866910 84.792 -67.9293
2.887685 84.899 -68.3287
2.908611 85.004 -68.7166
2.929688 85.108 -69.0939
2.950917 85.210 -69.4621
2.972301 85.309 -69.8227
2.993839 85.405 -70.1770
3.015534 85.499 -70.5255
3.037386 85.589 -70.8685
3.059396 85.677 -71.2059
3.081565 85.762 -71.5372
3.103896 85.844 -71.8617
3.126388 85.925 -72.1788
3.149043 86.003 -72.4875
3.171862 86.081 -72.7870
3.194847 86.157 -73.0765
3.217998 86.232 -73.3552
3.241317 86.307 -73.6223
3.264805 86.381 -73.8774
3.288463 86.454 -74.1203
3.312293 86.526 -74.3512
3.336295 86.597 -74.5706
3.360471 86.667 -74.7791
3.384822 86.736 -74.9775
3.409350 86.803 -75.1664
3.434056 86.869 -75.3465
3.458940 86.934 -75.5186
3.484005 86.998 -75.6831
3.509252 87.062 -75.8406
3.534681 87.126 -75.9916
3.560295 87.189 -76.1364
3.586094 87.253 -76.2753
3.612081 87.317 -76.4082
3.638255 87.381 -76.5351
3.664620 87.446 -76.6555
3.691175 87.511 -76.7691
3.717923 87.577 -76.8756
3.744864 87.643 -76.9753
3.772001 87.709 -77.0688
3.799335 87.775 -77.1570
3.826866 87.841 -77.2413
3.854597 87.908 -77.3230
3.882529 87.975 -77.4036
3.910664 88.043 -77.4846
3.939002 88.111 -77.5674
3.967546 88.180 -77.6532
3.996296 88.250 -77.7428
4.025255 88.321 -77.8367
4.054423 88.392 -77.9351
4.083804 88.465 -78.0374
4.113396 88.538 -78.1430
4.143204 88.612 -78.2511
4.173227 88.686 -78.3611
4.203468 88.761 -78.4724
4.233928 88.837 -78.5849
4.264609 88.912 -78.6989
4.295512 88.988 -78.8151
4.326639 89.064 -78.9353
4.357992 89.141 -79.0621
4.389572 89.217 -79.1983
4.421380 89.293 -79.3466
4.453419 89.369 -79.5078
4.485691 89.446 -79.6815
4.518196 89.522 -79.8668
4.550936 89.598 -80.0628
4.583914 89.674 -80.2688
4.617131 89.750 -80.4845
4.650589 89.825 -80.7097
4.684289 89.899 -80.9446
4.718233 89.972 -81.1895
4.752424 90.044 -81.4445
4.786862 90.115 -81.7098
4.821549 90.185 -81.9856
4.856488 90.254 -82.2713
4.891680 90.322 -82.5664
4.927127 90.389 -82.8701
4.962831 90.454 -83.1813
4.998794 90.519 -83.4991
5.035017 90.582 -83.8227
5.071503 90.643 -84.1516
5.108253 90.703 -84.4855
5.145270 90.762 -84.8245
5.182555 90.819 -85.1689
5.220110 90.874 -85.5186
5.257937 90.928 -85.8731
5.296038 90.980 -86.2316
5.334415 91.031 -86.5929
5.373071 91.081 -86.9559
5.412006 91.130 -87.3194
5.451224 91.177 -87.6826
5.490725 91.223 -88.0451
5.530514 91.268 -88.4067
5.570590 91.312 -88.7678
5.610957 91.355 -89.1282
5.651616 91.396 -89.4878
5.692570 91.437 -89.8463
5.733821 91.477 -90.2030
5.775370 91.517 -90.5575
5.817221 91.557 -90.9092
5.859375 91.596 -91.2576
5.901834 91.635 -91.6028
5.944602 91.674 -91.9449
5.987679 91.713 -92.2843
6.031068 91.751 -92.6216
6.074771 91.791 -92.9573
6.118792 91.830 -93.2920
6.163131 91.870 -93.6260
6.207792 91.911 -93.9597
6.252776 91.952 -94.2930
6.298086 91.994 -94.6263
6.343725 92.037 -94.9600
6.389694 92.081 -95.2949
6.435996 92.125 -95.6319
6.482634 92.171 -95.9721
6.529610 92.217 -96.3165
6.576926 92.264 -96.6656
6.624585 92.312 -97.0200
6.672590 92.361 -97.3799
6.720942 92.411 -97.7455
6.769645 92.461 -98.1172
6.818700 92.512 -98.4957
6.868111 92.564 -98.8813
6.917881 92.616 -99.2748
6.968010 92.669 -99.6765
7.018504 92.721 -100.0864
7.069362 92.774 -100.5044
7.120590 92.828 -100.9302
7.172189 92.881 -101.3633
7.224161 92.934 -101.8034
7.276511 92.987 -102.2500
7.329239 93.039 -102.7030
7.382350 93.091 -103.1620
7.435845 93.143 -103.6267
7.489729 93.194 -104.0961
7.544002 93.245 -104.5695
7.598669 93.296 -105.0456
7.653732 93.345 -105.5237
7.709194 93.395 -106.0031
7.765058 93.443 -106.4832
7.821327 93.492 -106.9635
7.878004 93.539 -107.4433
7.935091 93.587 -107.9217
7.992592 93.634 -108.3980
8.050510 93.681 -108.8714
8.108847 93.728 -109.3414
8.167607 93.775 -109.8079
8.226793 93.822 -110.2707
8.286408 93.869 -110.7296
8.346454 93.916 -111.1846
8.406936 93.963 -111.6355
8.467856 94.011 -112.0823
8.529218 94.060 -112.5252
8.591024 94.109 -112.9645
8.653278 94.159 -113.4006
8.715983 94.209 -113.8341
8.779143 94.260 -114.2654
8.842760 94.312 -114.6948
8.906839 94.364 -115.1227
8.971381 94.417 -115.5496
9.036392 94.470 -115.9758
9.101873 94.524 -116.4019
9.167829 94.578 -116.8283
9.234263 94.632 -117.2552
9.301178 94.687 -117.6827
9.368578 94.742 -118.1107
9.436467 94.796 -118.5393
9.504847 94.851 -118.9685
9.573723 94.905 -119.3981
9.643099 94.958 -119.8278
9.712976 95.009 -120.2574
9.783361 95.059 -120.6863
9.854255 95.107 -121.1140
9.925663 95.151 -121.5403
9.997588 95.193 -121.9646
10.070035 95.232 -122.3865
10.143007 95.268 -122.8057
10.216507 95.302 -123.2216
10.290540 95.335 -123.6340
10.365109 95.365 -124.0426
10.440219 95.394 -124.4474
10.515873 95.422 -124.8484
10.592076 95.449 -125.2454
10.668830 95.475 -125.6387
10.746141 95.501 -126.0284
10.824012 95.527 -126.4149
10.902447 95.552 -126.7985
10.981451 95.577 -127.1796
11.061027 95.601 -127.5585
11.141180 95.626 -127.9359
11.221913 95.649 -128.3119
11.303232 95.672 -128.6870
11.385140 95.695 -129.0617
11.467641 95.717 -129.4361
11.550741 95.739 -129.8105
11.634442 95.760 -130.1851
11.718750 95.781 -130.5599
11.803669 95.802 -130.9350
11.889203 95.822 -131.3104
11.975357 95.842 -131.6860
12.062136 95.861 -132.0618
12.149543 95.880 -132.4377
12.237583 95.898 -132.8136
12.326262 95.916 -133.1896
12.415583 95.933 -133.5657
12.505552 95.950 -133.9420
12.596172 95.966 -134.3186
12.687449 95.981 -134.6958
12.779387 95.995 -135.0739
12.871992 96.009 -135.4531
12.965268 96.023 -135.8339
13.059220 96.036 -136.2167
13.153852 96.049 -136.6018
13.249170 96.062 -136.9896
13.345179 96.075 -137.3805
13.441884 96.087 -137.7745
13.539289 96.099 -138.1720
13.637401 96.111 -138.5728
13.736223 96.122 -138.9770
13.835761 96.133 -139.3844
13.936021 96.144 -139.7948
14.037007 96.154 -140.2078
14.138725 96.163 -140.6231
14.241180 96.172 -141.0403
14.344377 96.180 -141.4591
14.448323 96.188 -141.8791
14.553021 96.195 -142.3002
14.658478 96.203 -142.7222
14.764700 96.210 -143.1451
14.871691 96.218 -143.5689
14.979457 96.226 -143.9939
15.088005 96.235 -144.4203
15.197339 96.244 -144.8486
15.307465 96.253 -145.2791
15.418389 96.264 -145.7122
15.530117 96.275 -146.1484
15.642655 96.286 -146.5881
15.756008 96.298 -147.0314
15.870182 96.310 -147.4786
15.985184 96.322 -147.9298
16.101019 96.335 -148.3848
16.217694 96.348 -148.8435
16.335214 96.361 -149.3057
16.453586 96.375 -149.7708
16.572815 96.388 -150.2386
16.692909 96.402 -150.7084
16.813872 96.416 -151.1797
16.935713 96.430 -151.6520
17.058436 96.444 -152.1247
17.182048 96.459 -152.5972
17.306556 96.473 -153.0690
17.431967 96.488 -153.5394
17.558286 96.502 -154.0081
17.685521 96.515 -154.4744
17.813677 96.529 -154.9379
17.942762 96.542 -155.3981
18.072783 96.555 -155.8546
18.203746 96.567 -156.3072
18.335658 96.580 -156.7556
18.468526 96.592 -157.1997
18.602356 96.604 -157.6396
18.737156 96.616 -158.0756
18.872934 96.628 -158.5079
19.009695 96.640 -158.9369
19.147447 96.653 -159.3631
19.286197 96.665 -159.7870
19.425953 96.677 -160.2092
19.566721 96.688 -160.6300
19.708510 96.699 -161.0498
19.851326 96.710 -161.4687
19.995177 96.720 -161.8869
20.140070 96.729 -162.3044
20.286013 96.737 -162.7210
20.433014 96.744 -163.1367
20.581080 96.750 -163.5513
20.730219 96.756 -163.9648
20.880439 96.761 -164.3774
21.031747 96.766 -164.7892
21.184152 96.770 -165.2007
21.337661 96.774 -165.6123
21.492282 96.778 -166.0247
21.648024 96.781 -166.4383
21.804895 96.785 -166.8539
21.962902 96.788 -167.2718
22.122054 96.790 -167.6924
22.282360 96.792 -168.1160
22.443827 96.794 -168.5426
22.606464 96.795 -168.9723
22.770280 96.796 -169.4049
22.935283 96.797 -169.8405
23.101481 96.797 -170.2789
23.268884 96.797 -170.7202
23.437500 96.797 -171.1644
23.607338 96.797 -171.6115
23.778406 96.797 -172.0617
23.950714 96.796 -172.5149
24.124271 96.795 -172.9710
24.299086 96.794 -173.4297
24.475167 96.793 -173.8907
24.652524 96.792 -174.3532
24.831166 96.791 -174.8166
25.011103 96.789 -175.2803
25.192344 96.788 -175.7435
25.374898 96.787 -176.2056
25.558775 96.785 -176.6662
25.743984 96.784 -177.1249
25.930536 96.783 -177.5817
26.118439 96.782 -178.0366
26.307704 96.781 -178.4896
26.498341 96.780 -178.9409
26.690359 96.780 -179.3906
26.883768 96.779 -179.8388
27.078579 96.778 179.7145
27.274801 96.777 179.2693
27.472446 96.776 178.8258
27.671522 96.774 178.3839
27.872042 96.772 177.9436
28.074014 96.769 177.5050
28.277450 96.766 177.0680
28.482360 96.762 176.6325
28.688755 96.757 176.1984
28.896645 96.752 175.7653
29.106042 96.747 175.3331
29.316957 96.741 174.9016
29.529400 96.735 174.4703
29.743382 96.728 174.0387
29.958915 96.721 173.6064
30.176009 96.713 173.1729
30.394677 96.706 172.7375
30.614929 96.698 172.2998
30.836778 96.690 171.8596
31.060234 96.682 171.4167
31.285309 96.673 170.9712
31.512015 96.664 170.5232
31.740364 96.655 170.0730
31.970368 96.646 169.6207
32.202039 96.636 169.1662
32.435388 96.627 168.7094
32.670428 96.617 168.2502
32.907171 96.608 167.7886
33.145630 96.598 167.3247
33.385817 96.588 166.8591
33.627745 96.578 166.3928
33.871425 96.568 165.9266
34.116871 96.558 165.4612
34.364096 96.547 164.9973
34.613113 96.537 164.5347
34.863934 96.526 164.0732
35.116572 96.516 163.6125
35.371041 96.505 163.1523
35.627354 96.494 162.6929
35.885525 96.482 162.2350
36.145566 96.470 161.7791
36.407492 96.457 161.3257
36.671316 96.444 160.8747
36.937051 96.431 160.4253
37.204712 96.418 159.9767
37.474313 96.404 159.5279
37.745867 96.390 159.0787
38.019389 96.375 158.6297
38.294893 96.360 158.1817
38.572394 96.344 157.7353
38.851905 96.328 157.2904
39.133442 96.312 156.8456
39.417019 96.297 156.3990
39.702651 96.281 155.9489
39.990353 96.265 155.4943
40.280140 96.249 155.0362
40.572026 96.232 154.5765
40.866028 96.215 154.1174
41.162160 96.197 153.6604
41.460438 96.179 153.2053
41.760877 96.161 152.7507
42.063494 96.144 152.2951
42.368303 96.127 151.8380
42.675322 96.109 151.3801
42.984565 96.091 150.9233
43.296048 96.072 150.4687
43.609789 96.053 150.0162
43.925804 96.035 149.5639
44.244108 96.016 149.1095
44.564719 95.998 148.6520
44.887654 95.978 148.1930
45.212928 95.957 147.7363
45.540560 95.935 147.2857
45.870565 95.913 146.8430
46.202962 95.892 146.4058
46.537768 95.871 145.9690
46.875000 95.852 145.5266
47.214676 95.834 145.0753
47.556813 95.814 144.6162
47.901429 95.794 144.1532
48.248542 95.773 143.6912
48.598171 95.751 143.2323
48.950334 95.729 142.7755
49.305048 95.708 142.3176
49.662333 95.687 141.8557
50.022206 95.666 141.3901
50.384688 95.643 140.9238
50.749796 95.619 140.4611
51.117550 95.595 140.0047
51.487969 95.571 139.5541
51.861072 95.548 139.1063
52.236879 95.525 138.6573
52.615409 95.502 138.2051
52.996681 95.479 137.7509
53.380717 95.455 137.2977
53.767536 95.431 136.8490
54.157158 95.407 136.4055
54.549603 95.384 135.9652
54.944892 95.362 135.5238
55.343045 95.341 135.0771
55.744084 95.320 134.6231
56.148028 95.299 134.1625
56.554900 95.277 133.6983
56.964720 95.255 133.2337
57.377510 95.232 132.7703
57.793291 95.210 132.3074
58.212085 95.187 131.8421
58.633914 95.165 131.3714
59.058799 95.142 130.8940
59.486764 95.118 130.4113
59.917829 95.091 129.9275
60.352019 95.064 129.4476
60.789354 95.035 128.9754
61.229859 95.006 128.5117
61.673556 94.977 128.0532
62.120468 94.950 127.5943
62.570618 94.923 127.1298
63.024031 94.896 126.6572
63.480729 94.868 126.1785
63.940736 94.839 125.6984
64.404077 94.809 125.2227
64.870776 94.779 124.7554
65.340856 94.748 124.2973
65.814343 94.718 123.8467
66.291261 94.690 123.3998
66.771635 94.663 122.9515
67.255489 94.637 122.4972
67.742850 94.612 122.0334
68.233743 94.585 121.5598
68.728193 94.558 121.0794
69.226226 94.528 120.5981
69.727867 94.497 120.1220
70.233144 94.465 119.6548
70.742083 94.433 119.1962
71.254709 94.402 118.7423
71.771050 94.373 118.2865
72.291132 94.346 117.8221
72.814984 94.319 117.3450
73.342631 94.292 116.8546
73.874102 94.264 116.3543
74.409424 94.234 115.8492
74.948626 94.203 115.3453
75.491734 94.171 114.8474
76.038779 94.138 114.3583
76.589787 94.106 113.8782
77.144788 94.075 113.4047
77.703811 94.045 112.9341
78.266885 94.016 112.4622
78.834039 93.989 111.9843
79.405303 93.964 111.4949
79.980706 93.938 110.9894
80.560280 93.912 110.4652
81.144053 93.884 109.9236
81.732056 93.854 109.3693
82.324320 93.820 108.8090
82.920876 93.783 108.2498
83.521755 93.743 107.6978
84.126988 93.700 107.1579
84.736607 93.656 106.6336
85.350643 93.611 106.1268
85.969129 93.567 105.6373
86.592097 93.523 105.1622
87.219579 93.482 104.6968
87.851608 93.443 104.2361
88.488217 93.406 103.7751
89.129439 93.371 103.3097
89.775308 93.336 102.8372
90.425856 93.302 102.3588
91.081119 93.267 101.8787
91.741131 93.232 101.4017
92.405925 93.196 100.9298
93.075536 93.161 100.4622
93.750000 93.126 99.9969
94.429351 93.091 99.5327
95.113625 93.056 99.0684
95.802858 93.020 98.6043
96.497085 92.985 98.1421
97.196342 92.949 97.6844
97.900667 92.913 97.2333
98.610096 92.878 96.7890
99.324665 92.843 96.3510
100.044413 92.810 95.9184
100.769376 92.777 95.4897
101.499592 92.745 95.0631
102.235100 92.713 94.6376
102.975938 92.681 94.2139
103.722144 92.648 93.7936
104.473757 92.616 93.3773
105.230817 92.585 92.9641
105.993363 92.555 92.5526
106.761435 92.526 92.1422
107.535072 92.500 91.7317
108.314315 92.476 91.3202
109.099206 92.454 90.9058
109.889783 92.436 90.4852
110.686090 92.421 90.0529
111.488167 92.408 89.6021
112.296056 92.396 89.1251
113.109800 92.386 88.6133
113.929440 92.375 88.0599
114.755020 92.362 87.4626
115.586582 92.348 86.8252
116.424170 92.331 86.1564
117.267827 92.311 85.4683
118.117598 92.288 84.7751
118.973527 92.265 84.0919
119.835658 92.241 83.4304
120.704037 92.218 82.7917
121.578708 92.196 82.1661
122.459718 92.174 81.5421
123.347111 92.152 80.9131
124.240935 92.126 80.2769
125.141236 92.098 79.6328
126.048061 92.068 78.9810
126.961458 92.036 78.3233
127.881473 92.003 77.6618
128.808154 91.971 76.9988
129.741551 91.939 76.3356
130.681712 91.907 75.6732
131.628686 91.874 75.0121
132.582521 91.841 74.3527
133.543269 91.806 73.6952
134.510979 91.770 73.0392
135.485701 91.733 72.3837
136.467486 91.696 71.7276
137.456386 91.659 71.0698
138.452451 91.622 70.4099
139.455735 91.586 69.7491
140.466288 91.549 69.0891
141.484165 91.513 68.4309
142.509418 91.476 67.7738
143.542100 91.439 67.1162
144.582265 91.402 66.4570
145.629968 91.364 65.7958
146.685262 91.327 65.1332
147.748204 91.289 64.4706
148.818849 91.251 63.8100
149.897251 91.212 63.1537
150.983469 91.172 62.5044
152.077557 91.131 61.8636
153.179574 91.090 61.2315
154.289576 91.049 60.6060
155.407622 91.010 59.9811
156.533770 90.973 59.3485
157.668078 90.938 58.7010
158.810606 90.905 58.0360
159.961413 90.872 57.3552
161.120559 90.839 56.6620
162.288105 90.805 55.9600
163.464112 90.770 55.2517
164.648640 90.735 54.5396
165.841752 90.698 53.8257
167.043510 90.660 53.1122
168.253976 90.622 52.4016
169.473213 90.583 51.6960
170.701286 90.545 50.9962
171.938258 90.507 50.3002
173.184194 90.469 49.6041
174.439158 90.433 48.9030
175.703216 90.397 48.1929
176.976434 90.361 47.4725
178.258878 90.326 46.7435
179.550615 90.291 46.0102
180.851713 90.258 45.2760
182.162239 90.225 44.5417
183.482262 90.192 43.8065
184.811850 90.160 43.0687
186.151073 90.127 42.3271
187.500000 90.094 41.5807
188.858702 90.060 40.8300
190.227250 90.027 40.0761
191.605715 89.993 39.3212
192.994169 89.960 38.5675
194.392685 89.927 37.8170
195.801334 89.895 37.0713
197.220191 89.863 36.3310
198.649330 89.832 35.5960
200.088825 89.802 34.8652
201.538751 89.775 34.1358
202.999184 89.751 33.4033
204.470200 89.729 32.6614
205.951875 89.711 31.9038
207.444287 89.695 31.1252
208.947514 89.681 30.3231
210.461634 89.666 29.4979
211.986726 89.651 28.6527
213.522869 89.634 27.7920
215.070144 89.615 26.9207
216.628631 89.594 26.0433
218.198411 89.572 25.1622
219.779567 89.549 24.2767
221.372180 89.526 23.3835
222.976334 89.504 22.4789
224.592112 89.481 21.5610
226.219600 89.458 20.6301
227.858880 89.434 19.6884
229.510039 89.409 18.7383
231.173164 89.383 17.7822
232.848340 89.357 16.8211
234.535655 89.330 15.8556
236.235197 89.303 14.8850
237.947054 89.276 13.9086
239.671317 89.248 12.9258
241.408074 89.220 11.9379
243.157416 89.190 10.9470
244.919435 89.160 9.9556
246.694223 89.128 8.9663
248.481871 89.096 7.9818
250.282473 89.065 7.0045
252.096123 89.034 6.0355
253.922915 89.005 5.0730
255.762945 88.978 4.1110
257.616309 88.955 3.1400
259.483103 88.934 2.1506
261.363424 88.914 1.1376
263.257372 88.895 0.1019
265.165043 88.874 -0.9501
267.086538 88.852 -2.0110
269.021957 88.829 -3.0740
270.971401 88.806 -4.1351
272.934972 88.782 -5.1940
274.912771 88.760 -6.2526
276.904902 88.739 -7.3134
278.911469 88.719 -8.3793
280.932577 88.702 -9.4528
282.968330 88.687 -10.5371
285.018835 88.674 -11.6370
287.084199 88.663 -12.7585
289.164530 88.652 -13.9070
291.259935 88.641 -15.0844
293.370525 88.628 -16.2864
295.496408 88.612 -17.5046
297.637697 88.593 -18.7299
299.794503 88.573 -19.9559
301.966937 88.552 -21.1807
304.155114 88.530 -22.4054
306.359147 88.509 -23.6325
308.579152 88.488 -24.8654
310.815244 88.468 -26.1068
313.067539 88.447 -27.3584
315.336156 88.425 -28.6193
317.621211 88.403 -29.8864
319.922826 88.380 -31.1555
322.241118 88.357 -32.4247
324.576210 88.335 -33.6951
326.928223 88.314 -34.9699
329.297280 88.295 -36.2527
331.683504 88.276 -37.5463
334.087019 88.259 -38.8529
336.507952 88.242 -40.1740
338.946427 88.226 -41.5096
341.402572 88.209 -42.8590
343.876516 88.191 -44.2202
346.368387 88.173 -45.5914
348.878315 88.155 -46.9718
351.406431 88.136 -48.3615
353.952867 88.118 -49.7604
356.517756 88.100 -51.1685
359.101230 88.081 -52.5860
361.703426 88.063 -54.0128
364.324478 88.046 -55.4487
366.964523 88.028 -56.8940
369.623699 88.011 -58.3491
372.302145 87.994 -59.8145
375.000000 87.977 -61.2906
377.717405 87.961 -62.7781
380.454501 87.945 -64.2769
383.211431 87.930 -65.7869
385.988339 87.915 -67.3083
388.785369 87.900 -68.8409
391.602668 87.885 -70.3846
394.440383 87.871 -71.9391
397.298660 87.858 -73.5042
400.177650 87.845 -75.0808
403.077502 87.833 -76.6710
405.998368 87.821 -78.2764
408.940400 87.809 -79.8976
411.903750 87.796 -81.5333
414.888575 87.784 -83.1804
417.895028 87.770 -84.8356
420.923268 87.757 -86.4963
423.973452 87.745 -88.1620
427.045738 87.734 -89.8340
430.140287 87.724 -91.5160
433.257261 87.717 -93.2126
436.396822 87.711 -94.9269
439.559133 87.706 -96.6599
442.744360 87.703 -98.4117
445.952668 87.700 -100.1843
449.184225 87.699 -101.9816
452.439199 87.698 -103.8086
455.717760 87.696 -105.6680
459.020079 87.692 -107.5563
462.346327 87.686 -109.4645
465.696680 87.676 -111.3826
469.071310 87.664 -113.3044
472.470394 87.652 -115.2286
475.894109 87.640 -117.1578
479.342634 87.629 -119.0968
482.816148 87.618 -121.0502
486.314833 87.606 -123.0195
489.838871 87.594 -125.0007
493.388445 87.582 -126.9875
496.963741 87.569 -128.9765
500.564945 87.559 -130.9707
504.192245 87.550 -132.9767
507.845830 87.542 -135.0010
511.525890 87.535 -137.0465
515.232618 87.529 -139.1130
518.966206 87.522 -141.1973
522.726849 87.514 -143.2957
526.514743 87.505 -145.4041
530.330086 87.498 -147.5213
534.173076 87.491 -149.6495
538.043915 87.485 -151.7930
541.942803 87.480 -153.9540
545.869944 87.477 -156.1323
549.825542 87.474 -158.3271
553.809805 87.472 -160.5401
557.822939 87.471 -162.7737
561.865154 87.470 -165.0293
565.936660 87.469 -167.3064
570.037671 87.468 -169.6021
574.168399 87.466 -171.9136
578.329060 87.463 -174.2395
582.519870 87.461 -176.5806
586.741049 87.458 -178.9377
590.992817 87.456 178.6904
595.275394 87.454 176.3059
599.589005 87.454 173.9085
603.933874 87.454 171.4954
608.310228 87.456 169.0635
612.718295 87.458 166.6114
617.158304 87.459 164.1406
621.630488 87.460 161.6553
626.135079 87.461 159.1609
630.672311 87.464 156.6595
635.242423 87.468 154.1472
639.845651 87.475 151.6179
644.482237 87.484 149.0685
649.152421 87.495 146.4991
653.856447 87.508 143.9084
658.594560 87.524 141.2914
663.367008 87.543 138.6398
668.174039 87.563 135.9467
673.015903 87.583 133.2115
677.892854 87.601 130.4405
682.805145 87.616 127.6412
687.753032 87.630 124.8201
692.736774 87.642 121.9821
697.756631 87.652 119.1312
702.812863 87.663 116.2684
707.905735 87.674 113.3915
713.035511 87.686 110.4969
718.202461 87.700 107.5819
723.406852 87.713 104.6459
728.648956 87.727 101.6890
733.929047 87.742 98.7116
739.247399 87.756 95.7139
744.604290 87.772 92.6961
750.000000 87.788 89.6589
755.434809 87.805 86.6023
760.909001 87.823 83.5259
766.422861 87.842 80.4288
771.976677 87.861 77.3101
777.570739 87.882 74.1687
783.205337 87.904 71.0041
788.880766 87.927 67.8172
794.597321 87.950 64.6100
800.355301 87.976 61.3840
806.155005 88.004 58.1372
811.996736 88.036 54.8644
817.880799 88.071 51.5584
823.807501 88.109 48.2119
829.777150 88.150 44.8190
835.790057 88.190 41.3784
841.846536 88.229 37.8954
847.946903 88.266 34.3782
854.091476 88.300 30.8328
860.280575 88.334 27.2625
866.514523 88.367 23.6700
872.793644 88.399 20.0584
879.118267 88.433 16.4277
885.488720 88.467 12.7747
891.905336 88.503 9.0965
898.368450 88.540 5.3927
904.878398 88.578 1.6649
911.435520 88.618 -2.0863
918.040157 88.659 -5.8627
924.692655 88.703 -9.6666
931.393359 88.749 -13.5006
938.142619 88.798 -17.3678
944.940787 88.848 -21.2697
951.788218 88.900 -25.2055
958.685268 88.954 -29.1738
965.632296 89.010 -33.1732
972.629666 89.068 -37.2026
979.677741 89.128 -41.2625
986.776890 89.192 -45.3549
993.927482 89.258 -49.4805
1001.129891 89.327 -53.6387
1008.384491 89.401 -57.8291
1015.691660 89.480 -62.0557
1023.051781 89.565 -66.3257
1030.465236 89.657 -70.6484
1037.932411 89.755 -75.0358
1045.453698 89.859 -79.5001
1053.029486 89.964 -84.0479
1060.660172 90.070 -88.6785
1068.346153 90.175 -93.3869
1076.087829 90.278 -98.1672
1083.885605 90.378 -103.0144
1091.739887 90.476 -107.9261
1099.651084 90.572 -112.9005
1107.619609 90.664 -117.9349
1115.645878 90.752 -123.0262
1123.730308 90.837 -128.1709
1131.873321 90.917 -133.3651
1140.075341 90.994 -138.6060
1148.336797 91.067 -143.8907
1156.658119 91.136 -149.2167
1165.039741 91.202 -154.5812
1173.482099 91.266 -159.9811
1181.985634 91.327 -165.4147
1190.550789 91.386 -170.8828
1199.178011 91.442 -176.3876
1207.867749 91.495 178.0706
1216.620457 91.542 172.4988
1225.436590 91.582 166.9144
1234.316609 91.618 161.3384
1243.260976 91.652 155.7878
1252.270157 91.694 150.2672
1261.344623 91.748 144.7611
1270.484846 91.821 139.2346
1279.691303 91.912 133.6440
1288.964474 92.018 127.9502
1298.304842 92.129 122.1309
1307.712894 92.240 116.1841
1317.189120 92.343 110.1245
1326.734016 92.438 103.9744
1336.348077 92.523 97.7570
1346.031806 92.600 91.4912
1355.785708 92.673 85.1907
1365.610290 92.742 78.8633
1375.506065 92.810 72.5133
1385.473549 92.880 66.1431
1395.513261 92.951 59.7505
1405.625726 93.027 53.3297
1415.811469 93.107 46.8704
1426.071023 93.192 40.3608
1436.404921 93.280 33.7928
1446.813703 93.368 27.1642
1457.297912 93.455 20.4766
1467.858093 93.542 13.7327
1478.494798 93.627 6.9343
1489.208581 93.711 0.0836
1500.000000 93.792 -6.8177
1510.869618 93.870 -13.7679
1521.818002 93.944 -20.7660
1532.845723 94.016 -27.8113
1543.953355 94.084 -34.9037
1555.141477 94.152 -42.0436
1566.410674 94.221 -49.2340
1577.761531 94.293 -56.4810
1589.194642 94.367 -63.7910
1600.710601 94.441 -71.1648
1612.310010 94.513 -78.5920
1623.993473 94.581 -86.0480
1635.761599 94.638 -93.4880
1647.615002 94.679 -100.8313
1659.554299 94.694 -107.9526
1671.580114 94.671 -114.6338
1683.693072 94.608 -120.5089
1695.893807 94.530 -125.1338
1708.182952 94.492 -128.1644
1720.561150 94.548 -129.5144
1733.029045 94.711 -129.3867
1745.587288 94.949 -128.1765
1758.236533 95.200 -126.3357
1770.977440 95.412 -124.2905
1783.810673 95.555 -122.4111
1796.736900 95.639 -120.9640
1809.756796 95.691 -120.0415
1822.871040 95.738 -119.5536
1836.080315 95.791 -119.3457
1849.385310 95.851 -119.3110
1862.786718 95.918 -119.3850
1876.285239 95.990 -119.5251
1889.881575 96.065 -119.7079
1903.576436 96.145 -119.9183
1917.370535 96.229 -120.1479
1931.264593 96.318 -120.3920
1945.259332 96.413 -120.6510
1959.355483 96.513 -120.9327
1973.553781 96.617 -121.2493
1987.854965 96.723 -121.6089
2002.259781 96.828 -122.0133
2016.768981 96.931 -122.4583
2031.383320 97.030 -122.9371
2046.103561 97.125 -123.4434
2060.930471 97.216 -123.9714
2075.864823 97.304 -124.5192
2090.907395 97.387 -125.0859
2106.058972 97.466 -125.6705
2121.320344 97.540 -126.2686
2136.692305 97.609 -126.8737
2152.175658 97.673 -127.4785
2167.771210 97.734 -128.0812
2183.479774 97.793 -128.6873
2199.302169 97.849 -129.3065
2215.239219 97.903 -129.9462
2231.291755 97.953 -130.6089
2247.460615 97.998 -131.2925
2263.746641 98.037 -131.9916
2280.150683 98.070 -132.6975
2296.673595 98.097 -133.3999
2313.316238 98.118 -134.0895
2330.079481 98.136 -134.7617
2346.964198 98.152 -135.4199
2363.971268 98.165 -136.0723
2381.101578 98.176 -136.7249
2398.356022 98.182 -137.3784
2415.735498 98.184 -138.0295
2433.240913 98.180 -138.6710
2450.873180 98.171 -139.2954
2468.633217 98.157 -139.8956
2486.521951 98.137 -140.4637
2504.540314 98.113 -140.9896
2522.689246 98.086 -141.4609
2540.969692 98.057 -141.8665
2559.382606 98.031 -142.2035
2577.928947 98.010 -142.4805
2596.609683 97.996 -142.7133
2615.425787 97.990 -142.9199
2634.378241 97.993 -143.1189
2653.468031 98.004 -143.3268
2672.696154 98.022 -143.5569
2692.063613 98.046 -143.8199
2711.571415 98.075 -144.1256
2731.220579 98.109 -144.4858
2751.012130 98.144 -144.9120
2770.947098 98.178 -145.4093
2791.026522 98.208 -145.9742
2811.251451 98.231 -146.5955
2831.622938 98.245 -147.2571
2852.142045 98.249 -147.9426
2872.809842 98.244 -148.6355
2893.627406 98.229 -149.3182
2914.595823 98.206 -149.9724
2935.716186 98.175 -150.5831
2956.989596 98.141 -151.1445
2978.417161 98.104 -151.6586
3000.000000 98.067 -152.1315
3021.739237 98.028 -152.5684
3043.636005 97.990 -152.9707
3065.691446 97.951 -153.3354
3087.906710 97.914 -153.6573
3110.282955 97.878 -153.9349
3132.821347 97.847 -154.1753
3155.523062 97.822 -154.3900
3178.389283 97.802 -154.5917
3201.421202 97.786 -154.7906
3224.620020 97.776 -154.9945
3247.986946 97.768 -155.2089
3271.523198 97.763 -155.4351
3295.230004 97.760 -155.6687
3319.108599 97.759 -155.9031
3343.160228 97.760 -156.1355
3367.386145 97.766 -156.3702
3391.787613 97.776 -156.6150
3416.365904 97.789 -156.8766
3441.122300 97.806 -157.1570
3466.058091 97.825 -157.4521
3491.174576 97.846 -157.7572
3516.473066 97.872 -158.0724
3541.954880 97.902 -158.4045
3567.621345 97.936 -158.7639
3593.473800 97.975 -159.1611
3619.513592 98.016 -159.6063
3645.742080 98.059 -160.1069
3672.160630 98.101 -160.6639
3698.770620 98.142 -161.2720
3725.573436 98.180 -161.9244
3752.570477 98.216 -162.6191
3779.763150 98.249 -163.3578
3807.152872 98.278 -164.1421
3834.741071 98.301 -164.9697
3862.529185 98.318 -165.8328
3890.518664 98.330 -166.7239
3918.710966 98.336 -167.6414
3947.107561 98.340 -168.5900
3975.709929 98.340 -169.5776
4004.519563 98.337 -170.6139
4033.537962 98.328 -171.7065
4062.766641 98.311 -172.8564
4092.207123 98.286 -174.0571
4121.860942 98.249 -175.2990
4151.729646 98.202 -176.5740
4181.814790 98.143 -177.8757
4212.117944 98.070 -179.1962
4242.640687 97.982 179.4794
4273.384610 97.880 178.1686
4304.351317 97.763 176.8867
4335.542421 97.633 175.6431
4366.959549 97.492 174.4406
4398.604338 97.340 173.2776
4430.478438 97.178 172.1511
4462.583511 97.006 171.0629
4494.921231 96.822 170.0203
4527.493283 96.628 169.0310
4560.301365 96.424 168.1001
4593.347189 96.210 167.2323
4626.632476 95.986 166.4364
4660.158962 95.752 165.7261
4693.928395 95.511 165.1139
4727.942535 95.264 164.6072
4762.203156 95.014 164.2052
4796.712043 94.764 163.8995
4831.470996 94.515 163.6791
4866.481826 94.267 163.5361
4901.746360 94.020 163.4661
4937.266434 93.776 163.4639
4973.043902 93.533 163.5229
5009.080628 93.291 163.6412
5045.378492 93.050 163.8234
5081.939384 92.809 164.0787
5118.765212 92.569 164.4147
5155.857894 92.333 164.8325
5193.219366 92.102 165.3258
5230.851574 91.876 165.8840
5268.756481 91.657 166.4995
5306.936062 91.443 167.1670
5345.392309 91.235 167.8806
5384.127225 91.031 168.6365
5423.142830 90.831 169.4376
5462.441159 90.633 170.2952
5502.024259 90.439 171.2228
5541.894195 90.252 172.2281
5582.053045 90.074 173.3062
5622.502902 89.909 174.4379
5663.245876 89.758 175.5955
5704.284090 89.622 176.7493
5745.619684 89.496 177.8766
5787.254813 89.378 178.9711
5829.191647 89.264 -179.9541
5871.432373 89.152 -178.8750
5913.979192 89.042 -177.7673
5956.834323 88.936 -176.6162
6000.000000 88.836 -175.4180
6043.478473 88.746 -174.1770
6087.272010 88.666 -172.9012
6131.382892 88.597 -171.6021
6175.813420 88.540 -170.2919
6220.565910 88.494 -168.9780
6265.642695 88.459 -167.6606
6311.046124 88.434 -166.3352
6356.778566 88.420 -164.9979
6402.842404 88.418 -163.6490
6449.240040 88.430 -162.2916
6495.973891 88.457 -160.9324
6543.046396 88.500 -159.5817
6590.460007 88.558 -158.2504
6638.217197 88.632 -156.9449
6686.320456 88.720 -155.6664
6734.772290 88.821 -154.4128
6783.575226 88.935 -153.1841
6832.731809 89.064 -151.9838
6882.244600 89.207 -150.8210
6932.116181 89.368 -149.7111
6982.349153 89.547 -148.6724
7032.946133 89.747 -147.7214
7083.909760 89.969 -146.8723
7135.242690 90.217 -146.1403
7186.947600 90.492 -145.5465
7239.027185 90.797 -145.1207
7291.484160 91.132 -144.9045
7344.321260 91.496 -144.9507
7397.541239 91.887 -145.3175
7451.146872 92.300 -146.0627
7505.140954 92.726 -147.2396
7559.526299 93.157 -148.8967
7614.305743 93.581 -151.0743
7669.482141 93.983 -153.8004
7725.058371 94.349 -157.0861
7781.037328 94.658 -160.9161
7837.421932 94.891 -165.2407
7894.215122 95.032 -169.9705
7951.419859 95.067 -174.9807
8009.039125 94.985 179.8792
8067.075924 94.786 174.7717
8125.533282 94.472 169.8540
8184.414245 94.053 165.2629
8243.721885 93.541 161.1086
8303.459292 92.951 157.4734
8363.629581 92.298 154.4103
8424.235888 91.599 151.9465
8485.281374 90.871 150.0844
8546.769221 90.130 148.8011
8608.702634 89.389 148.0542
8671.084842 88.661 147.7905
8733.919097 87.953 147.9551
8797.208675 87.272 148.4962
8860.956876 86.621 149.3689
8925.167022 86.005 150.5291
8989.842461 85.424 151.9299
9054.986566 84.882 153.5260
9120.602731 84.375 155.2780
9186.694378 83.902 157.1587
9253.264952 83.461 159.1544
9320.317925 83.050 161.2587
9387.856790 82.667 163.4641
9455.885071 82.312 165.7607
9524.406312 81.985 168.1404
9593.424086 81.684 170.6019
9662.941992 81.409 173.1555
9732.963653 81.161 175.8153
9803.492719 80.942 178.5914
9874.532869 80.755 -178.5126
9946.087805 80.603 -175.4963
10018.161257 80.491 -172.3564
10090.756983 80.424 -169.0891
10163.878768 80.410 -165.7013
10237.530423 80.457 -162.2250
10311.715789 80.574 -158.7222
10386.438732 80.766 -155.2814
10461.703149 81.037 -152.0076
10537.512962 81.383 -149.0179
10613.872125 81.797 -146.4355
10690.784618 82.265 -144.3754
10768.254450 82.770 -142.9226
10846.285661 83.289 -142.1172
10924.882318 83.803 -141.9514
11004.048518 84.293 -142.3813
11083.788390 84.745 -143.3384
11164.106090 85.147 -144.7367
11245.005805 85.493 -146.4757
11326.491752 85.780 -148.4485
11408.568180 86.013 -150.5582
11491.239368 86.200 -152.7385
11574.509626 86.350 -154.9667
11658.383294 86.469 -157.2537
11742.864745 86.556 -159.6178
11827.958384 86.607 -162.0620
11913.668646 86.618 -164.5703
12000.000000 86.584 -167.1122
12086.956947 86.505 -169.6469
12174.544019 86.377 -172.1277
12262.765784 86.205 -174.5087
12351.626840 85.991 -176.7507
12441.131819 85.739 -178.8228
12531.285389 85.453 179.3024
12622.092249 85.139 177.6490
12713.557132 84.802 176.2358
12805.684808 84.448 175.0717
12898.480079 84.083 174.1582
12991.947783 83.711 173.4951
13086.092792 83.338 173.0801
13180.920015 82.969 172.9061
13276.434395 82.608 172.9606
13372.640911 82.259 173.2300
13469.544580 81.926 173.7030
13567.150452 81.612 174.3665
13665.463617 81.321 175.2019
13764.489200 81.056 176.1886
13864.232362 80.819 177.3058
13964.698305 80.615 178.5320
14065.892266 80.447 179.8420
14167.819519 80.318 -178.7881
14270.485380 80.231 -177.3794
14373.895200 80.194 -175.9570
14478.054370 80.210 -174.5605
14582.968320 80.288 -173.2438
14688.642520 80.433 -172.0725
14795.082478 80.649 -171.1268
14902.293745 80.940 -170.5051
15010.281908 81.304 -170.3196
15119.052599 81.737 -170.6901
15228.611486 82.224 -171.7372
15338.964283 82.745 -173.5712
15450.116741 83.270 -176.2734
15562.074656 83.763 -179.8788
15674.843864 84.186 175.6385
15788.430244 84.499 170.3751
15902.839718 84.668 164.5033
16018.078250 84.668 158.2640
16134.151848 84.486 151.9438
16251.066563 84.125 145.8372
16368.828491 83.599 140.2091
16487.443769 82.937 135.2651
16606.918584 82.171 131.1359
16727.259161 81.335 127.8795
16848.471777 80.467 125.4961
16970.562748 79.597 123.9406
17093.538442 78.755 123.1339
17217.405268 77.966 122.9716
17342.169684 77.252 123.3243
17467.838194 76.629 124.0392
17594.417350 76.106 124.9529
17721.913751 75.683 125.9044
17850.334044 75.356 126.7351
17979.684923 75.115 127.2885
18109.973131 74.940 127.4189
18241.205462 74.805 127.0137
18373.388756 74.672 126.0300
18506.529905 74.498 124.5438
18640.635849 74.247 122.7739
18775.713581 73.905 121.0364
18911.770141 73.495 119.5769
19048.812624 73.066 118.3553
19186.848172 72.651 117.0612
19325.883983 72.247 115.4014
19465.927305 71.832 113.3256
19606.985439 71.394 111.0256
19749.065738 70.963 108.8265
19892.175609 70.603 107.0865
20036.322514 70.396 106.1212
