* Measurement data measured by REW V5.30 beta 5
* Source: EXCL: Microphone (Realtek(R) Audio), MICROPHONE (Master Volume), L, volume: 1.000
* Format: 256k Log Swept Sine, 1 sweep at -18.0 dBFS with no timing reference
* Dated: Dec 31, 2023 1:24:38 PM
* REW Settings:
*  C-weighting compensation: Off
*  Target level: 75.0 dB
* Note: CVJ Assasin Silver 11
* Measurement: CVJ Assasin Silver 11
* Smoothing: 1/12 octave
* Frequency Step: 96 ppo
* Start Frequency: 0.36621094 Hz
*
* Freq(Hz) SPL(dB) Phase(degrees)
0.366211 73.464 -18.8609
0.368865 73.454 -18.8838
0.371538 73.438 -18.9182
0.374230 73.418 -18.9614
0.376942 73.396 -19.0111
0.379673 73.372 -19.0659
0.382424 73.347 -19.1246
0.385196 73.321 -19.1865
0.387987 73.295 -19.2513
0.390798 73.268 -19.3187
0.393630 73.241 -19.3888
0.396483 73.214 -19.4614
0.399356 73.187 -19.5366
0.402250 73.160 -19.6144
0.405165 73.132 -19.6948
0.408101 73.104 -19.7778
0.411058 73.076 -19.8636
0.414037 73.048 -19.9520
0.417037 73.020 -20.0431
0.420059 72.991 -20.1371
0.423103 72.962 -20.2338
0.426169 72.933 -20.3334
0.429257 72.904 -20.4359
0.432367 72.874 -20.5414
0.435501 72.845 -20.6498
0.438656 72.815 -20.7612
0.441835 72.785 -20.8756
0.445037 72.754 -20.9931
0.448262 72.724 -21.1137
0.451510 72.693 -21.2375
0.454782 72.662 -21.3645
0.458077 72.631 -21.4947
0.461397 72.599 -21.6282
0.464740 72.567 -21.7650
0.468108 72.536 -21.9052
0.471500 72.503 -22.0487
0.474917 72.471 -22.1957
0.478358 72.438 -22.3462
0.481825 72.406 -22.5002
0.485316 72.372 -22.6577
0.488833 72.339 -22.8189
0.492375 72.306 -22.9837
0.495943 72.272 -23.1521
0.499537 72.238 -23.3243
0.503157 72.203 -23.5002
0.506803 72.169 -23.6800
0.510475 72.134 -23.8635
0.514174 72.099 -24.0510
0.517900 72.064 -24.2423
0.521653 72.028 -24.4377
0.525433 71.992 -24.6370
0.529241 71.956 -24.8403
0.533076 71.920 -25.0478
0.536939 71.883 -25.2593
0.540830 71.846 -25.4750
0.544749 71.809 -25.6949
0.548696 71.772 -25.9190
0.552673 71.734 -26.1473
0.556677 71.696 -26.3799
0.560711 71.658 -26.6169
0.564774 71.619 -26.8582
0.568867 71.581 -27.1039
0.572989 71.541 -27.3539
0.577141 71.502 -27.6085
0.581324 71.462 -27.8675
0.585536 71.423 -28.1310
0.589779 71.382 -28.3990
0.594053 71.342 -28.6715
0.598358 71.301 -28.9486
0.602694 71.260 -29.2303
0.607061 71.219 -29.5166
0.611460 71.177 -29.8074
0.615891 71.135 -30.1029
0.620354 71.093 -30.4030
0.624849 71.050 -30.7078
0.629377 71.007 -31.0172
0.633938 70.964 -31.3312
0.638532 70.920 -31.6498
0.643159 70.876 -31.9730
0.647819 70.832 -32.3009
0.652514 70.788 -32.6334
0.657242 70.743 -32.9704
0.662005 70.698 -33.3120
0.666802 70.652 -33.6581
0.671634 70.607 -34.0087
0.676501 70.560 -34.3638
0.681403 70.514 -34.7233
0.686341 70.467 -35.0872
0.691314 70.420 -35.4555
0.696324 70.372 -35.8280
0.701369 70.324 -36.2049
0.706452 70.275 -36.5862
0.711571 70.225 -36.9720
0.716727 70.174 -37.3626
0.721921 70.121 -37.7586
0.727153 70.065 -38.1609
0.732422 70.005 -38.5707
0.737729 69.941 -38.9895
0.743075 69.872 -39.4192
0.748460 69.798 -39.8611
0.753883 69.720 -40.3166
0.759346 69.638 -40.7869
0.764849 69.552 -41.2728
0.770391 69.462 -41.7752
0.775974 69.369 -42.2948
0.781597 69.272 -42.8324
0.787261 69.172 -43.3886
0.792965 69.068 -43.9642
0.798712 68.962 -44.5601
0.804499 68.853 -45.1769
0.810329 68.741 -45.8155
0.816201 68.626 -46.4768
0.822116 68.508 -47.1618
0.828073 68.388 -47.8712
0.834073 68.266 -48.6062
0.840118 68.142 -49.3678
0.846205 68.015 -50.1570
0.852337 67.887 -50.9749
0.858514 67.757 -51.8227
0.864735 67.625 -52.7016
0.871001 67.493 -53.6129
0.877313 67.359 -54.5577
0.883670 67.224 -55.5374
0.890074 67.089 -56.5534
0.896523 66.953 -57.6070
0.903020 66.817 -58.6996
0.909564 66.681 -59.8327
0.916155 66.546 -61.0076
0.922793 66.411 -62.2257
0.929480 66.277 -63.4885
0.936216 66.144 -64.7974
0.943000 66.012 -66.1536
0.949833 65.883 -67.5585
0.956716 65.755 -69.0132
0.963649 65.630 -70.5188
0.970632 65.508 -72.0762
0.977666 65.389 -73.6863
0.984750 65.274 -75.3497
0.991886 65.163 -77.0667
0.999074 65.057 -78.8375
1.006313 64.955 -80.6619
1.013605 64.859 -82.5395
1.020950 64.769 -84.4694
1.028349 64.685 -86.4506
1.035801 64.608 -88.4815
1.043306 64.538 -90.5602
1.050867 64.477 -92.6845
1.058482 64.424 -94.8519
1.066152 64.381 -97.0598
1.073878 64.347 -99.3056
1.081659 64.323 -101.5867
1.089498 64.310 -103.9012
1.097393 64.308 -106.2478
1.105345 64.317 -108.6252
1.113355 64.338 -111.0322
1.121422 64.370 -113.4665
1.129549 64.413 -115.9248
1.137734 64.467 -118.4026
1.145978 64.532 -120.8942
1.154283 64.608 -123.3935
1.162647 64.695 -125.8936
1.171072 64.791 -128.3875
1.179558 64.898 -130.8683
1.188106 65.014 -133.3290
1.196715 65.140 -135.7630
1.205387 65.274 -138.1639
1.214122 65.417 -140.5261
1.222920 65.569 -142.8443
1.231781 65.728 -145.1140
1.240708 65.895 -147.3312
1.249698 66.069 -149.4928
1.258754 66.249 -151.5960
1.267875 66.435 -153.6389
1.277063 66.627 -155.6203
1.286317 66.824 -157.5391
1.295638 67.026 -159.3952
1.305027 67.231 -161.1886
1.314484 67.440 -162.9198
1.324009 67.651 -164.5895
1.333603 67.864 -166.1988
1.343267 68.079 -167.7491
1.353001 68.294 -169.2417
1.362805 68.510 -170.6782
1.372681 68.724 -172.0604
1.382628 68.937 -173.3900
1.392647 69.147 -174.6687
1.402739 69.355 -175.8986
1.412904 69.558 -177.0816
1.423142 69.758 -178.2197
1.433455 69.952 -179.3152
1.443842 70.142 179.6295
1.454305 70.328 178.6116
1.464843 70.510 177.6282
1.475458 70.689 176.6760
1.486150 70.867 175.7522
1.496919 71.045 174.8542
1.507766 71.224 173.9801
1.518692 71.403 173.1283
1.529697 71.583 172.2975
1.540782 71.764 171.4869
1.551947 71.946 170.6955
1.563193 72.130 169.9225
1.574521 72.314 169.1673
1.585931 72.499 168.4292
1.597423 72.684 167.7076
1.608998 72.870 167.0019
1.620658 73.057 166.3116
1.632402 73.243 165.6361
1.644231 73.430 164.9750
1.656146 73.616 164.3278
1.668147 73.802 163.6939
1.680235 73.987 163.0730
1.692410 74.172 162.4647
1.704674 74.355 161.8685
1.717027 74.538 161.2841
1.729469 74.719 160.7111
1.742002 74.898 160.1490
1.754625 75.076 159.5976
1.767340 75.251 159.0564
1.780147 75.424 158.5249
1.793046 75.595 158.0026
1.806040 75.763 157.4888
1.819127 75.929 156.9826
1.832309 76.091 156.4830
1.845587 76.250 155.9890
1.858961 76.407 155.4997
1.872431 76.560 155.0143
1.886000 76.711 154.5325
1.899666 76.859 154.0543
1.913432 77.005 153.5796
1.927298 77.148 153.1087
1.941264 77.289 152.6417
1.955331 77.427 152.1790
1.969500 77.564 151.7208
1.983772 77.698 151.2675
1.998147 77.831 150.8193
2.012626 77.961 150.3766
2.027211 78.091 149.9396
2.041901 78.218 149.5086
2.056697 78.345 149.0839
2.071601 78.471 148.6659
2.086613 78.595 148.2546
2.101733 78.719 147.8505
2.116963 78.843 147.4537
2.132303 78.966 147.0643
2.147755 79.089 146.6824
2.163318 79.211 146.3076
2.178995 79.334 145.9398
2.194785 79.455 145.5782
2.210689 79.576 145.2221
2.226709 79.696 144.8706
2.242844 79.815 144.5230
2.259097 79.932 144.1789
2.275467 80.048 143.8380
2.291956 80.162 143.5002
2.308565 80.274 143.1656
2.325294 80.386 142.8344
2.342144 80.496 142.5067
2.359116 80.604 142.1826
2.376211 80.712 141.8625
2.393430 80.819 141.5466
2.410774 80.924 141.2350
2.428243 81.030 140.9282
2.445839 81.134 140.6262
2.463562 81.238 140.3293
2.481415 81.342 140.0378
2.499396 81.445 139.7518
2.517508 81.549 139.4715
2.535750 81.652 139.1967
2.554126 81.755 138.9275
2.572634 81.858 138.6636
2.591276 81.960 138.4045
2.610054 82.061 138.1500
2.628967 82.161 137.8996
2.648018 82.261 137.6532
2.667206 82.360 137.4105
2.686534 82.458 137.1713
2.706002 82.555 136.9355
2.725610 82.652 136.7030
2.745361 82.748 136.4738
2.765255 82.843 136.2477
2.785294 82.939 136.0246
2.805477 83.034 135.8046
2.825807 83.129 135.5876
2.846284 83.223 135.3735
2.866909 83.318 135.1625
2.887684 83.413 134.9544
2.908609 83.508 134.7494
2.929686 83.603 134.5474
2.950916 83.698 134.3486
2.972299 83.793 134.1530
2.993838 83.887 133.9603
3.015532 83.981 133.7706
3.037384 84.075 133.5836
3.059394 84.169 133.3990
3.081564 84.262 133.2167
3.103894 84.356 133.0362
3.126386 84.449 132.8573
3.149041 84.542 132.6799
3.171861 84.635 132.5035
3.194845 84.728 132.3280
3.217996 84.822 132.1533
3.241315 84.915 131.9792
3.264803 85.009 131.8058
3.288461 85.103 131.6332
3.312291 85.197 131.4617
3.336293 85.291 131.2912
3.360469 85.385 131.1221
3.384820 85.480 130.9540
3.409348 85.574 130.7869
3.434054 85.668 130.6203
3.458938 85.763 130.4537
3.484003 85.857 130.2868
3.509250 85.952 130.1190
3.534679 86.046 129.9497
3.560293 86.141 129.7786
3.586092 86.236 129.6053
3.612079 86.330 129.4295
3.638253 86.425 129.2512
3.664618 86.520 129.0704
3.691173 86.615 128.8872
3.717921 86.710 128.7019
3.744862 86.805 128.5146
3.771999 86.900 128.3254
3.799332 86.996 128.1340
3.826864 87.091 127.9404
3.854595 87.186 127.7441
3.882527 87.281 127.5451
3.910661 87.376 127.3430
3.938999 87.470 127.1376
3.967543 87.565 126.9287
3.996294 87.660 126.7161
4.025252 87.754 126.4999
4.054421 87.848 126.2801
4.083801 87.942 126.0568
4.113394 88.036 125.8301
4.143201 88.130 125.6000
4.173225 88.223 125.3665
4.203466 88.316 125.1295
4.233926 88.409 124.8889
4.264606 88.502 124.6447
4.295509 88.594 124.3967
4.326636 88.686 124.1448
4.357989 88.778 123.8888
4.389569 88.869 123.6288
4.421378 88.960 123.3646
4.453417 89.050 123.0964
4.485688 89.140 122.8242
4.518193 89.230 122.5480
4.550934 89.319 122.2679
4.583912 89.408 121.9839
4.617129 89.496 121.6963
4.650587 89.584 121.4049
4.684287 89.672 121.1098
4.718231 89.759 120.8110
4.752421 89.845 120.5084
4.786859 89.931 120.2021
4.821547 90.017 119.8919
4.856485 90.102 119.5779
4.891677 90.186 119.2600
4.927125 90.270 118.9383
4.962829 90.354 118.6129
4.998791 90.437 118.2838
5.035015 90.519 117.9510
5.071500 90.601 117.6146
5.108251 90.683 117.2744
5.145267 90.763 116.9304
5.182552 90.844 116.5826
5.220107 90.923 116.2308
5.257934 91.002 115.8752
5.296035 91.081 115.5158
5.334412 91.158 115.1526
5.373067 91.236 114.7858
5.412003 91.312 114.4152
5.451221 91.388 114.0410
5.490722 91.463 113.6630
5.530510 91.538 113.2811
5.570587 91.612 112.8954
5.610953 91.685 112.5057
5.651613 91.757 112.1125
5.692567 91.828 111.7158
5.733818 91.899 111.3159
5.775367 91.969 110.9131
5.817218 92.038 110.5074
5.859372 92.106 110.0988
5.901831 92.173 109.6872
5.944598 92.240 109.2727
5.987675 92.305 108.8555
6.031065 92.369 108.4359
6.074768 92.433 108.0146
6.118788 92.495 107.5920
6.163127 92.557 107.1686
6.207788 92.617 106.7446
6.252772 92.676 106.3201
6.298082 92.735 105.8952
6.343721 92.792 105.4701
6.389690 92.848 105.0453
6.435992 92.903 104.6215
6.482630 92.957 104.1995
6.529606 93.011 103.7800
6.576922 93.063 103.3635
6.624581 93.115 102.9502
6.672585 93.165 102.5404
6.720938 93.215 102.1341
6.769640 93.264 101.7319
6.818696 93.313 101.3343
6.868107 93.361 100.9419
6.917876 93.409 100.5552
6.968006 93.456 100.1747
7.018499 93.503 99.8006
7.069358 93.550 99.4326
7.120586 93.597 99.0710
7.172184 93.644 98.7154
7.224157 93.691 98.3660
7.276506 93.739 98.0226
7.329235 93.788 97.6854
7.382345 93.837 97.3542
7.435841 93.887 97.0285
7.489724 93.938 96.7078
7.543997 93.990 96.3911
7.598664 94.042 96.0776
7.653728 94.097 95.7664
7.709189 94.152 95.4570
7.765053 94.209 95.1487
7.821322 94.268 94.8407
7.877998 94.327 94.5320
7.935086 94.389 94.2212
7.992587 94.451 93.9070
8.050504 94.515 93.5884
8.108841 94.580 93.2647
8.167601 94.647 92.9351
8.226787 94.714 92.5990
8.286402 94.783 92.2555
8.346449 94.852 91.9037
8.406931 94.923 91.5431
8.467851 94.993 91.1730
8.529212 95.064 90.7934
8.591018 95.135 90.4043
8.653272 95.207 90.0059
8.715977 95.278 89.5983
8.779137 95.348 89.1817
8.842754 95.418 88.7564
8.906833 95.488 88.3230
8.971375 95.557 87.8823
9.036386 95.624 87.4352
9.101867 95.691 86.9829
9.167823 95.757 86.5262
9.234257 95.822 86.0660
9.301172 95.885 85.6031
9.368572 95.947 85.1388
9.436460 96.008 84.6741
9.504841 96.068 84.2103
9.573717 96.127 83.7481
9.643092 96.185 83.2884
9.712970 96.242 82.8315
9.783354 96.298 82.3782
9.854248 96.354 81.9290
9.925656 96.409 81.4844
9.997581 96.463 81.0443
10.070028 96.518 80.6087
10.143000 96.572 80.1772
10.216500 96.626 79.7498
10.290533 96.680 79.3258
10.365103 96.734 78.9048
10.440212 96.789 78.4863
10.515866 96.843 78.0695
10.592069 96.897 77.6537
10.668823 96.952 77.2382
10.746134 97.006 76.8225
10.824005 97.061 76.4063
10.902440 97.115 75.9891
10.981443 97.168 75.5708
11.061020 97.221 75.1512
11.141172 97.274 74.7305
11.221906 97.325 74.3091
11.303225 97.376 73.8878
11.385133 97.426 73.4669
11.467634 97.474 73.0475
11.550734 97.522 72.6304
11.634435 97.568 72.2167
11.718742 97.613 71.8076
11.803661 97.658 71.4040
11.889195 97.701 71.0067
11.975349 97.743 70.6167
12.062128 97.785 70.2344
12.149535 97.827 69.8604
12.237576 97.868 69.4945
12.326254 97.910 69.1364
12.415575 97.951 68.7855
12.505544 97.994 68.4408
12.596164 98.037 68.1010
12.687441 98.081 67.7646
12.779379 98.126 67.4293
12.871984 98.172 67.0934
12.965260 98.220 66.7546
13.059211 98.268 66.4109
13.153843 98.317 66.0603
13.249161 98.366 65.7009
13.345170 98.415 65.3314
13.441875 98.464 64.9508
13.539280 98.513 64.5587
13.637391 98.561 64.1549
13.736214 98.607 63.7402
13.835752 98.651 63.3159
13.936011 98.693 62.8835
14.036998 98.733 62.4454
14.138716 98.770 62.0040
14.241171 98.805 61.5623
14.344368 98.837 61.1235
14.448313 98.866 60.6903
14.553011 98.894 60.2656
14.658468 98.919 59.8520
14.764689 98.943 59.4514
14.871680 98.966 59.0651
14.979446 98.989 58.6935
15.087994 99.012 58.3365
15.197328 99.035 57.9928
15.307454 99.061 57.6602
15.418378 99.088 57.3359
15.530106 99.117 57.0163
15.642643 99.149 56.6976
15.755996 99.183 56.3755
15.870171 99.219 56.0462
15.985172 99.257 55.7061
16.101007 99.296 55.3522
16.217682 99.336 54.9826
16.335201 99.376 54.5965
16.453573 99.415 54.1942
16.572803 99.453 53.7772
16.692898 99.488 53.3482
16.813862 99.522 52.9109
16.935701 99.552 52.4697
17.058424 99.580 52.0292
17.182035 99.605 51.5944
17.306543 99.628 51.1698
17.431953 99.649 50.7592
17.558273 99.670 50.3654
17.685509 99.690 49.9900
17.813665 99.711 49.6327
17.942751 99.733 49.2921
18.072771 99.757 48.9652
18.203733 99.785 48.6477
18.335646 99.815 48.3342
18.468513 99.849 48.0194
18.602345 99.885 47.6978
18.737144 99.924 47.3643
18.872921 99.964 47.0155
19.009682 100.006 46.6490
19.147434 100.047 46.2640
19.286184 100.087 45.8615
19.425940 100.125 45.4438
19.566708 100.160 45.0146
19.708496 100.193 44.5782
19.851313 100.223 44.1395
19.995163 100.250 43.7030
20.140057 100.273 43.2730
20.285999 100.295 42.8527
20.433001 100.314 42.4447
20.581066 100.332 42.0505
20.730206 100.349 41.6706
20.880424 100.365 41.3049
21.031733 100.380 40.9531
21.184137 100.395 40.6146
21.337646 100.410 40.2889
21.492268 100.425 39.9756
21.648010 100.441 39.6747
21.804880 100.456 39.3857
21.962887 100.473 39.1079
22.122040 100.491 38.8400
22.282345 100.511 38.5794
22.443811 100.532 38.3227
22.606449 100.556 38.0652
22.770266 100.582 37.8018
22.935268 100.610 37.5268
23.101467 100.640 37.2354
23.268869 100.670 36.9240
23.437485 100.700 36.5908
23.607323 100.728 36.2361
23.778391 100.754 35.8626
23.950699 100.776 35.4753
24.124256 100.795 35.0799
24.299070 100.809 34.6833
24.475151 100.820 34.2914
24.652508 100.828 33.9096
24.831150 100.834 33.5411
25.011087 100.839 33.1873
25.192327 100.843 32.8478
25.374882 100.847 32.5209
25.558758 100.852 32.2042
25.743967 100.857 31.8955
25.930519 100.863 31.5930
26.118422 100.870 31.2958
26.307686 100.877 31.0034
26.498322 100.886 30.7151
26.690340 100.896 30.4300
26.883749 100.908 30.1457
27.078560 100.921 29.8586
27.274782 100.937 29.5640
27.472427 100.955 29.2572
27.671503 100.973 28.9341
27.872023 100.992 28.5929
28.073996 101.009 28.2344
28.277431 101.024 27.8625
28.482342 101.037 27.4836
28.688736 101.046 27.1052
28.896626 101.053 26.7345
29.106022 101.058 26.3770
29.316936 101.062 26.0346
29.529379 101.067 25.7062
29.743361 101.073 25.3876
29.958893 101.081 25.0728
30.175987 101.090 24.7559
30.394655 101.100 24.4326
30.614908 101.110 24.1011
30.836756 101.119 23.7622
31.060211 101.126 23.4188
31.285286 101.131 23.0746
31.511992 101.135 22.7333
31.740341 101.137 22.3978
31.970345 101.137 22.0703
32.202015 101.137 21.7523
32.435364 101.136 21.4449
32.670403 101.134 21.1493
32.907146 101.133 20.8655
33.145607 101.133 20.5916
33.385796 101.134 20.3226
33.627724 101.138 20.0511
33.871403 101.143 19.7681
34.116848 101.148 19.4657
34.364071 101.152 19.1416
34.613087 101.152 18.8009
34.863907 101.146 18.4573
35.116547 101.133 18.1308
35.371017 101.116 17.8424
35.627331 101.096 17.6075
35.885502 101.080 17.4291
36.145542 101.071 17.2947
36.407467 101.072 17.1777
36.671291 101.085 17.0441
36.937027 101.106 16.8619
37.204689 101.132 16.6108
37.474289 101.156 16.2870
37.745842 101.174 15.9031
38.019363 101.184 15.4830
38.294868 101.185 15.0542
38.572369 101.178 14.6406
38.851879 101.166 14.2574
39.133415 101.152 13.9103
39.416992 101.139 13.5957
39.702625 101.129 13.3047
39.990326 101.122 13.0256
40.280113 101.120 12.7461
40.571999 101.121 12.4553
40.866001 101.124 12.1453
41.162132 101.128 11.8135
41.460411 101.130 11.4642
41.760849 101.129 11.1080
42.063465 101.126 10.7589
42.368275 101.121 10.4287
42.675293 101.117 10.1226
42.984535 101.116 9.8363
43.296021 101.119 9.5590
43.609760 101.125 9.2782
43.925774 101.133 8.9863
44.244080 101.141 8.6835
44.564690 101.147 8.3768
44.887623 101.151 8.0767
45.212898 101.152 7.7938
45.540531 101.151 7.5387
45.870537 101.149 7.3226
46.202934 101.147 7.1564
46.537739 101.149 7.0435
46.874969 101.160 6.9708
47.214645 101.184 6.9008
47.556782 101.221 6.7770
47.901398 101.264 6.5441
48.248512 101.302 6.1755
48.598141 101.322 5.6920
48.950302 101.316 5.1599
49.305016 101.282 4.6682
49.662300 101.228 4.2927
50.022175 101.168 4.0640
50.384655 101.114 3.9541
50.749763 101.074 3.8927
51.117516 101.047 3.8043
51.487934 101.025 3.6440
51.861038 100.999 3.4127
52.236843 100.966 3.1450
52.615372 100.925 2.8844
52.996643 100.882 2.6602
53.380680 100.842 2.4763
53.767498 100.810 2.3160
54.157120 100.788 2.1544
54.549564 100.775 1.9702
54.944855 100.768 1.7546
55.343006 100.766 1.5112
55.744045 100.765 1.2521
56.147991 100.766 0.9926
56.554863 100.767 0.7466
56.964684 100.768 0.5251
57.377472 100.770 0.3379
57.793251 100.772 0.1943
58.212044 100.776 0.0990
58.633873 100.784 0.0447
59.058758 100.796 0.0072
59.486721 100.811 -0.0496
59.917786 100.823 -0.1579
60.351974 100.825 -0.3251
60.789310 100.809 -0.5216
61.229816 100.772 -0.6864
61.673512 100.719 -0.7535
62.120422 100.664 -0.6914
62.570572 100.621 -0.5359
63.023983 100.601 -0.3885
63.480682 100.602 -0.3719
63.940689 100.612 -0.5629
64.404030 100.614 -0.9555
64.870728 100.599 -1.4769
65.340805 100.567 -2.0372
65.814293 100.525 -2.5723
66.291214 100.480 -3.0538
66.771591 100.439 -3.4730
67.255447 100.407 -3.8320
67.742805 100.389 -4.1533
68.233696 100.385 -4.4872
68.728142 100.388 -4.8854
69.226173 100.385 -5.3535
69.727814 100.363 -5.8287
70.233093 100.322 -6.2126
70.742035 100.270 -6.4384
71.254662 100.223 -6.5158
71.771004 100.189 -6.5168
72.291084 100.167 -6.5188
72.814934 100.151 -6.5616
73.342583 100.137 -6.6494
73.874054 100.123 -6.7782
74.409378 100.110 -6.9492
74.948578 100.094 -7.1566
75.491684 100.074 -7.3745
76.038727 100.051 -7.5667
76.589737 100.032 -7.7128
77.144737 100.022 -7.8239
77.703758 100.021 -7.9309
78.266830 100.027 -8.0592
78.833984 100.036 -8.2153
79.405251 100.043 -8.3911
79.980652 100.046 -8.5721
80.560226 100.042 -8.7418
81.143997 100.031 -8.8867
81.732002 100.016 -9.0023
82.324265 99.996 -9.0964
82.920822 99.972 -9.1838
83.521698 99.945 -9.2814
84.126930 99.914 -9.4062
84.736549 99.878 -9.5710
85.350586 99.835 -9.7772
85.969070 99.785 -10.0139
86.592041 99.730 -10.2660
87.219521 99.674 -10.5258
87.851547 99.622 -10.7972
88.488159 99.577 -11.0916
89.129379 99.539 -11.4174
89.775246 99.508 -11.7695
90.425797 99.482 -12.1227
91.081062 99.460 -12.4329
91.741074 99.445 -12.6560
92.405869 99.442 -12.7831
93.075478 99.454 -12.8583
93.749939 99.474 -12.9434
94.429291 99.491 -13.0583
95.113564 99.494 -13.1683
95.802795 99.480 -13.2255
96.497025 99.453 -13.2057
97.196281 99.418 -13.1135
97.900604 99.380 -12.9790
98.610031 99.345 -12.8557
99.324600 99.312 -12.7985
100.044350 99.279 -12.8320
100.769310 99.244 -12.9424
101.499527 99.206 -13.0980
102.235031 99.169 -13.2670
102.975868 99.135 -13.4206
103.722076 99.106 -13.5348
104.473686 99.086 -13.6055
105.230743 99.073 -13.6554
105.993286 99.064 -13.7191
106.761360 99.051 -13.8207
107.534996 99.026 -13.9586
108.314240 98.986 -14.1076
109.099129 98.932 -14.2423
109.889709 98.871 -14.3623
110.686012 98.811 -14.4849
111.488091 98.753 -14.6168
112.295982 98.701 -14.7431
113.109726 98.653 -14.8350
113.929367 98.611 -14.8622
114.754944 98.570 -14.8105
115.586502 98.529 -14.6933
116.424088 98.482 -14.5432
117.267746 98.424 -14.3988
118.117516 98.357 -14.3014
118.973442 98.283 -14.2955
119.835571 98.210 -14.4231
120.703949 98.140 -14.6945
121.578621 98.072 -15.0308
122.459633 98.005 -15.2450
123.347023 97.943 -15.1293
124.240845 97.894 -14.5765
125.141144 97.856 -13.6085
126.047966 97.818 -12.2992
126.961365 97.775 -10.7246
127.881378 97.737 -9.0137
128.808060 97.722 -7.3623
129.741455 97.754 -5.9232
130.681610 97.857 -4.7217
131.628586 98.056 -3.7383
132.582428 98.347 -3.0359
133.543182 98.683 -2.7080
134.510895 98.991 -2.7340
135.485611 99.213 -3.0105
136.467392 99.314 -3.5181
137.456284 99.286 -4.3710
138.452347 99.149 -5.7693
139.455627 98.947 -7.9594
140.466187 98.721 -11.0424
141.484070 98.488 -14.5638
142.509323 98.245 -17.2595
143.542007 98.005 -18.0261
144.582169 97.811 -17.4553
145.629868 97.708 -16.7926
146.685165 97.694 -16.3750
147.748108 97.723 -16.0295
148.818756 97.737 -15.6523
149.897156 97.699 -15.3054
150.983368 97.606 -15.1061
152.077454 97.482 -15.1154
153.179474 97.369 -15.2689
154.289474 97.306 -15.4083
155.407516 97.313 -15.4080
156.533661 97.376 -15.2322
157.667969 97.457 -14.9108
158.810501 97.519 -14.5201
159.961304 97.541 -14.1603
161.120453 97.517 -13.9189
162.287994 97.453 -13.8345
163.464005 97.365 -13.8795
164.648529 97.269 -13.9731
165.841644 97.178 -14.0254
167.043396 97.103 -13.9843
168.253860 97.050 -13.8558
169.473099 97.018 -13.6805
170.701172 97.005 -13.5018
171.938141 97.007 -13.3524
173.184082 97.017 -13.2365
174.439041 97.032 -13.1318
175.703094 97.047 -13.0129
176.976318 97.063 -12.8717
178.258759 97.079 -12.7158
179.550491 97.095 -12.5599
180.851593 97.109 -12.4199
182.162125 97.118 -12.3127
183.482147 97.120 -12.2600
184.811737 97.114 -12.2906
186.150955 97.099 -12.4250
187.499878 97.073 -12.6473
188.858582 97.040 -12.9053
190.227127 97.002 -13.1417
191.605591 96.965 -13.3167
192.994049 96.929 -13.4171
194.392563 96.896 -13.4556
195.801208 96.864 -13.4551
197.220062 96.831 -13.4323
198.649200 96.796 -13.3934
200.088699 96.759 -13.3417
201.538620 96.723 -13.2867
202.999054 96.688 -13.2453
204.470062 96.656 -13.2317
205.951736 96.628 -13.2498
207.444153 96.604 -13.2880
208.947372 96.581 -13.3207
210.461487 96.557 -13.3170
211.986572 96.531 -13.2540
213.522720 96.501 -13.1326
215.069992 96.468 -12.9782
216.628479 96.435 -12.8223
218.198257 96.402 -12.6825
219.779419 96.371 -12.5592
221.372025 96.342 -12.4458
222.976181 96.315 -12.3376
224.591965 96.291 -12.2335
226.219452 96.267 -12.1342
227.858734 96.244 -12.0386
229.509888 96.220 -11.9426
231.173004 96.195 -11.8412
232.848175 96.169 -11.7311
234.535492 96.142 -11.6124
236.235031 96.114 -11.4875
237.946884 96.086 -11.3596
239.671143 96.057 -11.2312
241.407898 96.025 -11.1022
243.157242 95.990 -10.9727
244.919266 95.954 -10.8450
246.694046 95.919 -10.7212
248.481689 95.889 -10.6014
250.282288 95.864 -10.4819
252.095932 95.844 -10.3525
253.922729 95.826 -10.2051
255.762756 95.809 -10.0424
257.616119 95.793 -9.8784
259.482910 95.777 -9.7281
261.363220 95.762 -9.5977
263.257172 95.745 -9.4823
265.164856 95.729 -9.3716
267.086365 95.712 -9.2534
269.021790 95.694 -9.1183
270.971222 95.676 -8.9626
272.934784 95.657 -8.7886
274.912567 95.638 -8.6022
276.904694 95.619 -8.4097
278.911255 95.601 -8.2148
280.932373 95.584 -8.0222
282.968140 95.570 -7.8391
285.018646 95.557 -7.6749
287.084015 95.547 -7.5361
289.164337 95.539 -7.4239
291.259735 95.530 -7.3322
293.370331 95.519 -7.2510
295.496216 95.506 -7.1696
297.637512 95.490 -7.0808
299.794312 95.473 -6.9816
301.966736 95.456 -6.8718
304.154907 95.439 -6.7532
306.358948 95.421 -6.6285
308.578949 95.403 -6.5006
310.815033 95.384 -6.3699
313.067322 95.364 -6.2332
315.335938 95.343 -6.0848
317.621002 95.320 -5.9211
319.922607 95.296 -5.7411
322.240906 95.272 -5.5487
324.575989 95.250 -5.3508
326.928009 95.229 -5.1529
329.297058 95.210 -4.9576
331.683289 95.193 -4.7651
334.086792 95.178 -4.5748
336.507721 95.163 -4.3864
338.946198 95.148 -4.2003
341.402344 95.132 -4.0170
343.876282 95.116 -3.8365
346.368164 95.100 -3.6593
348.878082 95.084 -3.4844
351.406189 95.069 -3.3082
353.952637 95.054 -3.1276
356.517517 95.039 -2.9410
359.100983 95.025 -2.7489
361.703186 95.011 -2.5515
364.324249 94.997 -2.3499
366.964294 94.983 -2.1456
369.623474 94.970 -1.9394
372.301910 94.957 -1.7300
374.999756 94.945 -1.5143
377.717163 94.933 -1.2902
380.454254 94.922 -1.0576
383.211182 94.910 -0.8196
385.988098 94.899 -0.5818
388.785126 94.888 -0.3490
391.602417 94.879 -0.1224
394.440125 94.870 0.1007
397.298401 94.862 0.3229
400.177399 94.853 0.5447
403.077240 94.845 0.7648
405.998108 94.836 0.9822
408.940125 94.826 1.1968
411.903473 94.816 1.4116
414.888306 94.805 1.6328
417.894745 94.794 1.8670
420.922974 94.783 2.1175
423.973145 94.773 2.3812
427.045441 94.765 2.6511
430.139984 94.760 2.9207
433.256958 94.757 3.1859
436.396515 94.757 3.4453
439.558838 94.759 3.6995
442.744049 94.762 3.9490
445.952362 94.766 4.1921
449.183929 94.771 4.4241
452.438904 94.776 4.6393
455.717468 94.780 4.8352
459.019775 94.781 5.0156
462.346008 94.779 5.1912
465.696350 94.774 5.3741
469.070984 94.766 5.5717
472.470062 94.758 5.7851
475.893768 94.750 6.0125
479.342285 94.743 6.2484
482.815796 94.736 6.4867
486.314484 94.730 6.7242
489.838531 94.723 6.9647
493.388092 94.715 7.2150
496.963379 94.707 7.4790
500.564575 94.700 7.7546
504.191864 94.696 8.0369
507.845459 94.693 8.3201
511.525513 94.692 8.6008
515.232239 94.691 8.8781
518.965820 94.689 9.1522
522.726440 94.687 9.4255
526.514343 94.684 9.7020
530.329712 94.681 9.9854
534.172729 94.679 10.2767
538.043579 94.678 10.5742
541.942444 94.678 10.8755
545.869568 94.678 11.1793
549.825134 94.679 11.4845
553.809387 94.681 11.7883
557.822510 94.684 12.0867
561.864746 94.690 12.3765
565.936279 94.696 12.6594
570.037292 94.703 12.9412
574.168030 94.709 13.2285
578.328674 94.715 13.5256
582.519470 94.720 13.8339
586.740662 94.725 14.1521
590.992432 94.729 14.4792
595.275024 94.733 14.8129
599.588623 94.739 15.1487
603.933472 94.746 15.4822
608.309814 94.755 15.8126
612.717896 94.764 16.1417
617.157898 94.772 16.4735
621.630066 94.780 16.8126
626.134644 94.788 17.1630
630.671875 94.796 17.5248
635.242004 94.805 17.8924
639.845215 94.817 18.2598
644.481812 94.829 18.6263
649.151978 94.844 18.9959
653.856018 94.860 19.3713
658.594116 94.878 19.7498
663.366577 94.897 20.1244
668.173584 94.917 20.4916
673.015442 94.936 20.8544
677.892395 94.954 21.2200
682.804688 94.971 21.5915
687.752563 94.990 21.9656
692.736328 95.009 22.3389
697.756165 95.028 22.7131
702.812378 95.046 23.0950
707.905273 95.064 23.4934
713.035034 95.081 23.9172
718.201965 95.099 24.3745
723.406372 95.119 24.8707
728.648499 95.143 25.4048
733.928589 95.175 25.9644
739.246948 95.217 26.5252
744.603821 95.269 27.0567
749.999512 95.327 27.5347
755.434326 95.387 27.9501
760.908508 95.447 28.3105
766.422363 95.503 28.6339
771.976196 95.556 28.9403
777.570251 95.604 29.2459
783.204834 95.650 29.5612
788.880249 95.695 29.8915
794.596802 95.738 30.2402
800.354797 95.783 30.6085
806.154480 95.829 30.9937
811.996216 95.879 31.3884
817.880249 95.933 31.7831
823.806946 95.991 32.1668
829.776611 96.050 32.5295
835.789490 96.111 32.8680
841.845947 96.170 33.1879
847.946289 96.228 33.4996
854.090881 96.285 33.8109
860.279968 96.342 34.1255
866.513916 96.398 34.4450
872.793030 96.455 34.7716
879.117676 96.513 35.1053
885.488098 96.572 35.4430
891.904724 96.632 35.7827
898.367859 96.693 36.1242
904.877808 96.756 36.4683
911.434937 96.820 36.8141
918.039551 96.886 37.1598
924.692017 96.955 37.5045
931.392700 97.026 37.8459
938.141968 97.100 38.1799
944.940125 97.175 38.5032
951.787537 97.250 38.8160
958.684570 97.326 39.1207
965.631592 97.402 39.4200
972.628967 97.479 39.7173
979.677063 97.558 40.0146
986.776184 97.637 40.3126
993.926758 97.718 40.6120
1001.129150 97.800 40.9159
1008.383728 97.884 41.2264
1015.690918 97.972 41.5419
1023.051025 98.062 41.8577
1030.464478 98.157 42.1678
1037.931641 98.256 42.4629
1045.452881 98.359 42.7318
1053.028687 98.463 42.9686
1060.659424 98.567 43.1756
1068.345459 98.670 43.3606
1076.087158 98.772 43.5331
1083.884888 98.875 43.7008
1091.739136 98.978 43.8660
1099.650269 99.082 44.0271
1107.618774 99.187 44.1820
1115.645020 99.293 44.3287
1123.729492 99.400 44.4654
1131.872559 99.509 44.5904
1140.074585 99.618 44.7030
1148.336060 99.729 44.8042
1156.657349 99.839 44.8967
1165.038940 99.951 44.9842
1173.481323 100.065 45.0698
1181.984863 100.180 45.1530
1190.550049 100.299 45.2270
1199.177246 100.422 45.2810
1207.866943 100.546 45.3040
1216.619629 100.671 45.2910
1225.435791 100.795 45.2462
1234.315796 100.917 45.1786
1243.260132 101.038 45.0973
1252.269287 101.157 45.0097
1261.343750 101.274 44.9197
1270.484009 101.392 44.8275
1279.690430 101.509 44.7335
1288.963623 101.627 44.6381
1298.303955 101.747 44.5399
1307.712036 101.868 44.4356
1317.188232 101.990 44.3210
1326.733154 102.114 44.1935
1336.347168 102.238 44.0531
1346.030884 102.363 43.9016
1355.784790 102.489 43.7417
1365.609375 102.615 43.5759
1375.505127 102.743 43.4074
1385.472656 102.874 43.2398
1395.512329 103.008 43.0727
1405.624756 103.148 42.8991
1415.810547 103.294 42.7062
1426.070068 103.446 42.4788
1436.403931 103.601 42.2066
1446.812744 103.758 41.8880
1457.296997 103.916 41.5271
1467.857178 104.074 41.1280
1478.493896 104.232 40.6931
1489.207642 104.389 40.2233
1499.999023 104.547 39.7199
1510.868652 104.704 39.1845
1521.817017 104.862 38.6187
1532.844727 105.021 38.0234
1543.952393 105.180 37.3984
1555.140503 105.342 36.7415
1566.409668 105.506 36.0461
1577.760498 105.673 35.3002
1589.193604 105.842 34.4893
1600.709595 106.011 33.6039
1612.308960 106.178 32.6424
1623.992432 106.340 31.6088
1635.760498 106.497 30.5092
1647.613892 106.648 29.3488
1659.553223 106.793 28.1318
1671.578979 106.931 26.8618
1683.691895 107.063 25.5402
1695.892578 107.188 24.1667
1708.181763 107.305 22.7408
1720.559937 107.413 21.2638
1733.027832 107.511 19.7392
1745.586060 107.600 18.1719
1758.235352 107.677 16.5683
1770.976196 107.742 14.9353
1783.809448 107.797 13.2764
1796.735718 107.840 11.5910
1809.755615 107.871 9.8770
1822.869873 107.887 8.1374
1836.079102 107.887 6.3837
1849.384033 107.869 4.6331
1862.785400 107.834 2.9061
1876.283936 107.781 1.2238
1889.880249 107.713 -0.3943
1903.575073 107.632 -1.9315
1917.369141 107.542 -3.3771
1931.263184 107.446 -4.7277
1945.257935 107.350 -5.9915
1959.354126 107.258 -7.1904
1973.552368 107.170 -8.3563
1987.853516 107.087 -9.5204
2002.258301 107.005 -10.7045
2016.767456 106.921 -11.9180
2031.381836 106.830 -13.1595
2046.102051 106.729 -14.4183
2060.928955 106.617 -15.6782
2075.863281 106.491 -16.9210
2090.905762 106.352 -18.1288
2106.057373 106.200 -19.2842
2121.318848 106.035 -20.3699
2136.690918 105.860 -21.3692
2152.174316 105.675 -22.2679
2167.769775 105.485 -23.0595
2183.478271 105.293 -23.7482
2199.300537 105.102 -24.3453
2215.237549 104.912 -24.8612
2231.290039 104.723 -25.3027
2247.458984 104.537 -25.6727
2263.745117 104.352 -25.9705
2280.149170 104.170 -26.1929
2296.672119 103.991 -26.3353
2313.314697 103.818 -26.3950
2330.077881 103.653 -26.3763
2346.962646 103.498 -26.2942
2363.969727 103.356 -26.1722
2381.100098 103.226 -26.0341
2398.354492 103.107 -25.8986
2415.733887 102.996 -25.7782
2433.239258 102.891 -25.6790
2450.871582 102.791 -25.6022
2468.631592 102.693 -25.5458
2486.520264 102.595 -25.5034
2504.538574 102.496 -25.4634
2522.687500 102.396 -25.4095
2540.968018 102.294 -25.3257
2559.380859 102.192 -25.2033
2577.927246 102.093 -25.0441
2596.607910 101.997 -24.8550
2615.424072 101.905 -24.6422
2634.376465 101.817 -24.4084
2653.466309 101.733 -24.1527
2672.694336 101.654 -23.8724
2692.061768 101.581 -23.5660
2711.569580 101.517 -23.2384
2731.218750 101.461 -22.9037
2751.010254 101.416 -22.5825
2770.945312 101.379 -22.2942
2791.024658 101.348 -22.0518
2811.249512 101.320 -21.8594
2831.621094 101.294 -21.7139
2852.140137 101.266 -21.6066
2872.807861 101.235 -21.5256
2893.625488 101.201 -21.4557
2914.593994 101.164 -21.3794
2935.714355 101.125 -21.2837
2956.987793 101.086 -21.1656
2978.415283 101.050 -21.0316
2999.998047 101.017 -20.8914
3021.737305 100.988 -20.7524
3043.634033 100.961 -20.6174
3065.689453 100.936 -20.4840
3087.904785 100.914 -20.3476
3110.281006 100.895 -20.2069
3132.819336 100.881 -20.0684
3155.520996 100.872 -19.9429
3178.387207 100.868 -19.8409
3201.419189 100.867 -19.7692
3224.617920 100.870 -19.7318
3247.984863 100.874 -19.7302
3271.520996 100.878 -19.7615
3295.227783 100.881 -19.8153
3319.106445 100.884 -19.8782
3343.157959 100.887 -19.9425
3367.383789 100.894 -20.0103
3391.785156 100.904 -20.0913
3416.363525 100.919 -20.1984
3441.119873 100.939 -20.3431
3466.055664 100.963 -20.5328
3491.172119 100.991 -20.7749
3516.470703 101.024 -21.0815
3541.952393 101.061 -21.4700
3567.618896 101.101 -21.9591
3593.471436 101.140 -22.5649
3619.511230 101.176 -23.2996
3645.739746 101.203 -24.1693
3672.158203 101.217 -25.1713
3698.768066 101.213 -26.2921
3725.570801 101.188 -27.5142
3752.567871 101.140 -28.8204
3779.760498 101.064 -30.1945
3807.150146 100.960 -31.6178
3834.738281 100.823 -33.0656
3862.526367 100.652 -34.5060
3890.515869 100.445 -35.9059
3918.708252 100.201 -37.2349
3947.104736 99.919 -38.4626
3975.707031 99.598 -39.5525
4004.516602 99.234 -40.4537
4033.534912 98.826 -41.0923
4062.763672 98.373 -41.3576
4092.204102 97.878 -41.0953
4121.857910 97.356 -40.1157
4151.726562 96.834 -38.2268
4181.811523 96.356 -35.3036
4212.114746 95.980 -31.3937
4242.637695 95.762 -26.8125
4273.381836 95.733 -22.1244
4304.348633 95.882 -17.9474
4335.539551 96.160 -14.7079
4366.956543 96.507 -12.5436
4398.601074 96.868 -11.3699
4430.475098 97.204 -10.9995
4462.580078 97.495 -11.2260
4494.917969 97.730 -11.8652
4527.490234 97.906 -12.7700
4560.298340 98.023 -13.8271
4593.344238 98.082 -14.9434
4626.629395 98.085 -16.0282
4660.155762 98.037 -16.9833
4693.925293 97.946 -17.7047
4727.939453 97.827 -18.0972
4762.200195 97.707 -18.1105
4796.708984 97.612 -17.7974
4831.467773 97.563 -17.3329
4866.478516 97.562 -16.9391
4901.743164 97.593 -16.7704
4937.263184 97.633 -16.8694
4973.040527 97.664 -17.2029
5009.077148 97.678 -17.7107
5045.375000 97.667 -18.3322
5081.936035 97.633 -19.0172
5118.761719 97.574 -19.7278
5155.854492 97.492 -20.4365
5193.215820 97.387 -21.1228
5230.848145 97.262 -21.7674
5268.752930 97.115 -22.3477
5306.932617 96.950 -22.8412
5345.388672 96.767 -23.2319
5384.123535 96.570 -23.5094
5423.139160 96.360 -23.6630
5462.437500 96.140 -23.6796
5502.020508 95.913 -23.5472
5541.890625 95.681 -23.2594
5582.049316 95.451 -22.8197
5622.499023 95.224 -22.2385
5663.242188 95.004 -21.5287
5704.280273 94.792 -20.7040
5745.615723 94.590 -19.7806
5787.250977 94.398 -18.7734
5829.187988 94.214 -17.6907
5871.428711 94.039 -16.5323
5913.975586 93.872 -15.2946
5956.830566 93.715 -13.9764
5999.996094 93.568 -12.5826
6043.474609 93.433 -11.1212
6087.268066 93.312 -9.6014
6131.378906 93.205 -8.0338
6175.809570 93.113 -6.4290
6220.562012 93.034 -4.7939
6265.638672 92.968 -3.1296
6311.041992 92.915 -1.4324
6356.774414 92.874 0.3016
6402.838379 92.849 2.0731
6449.235840 92.838 3.8790
6495.969727 92.845 5.7122
6543.041992 92.870 7.5601
6590.455566 92.913 9.4103
6638.212891 92.974 11.2569
6686.315918 93.051 13.1019
6734.767578 93.147 14.9497
6783.570312 93.262 16.8009
6832.727051 93.398 18.6498
6882.239746 93.559 20.4848
6932.111328 93.744 22.2888
6982.344238 93.957 24.0432
7032.941406 94.197 25.7332
7083.904785 94.466 27.3470
7135.237793 94.766 28.8719
7186.942871 95.100 30.2881
7239.022461 95.471 31.5685
7291.479492 95.879 32.6744
7344.316406 96.327 33.5547
7397.536133 96.814 34.1509
7451.141602 97.336 34.4021
7505.135742 97.890 34.2462
7559.520996 98.468 33.6188
7614.300293 99.061 32.4554
7669.476562 99.654 30.6956
7725.052734 100.231 28.2910
7781.031738 100.767 25.2168
7837.416504 101.240 21.4865
7894.209473 101.624 17.1602
7951.414062 101.897 12.3458
8009.033203 102.042 7.1952
8067.069824 102.047 1.8922
8125.527344 101.911 -3.3669
8184.408203 101.638 -8.3922
8243.715820 101.242 -13.0138
8303.453125 100.740 -17.0940
8363.623047 100.155 -20.5334
8424.229492 99.509 -23.2727
8485.275391 98.827 -25.2928
8546.763672 98.132 -26.6143
8608.697266 97.445 -27.2894
8671.079102 96.782 -27.3906
8733.913086 96.155 -26.9955
8797.202148 95.572 -26.1782
8860.950195 95.038 -25.0051
8925.160156 94.557 -23.5398
8989.835938 94.130 -21.8461
9054.980469 93.759 -19.9844
9120.596680 93.442 -18.0068
9186.688477 93.178 -15.9528
9253.258789 92.965 -13.8485
9320.311523 92.804 -11.7157
9387.850586 92.696 -9.5805
9455.878906 92.643 -7.4778
9524.400391 92.648 -5.4523
9593.417969 92.713 -3.5590
9662.935547 92.840 -1.8649
9732.957031 93.030 -0.4558
9803.486328 93.282 0.5618
9874.526367 93.586 1.0711
9946.081055 93.929 0.9615
10018.154297 94.290 0.1471
10090.750000 94.642 -1.4211
10163.872070 94.957 -3.7490
10237.523438 95.207 -6.7922
10311.708984 95.361 -10.4498
10386.431641 95.394 -14.5638
10461.696289 95.291 -18.9302
10537.505859 95.045 -23.3231
10613.865234 94.661 -27.5273
10690.777344 94.153 -31.3651
10768.247070 93.541 -34.7112
10846.278320 92.848 -37.4918
10924.875000 92.093 -39.6739
11004.041016 91.296 -41.2549
11083.781250 90.474 -42.2529
11164.098633 89.639 -42.6981
11244.998047 88.801 -42.6226
11326.484375 87.969 -42.0514
11408.560547 87.149 -41.0042
11491.231445 86.348 -39.5051
11574.501953 85.573 -37.5881
11658.375977 84.831 -35.2917
11742.857422 84.128 -32.6530
11827.951172 83.468 -29.7122
11913.661133 82.856 -26.5238
11999.992188 82.293 -23.1588
12086.949219 81.775 -19.6967
12174.536133 81.298 -16.2017
12262.757812 80.860 -12.7063
12351.619141 80.460 -9.2273
12441.124023 80.095 -5.7809
12531.277344 79.761 -2.3813
12622.083984 79.455 0.9640
12713.548828 79.171 4.2562
12805.676758 78.902 7.5037
12898.471680 78.643 10.7273
12991.939453 78.388 13.9700
13086.083984 78.137 17.2935
13180.911133 77.893 20.7528
13276.425781 77.665 24.3744
13372.631836 77.460 28.1552
13469.535156 77.286 32.0725
13567.140625 77.149 36.0922
13665.454102 77.051 40.1766
13764.479492 76.993 44.2949
13864.222656 76.977 48.4291
13964.688477 77.004 52.5652
14065.882812 77.080 56.6801
14167.809570 77.207 60.7405
14270.475586 77.390 64.7114
14373.885742 77.632 68.5515
14478.044922 77.937 72.2018
14582.958984 78.305 75.5810
14688.632812 78.735 78.5928
14795.072266 79.221 81.1300
14902.283203 79.752 83.0842
15010.271484 80.314 84.3675
15119.041992 80.889 84.9289
15228.600586 81.458 84.7538
15338.953125 82.005 83.8543
15450.105469 82.510 82.2561
15562.063477 82.955 79.9897
15674.833008 83.313 77.1034
15788.418945 83.556 73.7151
15902.828125 83.660 70.0584
16018.066406 83.626 66.4507
16134.139648 83.489 63.1552
16251.054688 83.304 60.2043
16368.816406 83.108 57.3654
16487.431641 82.889 54.3677
16606.906250 82.604 51.1741
16727.246094 82.212 48.0076
16848.458984 81.706 45.1828
16970.550781 81.106 42.9440
17093.527344 80.452 41.3927
17217.394531 79.791 40.4832
17342.158203 79.164 40.0495
17467.826172 78.602 39.8421
17594.404297 78.120 39.5795
17721.900391 77.712 39.0067
17850.320312 77.354 37.9483
17979.671875 77.005 36.3491
18109.960938 76.615 34.2843
18241.193359 76.137 31.9198
18373.376953 75.542 29.4526
18506.517578 74.821 27.0914
18640.623047 73.977 25.0460
18775.701172 73.024 23.5043
18911.757812 71.978 22.6196
19048.800781 70.863 22.5057
19186.835938 69.709 23.2203
19325.871094 68.544 24.7369
19465.914062 67.405 26.9152
19606.972656 66.339 29.4894
19749.052734 65.410 32.0788
19892.162109 64.704 34.2186
20036.308594 64.317 35.4439
