* Measurement data measured by REW V5.31
* Source: EXCL: Microphone (USB Sound Device        ), MICROPHONE (Master Volume), L, volume: 0.250
* Format: 256k Log Swept Sine, 1 sweep at -5.0 dBFS with no timing reference
* Dated: Jun 18, 2024 7:28:14 PM
* REW Settings:
*  C-weighting compensation: Off
*  Target level: 75.0 dB
* Note: Dunu Titan S2
* Measurement: L Dunu Titan S2
* Smoothing: 1/12 octave
* Frequency Step: 96 ppo
* Start Frequency: 0.36621094 Hz
*
* Freq(Hz) SPL(dB) Phase(degrees)
0.366211 79.033 176.4254
0.368865 79.031 176.4148
0.371538 79.029 176.3991
0.374230 79.026 176.3794
0.376942 79.022 176.3569
0.379673 79.019 176.3324
0.382424 79.015 176.3064
0.385196 79.011 176.2792
0.387987 79.007 176.2511
0.390798 79.003 176.2220
0.393630 78.999 176.1921
0.396483 78.995 176.1614
0.399356 78.991 176.1299
0.402250 78.987 176.0975
0.405165 78.983 176.0644
0.408101 78.978 176.0304
0.411058 78.974 175.9956
0.414037 78.970 175.9600
0.417037 78.966 175.9235
0.420059 78.961 175.8861
0.423103 78.957 175.8479
0.426169 78.953 175.8088
0.429257 78.948 175.7688
0.432368 78.944 175.7280
0.435501 78.939 175.6862
0.438656 78.935 175.6435
0.441835 78.930 175.5999
0.445037 78.926 175.5553
0.448262 78.921 175.5098
0.451510 78.916 175.4634
0.454782 78.912 175.4160
0.458077 78.907 175.3676
0.461397 78.902 175.3183
0.464740 78.897 175.2679
0.468108 78.893 175.2166
0.471500 78.888 175.1642
0.474917 78.883 175.1109
0.478358 78.878 175.0565
0.481825 78.873 175.0011
0.485316 78.868 174.9446
0.488833 78.863 174.8871
0.492375 78.858 174.8285
0.495943 78.853 174.7689
0.499537 78.848 174.7082
0.503157 78.842 174.6463
0.506803 78.837 174.5834
0.510475 78.832 174.5194
0.514175 78.827 174.4543
0.517900 78.821 174.3880
0.521653 78.816 174.3206
0.525434 78.811 174.2521
0.529241 78.805 174.1824
0.533076 78.800 174.1115
0.536939 78.794 174.0395
0.540830 78.789 173.9663
0.544749 78.783 173.8919
0.548696 78.777 173.8163
0.552673 78.772 173.7395
0.556677 78.766 173.6614
0.560711 78.760 173.5822
0.564774 78.754 173.5017
0.568867 78.749 173.4200
0.572989 78.743 173.3370
0.577141 78.737 173.2527
0.581324 78.731 173.1672
0.585536 78.725 173.0804
0.589779 78.719 172.9923
0.594053 78.713 172.9030
0.598358 78.706 172.8123
0.602694 78.700 172.7202
0.607061 78.694 172.6269
0.611460 78.688 172.5322
0.615891 78.681 172.4361
0.620354 78.675 172.3387
0.624849 78.669 172.2400
0.629377 78.662 172.1398
0.633938 78.656 172.0383
0.638532 78.649 171.9353
0.643159 78.642 171.8310
0.647819 78.636 171.7252
0.652514 78.629 171.6180
0.657242 78.622 171.5093
0.662005 78.615 171.3992
0.666802 78.609 171.2876
0.671634 78.602 171.1745
0.676501 78.595 171.0599
0.681403 78.588 170.9438
0.686341 78.581 170.8261
0.691314 78.573 170.7069
0.696324 78.566 170.5862
0.701370 78.559 170.4638
0.706452 78.551 170.3397
0.711571 78.543 170.2140
0.716728 78.535 170.0864
0.721921 78.526 169.9568
0.727153 78.515 169.8250
0.732422 78.504 169.6906
0.737729 78.490 169.5533
0.743075 78.476 169.4126
0.748460 78.460 169.2684
0.753883 78.443 169.1203
0.759346 78.426 168.9682
0.764849 78.408 168.8120
0.770391 78.390 168.6515
0.775974 78.371 168.4868
0.781597 78.352 168.3179
0.787261 78.333 168.1445
0.792966 78.314 167.9669
0.798712 78.295 167.7849
0.804500 78.275 167.5986
0.810329 78.254 167.4078
0.816201 78.234 167.2127
0.822116 78.213 167.0132
0.828073 78.191 166.8094
0.834074 78.170 166.6011
0.840118 78.147 166.3884
0.846206 78.125 166.1713
0.852338 78.101 165.9498
0.858514 78.077 165.7239
0.864735 78.053 165.4936
0.871001 78.028 165.2589
0.877313 78.002 165.0198
0.883670 77.976 164.7764
0.890074 77.949 164.5285
0.896524 77.921 164.2764
0.903020 77.893 164.0199
0.909564 77.863 163.7591
0.916155 77.833 163.4941
0.922794 77.802 163.2247
0.929481 77.770 162.9511
0.936216 77.736 162.6733
0.943000 77.702 162.3914
0.949834 77.667 162.1052
0.956717 77.631 161.8150
0.963649 77.593 161.5206
0.970632 77.554 161.2223
0.977666 77.514 160.9199
0.984750 77.472 160.6136
0.991886 77.429 160.3033
0.999074 77.385 159.9892
1.006314 77.339 159.6713
1.013606 77.292 159.3496
1.020951 77.242 159.0242
1.028349 77.192 158.6951
1.035801 77.139 158.3625
1.043307 77.084 158.0262
1.050867 77.028 157.6864
1.058482 76.969 157.3429
1.066152 76.908 156.9957
1.073878 76.845 156.6444
1.081660 76.780 156.2886
1.089498 76.712 155.9276
1.097393 76.641 155.5601
1.105345 76.568 155.1848
1.113355 76.491 154.8001
1.121423 76.410 154.4047
1.129549 76.326 153.9973
1.137734 76.239 153.5771
1.145979 76.148 153.1434
1.154283 76.053 152.6956
1.162647 75.955 152.2331
1.171072 75.854 151.7556
1.179558 75.750 151.2625
1.188106 75.642 150.7535
1.196715 75.532 150.2281
1.205387 75.418 149.6859
1.214122 75.302 149.1263
1.222920 75.183 148.5490
1.231782 75.062 147.9533
1.240708 74.938 147.3388
1.249699 74.812 146.7049
1.258754 74.684 146.0511
1.267876 74.555 145.3767
1.277063 74.424 144.6812
1.286318 74.291 143.9639
1.295639 74.157 143.2241
1.305027 74.022 142.4611
1.314484 73.887 141.6742
1.324009 73.751 140.8625
1.333604 73.614 140.0254
1.343268 73.478 139.1618
1.353002 73.342 138.2710
1.362806 73.206 137.3519
1.372681 73.072 136.4035
1.382628 72.938 135.4247
1.392647 72.806 134.4142
1.402739 72.676 133.3705
1.412904 72.547 132.2919
1.423142 72.421 131.1763
1.433455 72.296 130.0208
1.443843 72.174 128.8216
1.454305 72.053 127.5734
1.464844 71.932 126.2695
1.475459 71.811 124.9013
1.486150 71.688 123.4596
1.496920 71.562 121.9348
1.507767 71.434 120.3174
1.518693 71.302 118.5983
1.529698 71.167 116.7685
1.540783 71.029 114.8191
1.551948 70.889 112.7409
1.563194 70.747 110.5252
1.574521 70.605 108.1629
1.585931 70.462 105.6457
1.597423 70.319 102.9658
1.608999 70.179 100.1167
1.620658 70.040 97.0936
1.632402 69.905 93.8942
1.644232 69.774 90.5193
1.656146 69.648 86.9739
1.668147 69.529 83.2673
1.680235 69.417 79.4140
1.692411 69.313 75.4337
1.704675 69.220 71.3511
1.717028 69.138 67.1948
1.729470 69.069 62.9966
1.742003 69.013 58.7894
1.754626 68.973 54.6056
1.767341 68.951 50.4752
1.780147 68.947 46.4239
1.793047 68.964 42.4726
1.806040 69.003 38.6361
1.819128 69.067 34.9235
1.832310 69.156 31.3393
1.845587 69.273 27.8850
1.858961 69.417 24.5613
1.872432 69.590 21.3692
1.886001 69.790 18.3099
1.899667 70.016 15.3845
1.913433 70.266 12.5928
1.927299 70.540 9.9338
1.941265 70.834 7.4049
1.955332 71.147 5.0025
1.969501 71.476 2.7217
1.983773 71.819 0.5572
1.998148 72.174 -1.4968
2.012627 72.537 -3.4466
2.027212 72.907 -5.2984
2.041902 73.281 -7.0586
2.056698 73.656 -8.7334
2.071602 74.029 -10.3287
2.086614 74.397 -11.8505
2.101734 74.759 -13.3045
2.116964 75.111 -14.6963
2.132304 75.450 -16.0314
2.147756 75.776 -17.3156
2.163320 76.087 -18.5546
2.178996 76.382 -19.7548
2.194786 76.662 -20.9223
2.210690 76.929 -22.0634
2.226710 77.185 -23.1833
2.242845 77.430 -24.2855
2.259098 77.668 -25.3721
2.275468 77.898 -26.4438
2.291957 78.122 -27.5004
2.308566 78.340 -28.5414
2.325295 78.552 -29.5660
2.342145 78.759 -30.5732
2.359117 78.961 -31.5623
2.376212 79.158 -32.5323
2.393431 79.351 -33.4825
2.410775 79.540 -34.4125
2.428244 79.725 -35.3216
2.445840 79.906 -36.2096
2.463564 80.085 -37.0764
2.481416 80.260 -37.9222
2.499397 80.433 -38.7477
2.517509 80.603 -39.5541
2.535752 80.770 -40.3437
2.554127 80.934 -41.1193
2.572635 81.095 -41.8847
2.591277 81.252 -42.6436
2.610055 81.404 -43.3991
2.628968 81.552 -44.1527
2.648019 81.695 -44.9050
2.667208 81.833 -45.6556
2.686535 81.966 -46.4032
2.706003 82.095 -47.1465
2.725612 82.220 -47.8835
2.745363 82.341 -48.6124
2.765257 82.459 -49.3313
2.785295 82.573 -50.0382
2.805478 82.685 -50.7315
2.825808 82.793 -51.4094
2.846285 82.900 -52.0706
2.866910 83.004 -52.7143
2.887685 83.107 -53.3404
2.908611 83.207 -53.9497
2.929688 83.304 -54.5442
2.950917 83.400 -55.1265
2.972301 83.491 -55.6993
2.993839 83.580 -56.2646
3.015534 83.665 -56.8236
3.037386 83.747 -57.3765
3.059396 83.825 -57.9226
3.081565 83.901 -58.4610
3.103896 83.973 -58.9902
3.126388 84.044 -59.5086
3.149043 84.111 -60.0144
3.171862 84.177 -60.5058
3.194847 84.242 -60.9808
3.217998 84.305 -61.4378
3.241317 84.367 -61.8756
3.264805 84.428 -62.2933
3.288463 84.488 -62.6908
3.312293 84.546 -63.0687
3.336295 84.602 -63.4282
3.360471 84.656 -63.7705
3.384822 84.709 -64.0968
3.409350 84.759 -64.4078
3.434056 84.808 -64.7041
3.458940 84.856 -64.9858
3.484005 84.902 -65.2532
3.509252 84.948 -65.5060
3.534681 84.994 -65.7440
3.560295 85.040 -65.9669
3.586094 85.087 -66.1741
3.612081 85.134 -66.3650
3.638255 85.183 -66.5386
3.664620 85.232 -66.6943
3.691175 85.283 -66.8313
3.717923 85.334 -66.9497
3.744864 85.385 -67.0498
3.772001 85.438 -67.1331
3.799335 85.491 -67.2012
3.826866 85.544 -67.2562
3.854597 85.599 -67.3004
3.882529 85.656 -67.3363
3.910664 85.714 -67.3660
3.939002 85.774 -67.3913
3.967546 85.836 -67.4138
3.996296 85.900 -67.4340
4.025255 85.967 -67.4517
4.054423 86.037 -67.4662
4.083804 86.109 -67.4769
4.113396 86.183 -67.4838
4.143204 86.260 -67.4879
4.173227 86.340 -67.4910
4.203468 86.421 -67.4956
4.233928 86.504 -67.5046
4.264609 86.588 -67.5209
4.295512 86.674 -67.5471
4.326639 86.761 -67.5857
4.357992 86.850 -67.6379
4.389572 86.939 -67.7046
4.421380 87.030 -67.7854
4.453419 87.123 -67.8796
4.485691 87.217 -67.9867
4.518196 87.312 -68.1063
4.550936 87.408 -68.2385
4.583914 87.504 -68.3837
4.617131 87.601 -68.5427
4.650589 87.697 -68.7161
4.684289 87.793 -68.9049
4.718233 87.888 -69.1099
4.752424 87.982 -69.3315
4.786862 88.075 -69.5700
4.821549 88.167 -69.8251
4.856488 88.258 -70.0961
4.891680 88.348 -70.3815
4.927127 88.436 -70.6799
4.962831 88.523 -70.9895
4.998794 88.609 -71.3090
5.035017 88.692 -71.6369
5.071503 88.774 -71.9726
5.108253 88.854 -72.3157
5.145270 88.931 -72.6665
5.182555 89.005 -73.0250
5.220110 89.078 -73.3911
5.257937 89.148 -73.7636
5.296038 89.216 -74.1408
5.334415 89.282 -74.5207
5.373071 89.346 -74.9009
5.412006 89.407 -75.2793
5.451224 89.467 -75.6546
5.490725 89.525 -76.0258
5.530514 89.581 -76.3929
5.570590 89.635 -76.7560
5.610957 89.687 -77.1151
5.651616 89.737 -77.4696
5.692570 89.786 -77.8185
5.733821 89.833 -78.1606
5.775370 89.880 -78.4947
5.817221 89.926 -78.8194
5.859375 89.972 -79.1342
5.901834 90.018 -79.4387
5.944602 90.062 -79.7332
5.987679 90.107 -80.0182
6.031068 90.152 -80.2947
6.074771 90.197 -80.5633
6.118792 90.242 -80.8248
6.163131 90.289 -81.0795
6.207792 90.336 -81.3279
6.252776 90.385 -81.5701
6.298086 90.435 -81.8065
6.343725 90.486 -82.0379
6.389694 90.539 -82.2658
6.435996 90.592 -82.4921
6.482634 90.648 -82.7187
6.529610 90.705 -82.9473
6.576926 90.763 -83.1794
6.624585 90.823 -83.4156
6.672590 90.885 -83.6564
6.720942 90.948 -83.9025
6.769645 91.013 -84.1549
6.818700 91.078 -84.4146
6.868111 91.144 -84.6832
6.917881 91.211 -84.9616
6.968010 91.279 -85.2506
7.018504 91.347 -85.5505
7.069362 91.415 -85.8612
7.120590 91.484 -86.1822
7.172189 91.552 -86.5130
7.224161 91.620 -86.8532
7.276511 91.687 -87.2026
7.329239 91.754 -87.5607
7.382350 91.820 -87.9273
7.435845 91.885 -88.3017
7.489729 91.949 -88.6827
7.544002 92.012 -89.0688
7.598669 92.074 -89.4585
7.653732 92.135 -89.8505
7.709194 92.194 -90.2438
7.765058 92.253 -90.6376
7.821327 92.310 -91.0313
7.878004 92.366 -91.4237
7.935091 92.421 -91.8136
7.992592 92.476 -92.1998
8.050510 92.530 -92.5814
8.108847 92.583 -92.9576
8.167607 92.636 -93.3283
8.226793 92.689 -93.6935
8.286408 92.742 -94.0529
8.346454 92.795 -94.4067
8.406936 92.848 -94.7549
8.467856 92.902 -95.0975
8.529218 92.956 -95.4350
8.591024 93.011 -95.7680
8.653278 93.067 -96.0975
8.715983 93.123 -96.4245
8.779143 93.181 -96.7498
8.842760 93.239 -97.0742
8.906839 93.298 -97.3983
8.971381 93.358 -97.7228
9.036392 93.419 -98.0488
9.101873 93.480 -98.3769
9.167829 93.541 -98.7079
9.234263 93.603 -99.0422
9.301178 93.666 -99.3799
9.368578 93.728 -99.7209
9.436467 93.790 -100.0653
9.504847 93.852 -100.4129
9.573723 93.913 -100.7634
9.643099 93.973 -101.1165
9.712976 94.031 -101.4715
9.783361 94.087 -101.8275
9.854255 94.141 -102.1838
9.925663 94.192 -102.5396
9.997588 94.240 -102.8943
10.070035 94.284 -103.2471
10.143007 94.327 -103.5973
10.216507 94.367 -103.9442
10.290540 94.404 -104.2872
10.365109 94.441 -104.6261
10.440219 94.476 -104.9606
10.515873 94.510 -105.2907
10.592076 94.543 -105.6166
10.668830 94.576 -105.9382
10.746141 94.609 -106.2559
10.824012 94.642 -106.5703
10.902447 94.675 -106.8818
10.981451 94.708 -107.1911
11.061027 94.741 -107.4988
11.141180 94.774 -107.8054
11.221913 94.807 -108.1115
11.303232 94.840 -108.4177
11.385140 94.873 -108.7244
11.467641 94.905 -109.0319
11.550741 94.938 -109.3403
11.634442 94.970 -109.6497
11.718750 95.002 -109.9602
11.803669 95.034 -110.2716
11.889203 95.065 -110.5837
11.975357 95.097 -110.8961
12.062136 95.128 -111.2086
12.149543 95.158 -111.5209
12.237583 95.189 -111.8326
12.326262 95.219 -112.1435
12.415583 95.248 -112.4535
12.505552 95.277 -112.7624
12.596172 95.305 -113.0703
12.687449 95.333 -113.3773
12.779387 95.360 -113.6836
12.871992 95.387 -113.9895
12.965268 95.414 -114.2954
13.059220 95.441 -114.6016
13.153852 95.467 -114.9087
13.249170 95.494 -115.2169
13.345179 95.521 -115.5266
13.441884 95.547 -115.8382
13.539289 95.573 -116.1517
13.637401 95.600 -116.4672
13.736223 95.626 -116.7848
13.835761 95.651 -117.1044
13.936021 95.676 -117.4256
14.037007 95.701 -117.7484
14.138725 95.725 -118.0724
14.241180 95.748 -118.3973
14.344377 95.771 -118.7229
14.448323 95.793 -119.0491
14.553021 95.815 -119.3756
14.658478 95.837 -119.7026
14.764700 95.858 -120.0300
14.871691 95.880 -120.3581
14.979457 95.902 -120.6870
15.088005 95.923 -121.0169
15.197339 95.945 -121.3483
15.307465 95.967 -121.6814
15.418389 95.989 -122.0163
15.530117 96.011 -122.3533
15.642655 96.033 -122.6923
15.756008 96.055 -123.0335
15.870182 96.076 -123.3766
15.985184 96.098 -123.7214
16.101019 96.119 -124.0678
16.217694 96.140 -124.4154
16.335214 96.161 -124.7639
16.453586 96.182 -125.1130
16.572815 96.203 -125.4624
16.692909 96.224 -125.8120
16.813872 96.245 -126.1616
16.935713 96.267 -126.5111
17.058436 96.289 -126.8604
17.182048 96.311 -127.2095
17.306556 96.333 -127.5583
17.431967 96.355 -127.9067
17.558286 96.377 -128.2545
17.685521 96.399 -128.6016
17.813677 96.421 -128.9475
17.942762 96.443 -129.2921
18.072783 96.464 -129.6349
18.203746 96.486 -129.9758
18.335658 96.507 -130.3144
18.468526 96.528 -130.6506
18.602356 96.549 -130.9844
18.737156 96.571 -131.3158
18.872934 96.592 -131.6451
19.009695 96.614 -131.9725
19.147447 96.636 -132.2983
19.286197 96.658 -132.6230
19.425953 96.680 -132.9466
19.566721 96.701 -133.2695
19.708510 96.723 -133.5917
19.851326 96.744 -133.9131
19.995177 96.765 -134.2336
20.140070 96.785 -134.5529
20.286013 96.804 -134.8708
20.433014 96.823 -135.1870
20.581080 96.841 -135.5014
20.730219 96.859 -135.8139
20.880439 96.877 -136.1246
21.031747 96.894 -136.4339
21.184152 96.911 -136.7421
21.337661 96.929 -137.0496
21.492282 96.946 -137.3569
21.648024 96.962 -137.6643
21.804895 96.979 -137.9721
21.962902 96.995 -138.2804
22.122054 97.011 -138.5893
22.282360 97.026 -138.8985
22.443827 97.040 -139.2080
22.606464 97.054 -139.5175
22.770280 97.067 -139.8270
22.935283 97.080 -140.1362
23.101481 97.093 -140.4454
23.268884 97.106 -140.7549
23.437500 97.118 -141.0647
23.607338 97.129 -141.3754
23.778406 97.141 -141.6873
23.950714 97.152 -142.0005
24.124271 97.163 -142.3152
24.299086 97.173 -142.6313
24.475167 97.183 -142.9485
24.652524 97.192 -143.2665
24.831166 97.202 -143.5849
25.011103 97.211 -143.9031
25.192344 97.219 -144.2208
25.374898 97.228 -144.5376
25.558775 97.236 -144.8532
25.743984 97.245 -145.1676
25.930536 97.253 -145.4806
26.118439 97.262 -145.7925
26.307704 97.270 -146.1033
26.498341 97.279 -146.4133
26.690359 97.288 -146.7225
26.883768 97.296 -147.0311
27.078579 97.305 -147.3390
27.274801 97.313 -147.6462
27.472446 97.321 -147.9524
27.671522 97.329 -148.2574
27.872042 97.337 -148.5608
28.074014 97.344 -148.8622
28.277450 97.350 -149.1615
28.482360 97.357 -149.4585
28.688755 97.363 -149.7532
28.896645 97.369 -150.0459
29.106042 97.374 -150.3370
29.316957 97.380 -150.6268
29.529400 97.385 -150.9156
29.743382 97.390 -151.2039
29.958915 97.395 -151.4916
30.176009 97.400 -151.7789
30.394677 97.404 -152.0658
30.614929 97.408 -152.3521
30.836778 97.412 -152.6381
31.060234 97.416 -152.9238
31.285309 97.420 -153.2096
31.512015 97.423 -153.4958
31.740364 97.426 -153.7828
31.970368 97.429 -154.0706
32.202039 97.431 -154.3595
32.435388 97.434 -154.6491
32.670428 97.436 -154.9393
32.907171 97.438 -155.2299
33.145630 97.439 -155.5209
33.385817 97.441 -155.8123
33.627745 97.443 -156.1042
33.871425 97.444 -156.3968
34.116871 97.446 -156.6901
34.364096 97.447 -156.9841
34.613113 97.447 -157.2782
34.863934 97.448 -157.5718
35.116572 97.448 -157.8639
35.371041 97.447 -158.1539
35.627354 97.447 -158.4411
35.885525 97.446 -158.7253
36.145566 97.445 -159.0066
36.407492 97.444 -159.2854
36.671316 97.442 -159.5623
36.937051 97.441 -159.8379
37.204712 97.440 -160.1123
37.474313 97.438 -160.3858
37.745867 97.436 -160.6581
38.019389 97.434 -160.9291
38.294893 97.432 -161.1986
38.572394 97.429 -161.4667
38.851905 97.427 -161.7335
39.133442 97.424 -161.9996
39.417019 97.421 -162.2655
39.702651 97.418 -162.5316
39.990353 97.414 -162.7982
40.280140 97.411 -163.0654
40.572026 97.407 -163.3329
40.866028 97.402 -163.6006
41.162160 97.398 -163.8680
41.460438 97.393 -164.1348
41.760877 97.388 -164.4004
42.063494 97.382 -164.6646
42.368303 97.376 -164.9269
42.675322 97.370 -165.1873
42.984565 97.364 -165.4454
43.296048 97.357 -165.7012
43.609789 97.350 -165.9545
43.925804 97.343 -166.2052
44.244108 97.337 -166.4534
44.564719 97.330 -166.6992
44.887654 97.323 -166.9433
45.212928 97.317 -167.1867
45.540560 97.311 -167.4304
45.870565 97.305 -167.6755
46.202962 97.299 -167.9225
46.537768 97.292 -168.1712
46.875000 97.285 -168.4210
47.214676 97.277 -168.6706
47.556813 97.269 -168.9186
47.901429 97.260 -169.1641
48.248542 97.251 -169.4063
48.598171 97.242 -169.6449
48.950334 97.233 -169.8802
49.305048 97.224 -170.1129
49.662333 97.215 -170.3437
50.022206 97.207 -170.5736
50.384688 97.198 -170.8033
50.749796 97.190 -171.0331
51.117550 97.181 -171.2630
51.487969 97.172 -171.4923
51.861072 97.164 -171.7206
52.236879 97.155 -171.9474
52.615409 97.146 -172.1726
52.996681 97.137 -172.3964
53.380717 97.128 -172.6190
53.767536 97.120 -172.8410
54.157158 97.111 -173.0625
54.549603 97.103 -173.2838
54.944892 97.095 -173.5054
55.343045 97.088 -173.7277
55.744084 97.080 -173.9515
56.148028 97.073 -174.1773
56.554900 97.065 -174.4055
56.964720 97.058 -174.6367
57.377510 97.051 -174.8711
57.793291 97.043 -175.1084
58.212085 97.034 -175.3481
58.633914 97.024 -175.5885
59.058799 97.014 -175.8278
59.486764 97.002 -176.0638
59.917829 96.990 -176.2951
60.352019 96.977 -176.5213
60.789354 96.964 -176.7431
61.229859 96.950 -176.9618
61.673556 96.937 -177.1783
62.120468 96.923 -177.3930
62.570618 96.909 -177.6057
63.024031 96.894 -177.8164
63.480729 96.880 -178.0251
63.940736 96.865 -178.2323
64.404077 96.850 -178.4387
64.870776 96.835 -178.6447
65.340856 96.820 -178.8503
65.814343 96.805 -179.0550
66.291261 96.790 -179.2587
66.771635 96.775 -179.4609
67.255489 96.759 -179.6617
67.742850 96.744 -179.8607
68.233743 96.728 179.9420
68.728193 96.712 179.7469
69.226226 96.696 179.5538
69.727867 96.680 179.3624
70.233144 96.663 179.1721
70.742083 96.647 178.9819
71.254709 96.631 178.7917
71.771050 96.615 178.6012
72.291132 96.598 178.4108
72.814984 96.581 178.2206
73.342631 96.565 178.0305
73.874102 96.548 177.8403
74.409424 96.532 177.6500
74.948626 96.515 177.4603
75.491734 96.499 177.2720
76.038779 96.483 177.0848
76.589787 96.467 176.8980
77.144788 96.451 176.7110
77.703811 96.436 176.5239
78.266885 96.421 176.3369
78.834039 96.406 176.1494
79.405303 96.391 175.9597
79.980706 96.376 175.7659
80.560280 96.362 175.5658
81.144053 96.346 175.3585
81.732056 96.329 175.1440
82.324320 96.311 174.9233
82.920876 96.291 174.6989
83.521755 96.269 174.4747
84.126988 96.245 174.2556
84.736607 96.220 174.0463
85.350643 96.193 173.8494
85.969129 96.167 173.6644
86.592097 96.141 173.4886
87.219579 96.115 173.3190
87.851608 96.091 173.1536
88.488217 96.067 172.9914
89.129439 96.043 172.8327
89.775308 96.019 172.6778
90.425856 95.996 172.5271
91.081119 95.973 172.3806
91.741131 95.950 172.2378
92.405925 95.928 172.0980
93.075536 95.905 171.9607
93.750000 95.881 171.8260
94.429351 95.858 171.6942
95.113625 95.833 171.5649
95.802858 95.808 171.4376
96.497085 95.783 171.3115
97.196342 95.758 171.1856
97.900667 95.732 171.0600
98.610096 95.706 170.9348
99.324665 95.680 170.8099
100.044413 95.655 170.6846
100.769376 95.629 170.5589
101.499592 95.604 170.4337
102.235100 95.578 170.3101
102.975938 95.553 170.1884
103.722144 95.528 170.0683
104.473757 95.503 169.9485
105.230817 95.479 169.8277
105.993363 95.454 169.7061
106.761435 95.430 169.5857
107.535072 95.405 169.4691
108.314315 95.380 169.3578
109.099206 95.354 169.2516
109.889783 95.328 169.1498
110.686090 95.300 169.0507
111.488167 95.271 168.9518
112.296056 95.239 168.8490
113.109800 95.205 168.7382
113.929440 95.169 168.6172
114.755020 95.129 168.4880
115.586582 95.088 168.3560
116.424170 95.046 168.2306
117.267827 95.004 168.1239
118.117598 94.963 168.0526
118.973527 94.925 168.0386
119.835658 94.891 168.1016
120.704037 94.868 168.2373
121.578708 94.857 168.4093
122.459718 94.855 168.5707
123.347111 94.859 168.6900
124.240935 94.864 168.7553
125.141236 94.866 168.7667
126.048061 94.865 168.7306
126.961458 94.859 168.6561
127.881473 94.850 168.5535
128.808154 94.837 168.4325
129.741551 94.823 168.3027
130.681712 94.806 168.1726
131.628686 94.786 168.0492
132.582521 94.764 167.9373
133.543269 94.738 167.8396
134.510979 94.710 167.7565
135.485701 94.679 167.6868
136.467486 94.647 167.6291
137.456386 94.615 167.5830
138.452451 94.584 167.5492
139.455735 94.555 167.5279
140.466288 94.529 167.5171
141.484165 94.506 167.5120
142.509418 94.486 167.5049
143.542100 94.469 167.4876
144.582265 94.453 167.4531
145.629968 94.437 167.3979
146.685262 94.420 167.3222
147.748204 94.401 167.2302
148.818849 94.380 167.1290
149.897251 94.356 167.0277
150.983469 94.330 166.9358
152.077557 94.301 166.8607
153.179574 94.272 166.8057
154.289576 94.242 166.7708
155.407622 94.212 166.7529
156.533770 94.184 166.7456
157.668078 94.157 166.7408
158.810606 94.131 166.7307
159.961413 94.106 166.7108
161.120559 94.080 166.6801
162.288105 94.054 166.6403
163.464112 94.026 166.5953
164.648640 93.997 166.5501
165.841752 93.965 166.5094
167.043510 93.932 166.4772
168.253976 93.899 166.4559
169.473213 93.864 166.4460
170.701286 93.831 166.4462
171.938258 93.798 166.4552
173.184194 93.767 166.4716
174.439158 93.737 166.4942
175.703216 93.709 166.5215
176.976434 93.683 166.5516
178.258878 93.657 166.5819
179.550615 93.633 166.6094
180.851713 93.610 166.6306
182.162239 93.587 166.6430
183.482262 93.564 166.6454
184.811850 93.540 166.6386
186.151073 93.516 166.6251
187.500000 93.490 166.6080
188.858702 93.464 166.5908
190.227250 93.436 166.5765
191.605715 93.408 166.5679
192.994169 93.378 166.5665
194.392685 93.348 166.5728
195.801334 93.317 166.5869
197.220191 93.285 166.6090
198.649330 93.254 166.6400
200.088825 93.222 166.6804
201.538751 93.192 166.7299
202.999184 93.162 166.7867
204.470200 93.133 166.8474
205.951875 93.104 166.9081
207.444287 93.076 166.9671
208.947514 93.047 167.0251
210.461634 93.017 167.0853
211.986726 92.985 167.1525
213.522869 92.951 167.2325
215.070144 92.916 167.3317
216.628631 92.881 167.4555
218.198411 92.847 167.6058
219.779567 92.816 167.7788
221.372180 92.789 167.9653
222.976334 92.766 168.1527
224.592112 92.748 168.3284
226.219600 92.733 168.4820
227.858880 92.720 168.6073
229.510039 92.708 168.7040
231.173164 92.696 168.7768
232.848340 92.683 168.8326
234.535655 92.668 168.8783
236.235197 92.652 168.9190
237.947054 92.633 168.9579
239.671317 92.612 168.9970
241.408074 92.589 169.0385
243.157416 92.565 169.0846
244.919435 92.540 169.1371
246.694223 92.513 169.1981
248.481871 92.485 169.2701
250.282473 92.456 169.3555
252.096123 92.428 169.4561
253.922915 92.401 169.5704
255.762945 92.376 169.6929
257.616309 92.354 169.8146
259.483103 92.334 169.9269
261.363424 92.314 170.0251
263.257372 92.294 170.1111
265.165043 92.273 170.1915
267.086538 92.250 170.2740
269.021957 92.225 170.3657
270.971401 92.200 170.4702
272.934972 92.175 170.5880
274.912771 92.151 170.7169
276.904902 92.128 170.8546
278.911469 92.107 170.9984
280.932577 92.087 171.1459
282.968330 92.070 171.2933
285.018835 92.054 171.4346
287.084199 92.041 171.5629
289.164530 92.028 171.6719
291.259935 92.014 171.7607
293.370525 91.998 171.8344
295.496408 91.979 171.9030
297.637697 91.958 171.9760
299.794503 91.934 172.0601
301.966937 91.909 172.1571
304.155114 91.883 172.2662
306.359147 91.858 172.3841
308.579152 91.833 172.5070
310.815244 91.808 172.6317
313.067539 91.783 172.7564
315.336156 91.758 172.8824
317.621211 91.732 173.0136
319.922826 91.706 173.1544
322.241118 91.679 173.3073
324.576210 91.654 173.4715
326.928223 91.629 173.6439
329.297280 91.606 173.8210
331.683504 91.584 173.9991
334.087019 91.563 174.1755
336.507952 91.542 174.3480
338.946427 91.521 174.5159
341.402572 91.500 174.6805
343.876516 91.478 174.8448
346.368387 91.455 175.0114
348.878315 91.432 175.1821
351.406431 91.409 175.3572
353.952867 91.386 175.5363
356.517756 91.363 175.7184
359.101230 91.340 175.9029
361.703426 91.318 176.0894
364.324478 91.295 176.2780
366.964523 91.273 176.4686
369.623699 91.251 176.6615
372.302145 91.229 176.8575
375.000000 91.207 177.0566
377.717405 91.186 177.2587
380.454501 91.165 177.4634
383.211431 91.145 177.6701
385.988339 91.124 177.8789
388.785369 91.104 178.0897
391.602668 91.084 178.3027
394.440383 91.064 178.5179
397.298660 91.045 178.7351
400.177650 91.026 178.9536
403.077502 91.008 179.1720
405.998368 90.991 179.3891
408.940400 90.973 179.6045
411.903750 90.955 179.8196
414.888575 90.936 -179.9622
417.895028 90.918 -179.7374
420.923268 90.899 -179.5034
423.973452 90.880 -179.2592
427.045738 90.863 -179.0062
430.140287 90.848 -178.7482
433.257261 90.834 -178.4897
436.396822 90.821 -178.2342
439.559133 90.810 -177.9825
442.744360 90.800 -177.7348
445.952668 90.791 -177.4934
449.184225 90.783 -177.2628
452.439199 90.776 -177.0487
455.717760 90.767 -176.8538
459.020079 90.757 -176.6742
462.346327 90.743 -176.4994
465.696680 90.727 -176.3175
469.071310 90.708 -176.1213
472.470394 90.689 -175.9095
475.894109 90.669 -175.6850
479.342634 90.651 -175.4534
482.816148 90.632 -175.2203
486.314833 90.614 -174.9873
489.838871 90.594 -174.7499
493.388445 90.574 -174.5002
496.963741 90.554 -174.2340
500.564945 90.535 -173.9549
504.192245 90.518 -173.6704
507.845830 90.503 -173.3873
511.525890 90.488 -173.1091
515.232618 90.473 -172.8349
518.966206 90.457 -172.5615
522.726849 90.441 -172.2844
526.514743 90.425 -171.9992
530.330086 90.409 -171.7040
534.173076 90.393 -171.4010
538.043915 90.379 -171.0945
541.942803 90.366 -170.7871
545.869944 90.353 -170.4780
549.825542 90.342 -170.1663
553.809805 90.331 -169.8533
557.822939 90.321 -169.5419
561.865154 90.311 -169.2343
565.936660 90.302 -168.9299
570.037671 90.292 -168.6255
574.168399 90.281 -168.3177
578.329060 90.270 -168.0046
582.519870 90.259 -167.6865
586.741049 90.248 -167.3637
590.992817 90.236 -167.0340
595.275394 90.225 -166.6949
599.589005 90.215 -166.3472
603.933874 90.206 -165.9952
608.310228 90.198 -165.6432
612.718295 90.190 -165.2927
617.158304 90.182 -164.9411
621.630488 90.173 -164.5824
626.135079 90.165 -164.2100
630.672311 90.158 -163.8214
635.242423 90.152 -163.4206
639.845651 90.149 -163.0137
644.482237 90.147 -162.6033
649.152421 90.147 -162.1890
653.856447 90.150 -161.7727
658.594560 90.156 -161.3615
663.367008 90.164 -160.9658
668.174039 90.173 -160.5935
673.015903 90.182 -160.2435
677.892854 90.189 -159.9075
682.805145 90.193 -159.5760
687.753032 90.196 -159.2415
692.736774 90.197 -158.8986
697.756631 90.197 -158.5432
702.812863 90.197 -158.1742
707.905735 90.197 -157.7942
713.035511 90.199 -157.4079
718.202461 90.201 -157.0184
723.406852 90.204 -156.6262
728.648956 90.207 -156.2300
733.929047 90.211 -155.8288
739.247399 90.215 -155.4222
744.604290 90.220 -155.0103
750.000000 90.225 -154.5928
755.434809 90.232 -154.1697
760.909001 90.239 -153.7408
766.422861 90.247 -153.3066
771.976677 90.256 -152.8677
777.570739 90.266 -152.4249
783.205337 90.277 -151.9786
788.880766 90.288 -151.5273
794.597321 90.301 -151.0679
800.355301 90.316 -150.5983
806.155005 90.334 -150.1199
811.996736 90.354 -149.6392
817.880799 90.379 -149.1652
823.807501 90.407 -148.7075
829.777150 90.436 -148.2739
835.790057 90.466 -147.8663
841.846536 90.495 -147.4778
847.946903 90.521 -147.0980
854.091476 90.546 -146.7191
860.280575 90.570 -146.3370
866.514523 90.592 -145.9487
872.793644 90.614 -145.5509
879.118267 90.637 -145.1434
885.488720 90.661 -144.7301
891.905336 90.686 -144.3149
898.368450 90.712 -143.8983
904.878398 90.739 -143.4786
911.435520 90.767 -143.0548
918.040157 90.797 -142.6287
924.692655 90.829 -142.2034
931.393359 90.864 -141.7824
938.142619 90.900 -141.3692
944.940787 90.937 -140.9655
951.788218 90.975 -140.5699
958.685268 91.013 -140.1802
965.632296 91.052 -139.7940
972.629666 91.092 -139.4094
979.677741 91.133 -139.0258
986.776890 91.174 -138.6441
993.927482 91.216 -138.2632
1001.129891 91.259 -137.8791
1008.384491 91.303 -137.4879
1015.691660 91.349 -137.0907
1023.051781 91.399 -136.6926
1030.465236 91.452 -136.3016
1037.932411 91.509 -135.9295
1045.453698 91.569 -135.5881
1053.029486 91.630 -135.2826
1060.660172 91.689 -135.0091
1068.346153 91.747 -134.7586
1076.087829 91.802 -134.5214
1083.885605 91.855 -134.2908
1091.739887 91.907 -134.0643
1099.651084 91.958 -133.8414
1107.619609 92.008 -133.6214
1115.645878 92.057 -133.4031
1123.730308 92.105 -133.1850
1131.873321 92.152 -132.9659
1140.075341 92.198 -132.7445
1148.336797 92.244 -132.5202
1156.658119 92.291 -132.2922
1165.039741 92.337 -132.0598
1173.482099 92.385 -131.8217
1181.985634 92.434 -131.5788
1190.550789 92.487 -131.3372
1199.178011 92.542 -131.1076
1207.867749 92.600 -130.9020
1216.620457 92.658 -130.7263
1225.436590 92.714 -130.5777
1234.316609 92.768 -130.4477
1243.260976 92.819 -130.3273
1252.270157 92.867 -130.2084
1261.344623 92.912 -130.0863
1270.484846 92.956 -129.9593
1279.691303 92.998 -129.8258
1288.964474 93.039 -129.6845
1298.304842 93.080 -129.5354
1307.712894 93.121 -129.3810
1317.189120 93.162 -129.2248
1326.734016 93.203 -129.0689
1336.348077 93.244 -128.9127
1346.031806 93.285 -128.7534
1355.785708 93.326 -128.5873
1365.610290 93.368 -128.4105
1375.506065 93.411 -128.2186
1385.473549 93.456 -128.0062
1395.513261 93.504 -127.7721
1405.625726 93.556 -127.5214
1415.811469 93.612 -127.2659
1426.071023 93.672 -127.0202
1436.404921 93.733 -126.7934
1446.813703 93.795 -126.5863
1457.297912 93.856 -126.3933
1467.858093 93.915 -126.2082
1478.494798 93.972 -126.0266
1489.208581 94.027 -125.8448
1500.000000 94.078 -125.6594
1510.869618 94.126 -125.4670
1521.818002 94.169 -125.2647
1532.845723 94.209 -125.0502
1543.953355 94.246 -124.8215
1555.141477 94.282 -124.5780
1566.410674 94.318 -124.3237
1577.761531 94.356 -124.0690
1589.194642 94.396 -123.8278
1600.710601 94.438 -123.6097
1612.310010 94.480 -123.4157
1623.993473 94.520 -123.2407
1635.761599 94.559 -123.0774
1647.615002 94.596 -122.9195
1659.554299 94.632 -122.7619
1671.580114 94.667 -122.6012
1683.693072 94.702 -122.4364
1695.893807 94.737 -122.2695
1708.182952 94.772 -122.1022
1720.561150 94.806 -121.9344
1733.029045 94.838 -121.7629
1745.587288 94.868 -121.5824
1758.236533 94.896 -121.3861
1770.977440 94.925 -121.1686
1783.810673 94.956 -120.9304
1796.736900 94.990 -120.6806
1809.756796 95.029 -120.4334
1822.871040 95.071 -120.1999
1836.080315 95.114 -119.9843
1849.385310 95.159 -119.7858
1862.786718 95.205 -119.6011
1876.285239 95.251 -119.4256
1889.881575 95.298 -119.2537
1903.576436 95.348 -119.0793
1917.370535 95.401 -118.8969
1931.264593 95.459 -118.7032
1945.259332 95.524 -118.4996
1959.355483 95.596 -118.2950
1973.553781 95.675 -118.1030
1987.854965 95.757 -117.9345
2002.259781 95.842 -117.7933
2016.768981 95.927 -117.6774
2031.383320 96.012 -117.5822
2046.103561 96.096 -117.5022
2060.930471 96.179 -117.4329
2075.864823 96.261 -117.3727
2090.907395 96.342 -117.3209
2106.058972 96.421 -117.2758
2121.320344 96.499 -117.2326
2136.692305 96.575 -117.1840
2152.175658 96.651 -117.1227
2167.771210 96.727 -117.0479
2183.479774 96.805 -116.9679
2199.302169 96.887 -116.8962
2215.239219 96.970 -116.8445
2231.291755 97.055 -116.8187
2247.460615 97.140 -116.8200
2263.746641 97.224 -116.8450
2280.150683 97.306 -116.8872
2296.673595 97.388 -116.9381
2313.316238 97.469 -116.9906
2330.079481 97.550 -117.0429
2346.964198 97.635 -117.1017
2363.971268 97.721 -117.1790
2381.101578 97.809 -117.2848
2398.356022 97.898 -117.4239
2415.735498 97.985 -117.5963
2433.240913 98.071 -117.7993
2450.873180 98.155 -118.0299
2468.633217 98.236 -118.2860
2486.521951 98.314 -118.5647
2504.540314 98.388 -118.8603
2522.689246 98.459 -119.1635
2540.969692 98.528 -119.4654
2559.382606 98.595 -119.7634
2577.928947 98.663 -120.0632
2596.609683 98.730 -120.3736
2615.425787 98.798 -120.7017
2634.378241 98.864 -121.0507
2653.468031 98.928 -121.4191
2672.696154 98.990 -121.8008
2692.063613 99.049 -122.1879
2711.571415 99.106 -122.5753
2731.220579 99.164 -122.9653
2751.012130 99.223 -123.3669
2770.947098 99.282 -123.7895
2791.026522 99.340 -124.2400
2811.251451 99.397 -124.7210
2831.622938 99.451 -125.2324
2852.142045 99.501 -125.7727
2872.809842 99.547 -126.3386
2893.627406 99.588 -126.9230
2914.595823 99.623 -127.5148
2935.716186 99.653 -128.1040
2956.989596 99.681 -128.6869
2978.417161 99.706 -129.2661
3000.000000 99.729 -129.8464
3021.739237 99.750 -130.4309
3043.636005 99.767 -131.0183
3065.691446 99.780 -131.6023
3087.906710 99.791 -132.1743
3110.282955 99.799 -132.7297
3132.821347 99.807 -133.2709
3155.523062 99.815 -133.8053
3178.389283 99.823 -134.3406
3201.421202 99.830 -134.8830
3224.620020 99.836 -135.4363
3247.986946 99.839 -136.0023
3271.523198 99.839 -136.5787
3295.230004 99.835 -137.1571
3319.108599 99.826 -137.7266
3343.160228 99.814 -138.2800
3367.386145 99.801 -138.8161
3391.787613 99.786 -139.3374
3416.365904 99.770 -139.8463
3441.122300 99.752 -140.3403
3466.058091 99.732 -140.8121
3491.174576 99.711 -141.2537
3516.473066 99.691 -141.6631
3541.954880 99.673 -142.0453
3567.621345 99.657 -142.4091
3593.473800 99.643 -142.7643
3619.513592 99.631 -143.1198
3645.742080 99.620 -143.4821
3672.160630 99.607 -143.8512
3698.770620 99.593 -144.2204
3725.573436 99.576 -144.5822
3752.570477 99.558 -144.9329
3779.763150 99.539 -145.2731
3807.152872 99.518 -145.6034
3834.741071 99.494 -145.9201
3862.529185 99.467 -146.2144
3890.518664 99.439 -146.4779
3918.710966 99.410 -146.7084
3947.107561 99.384 -146.9106
3975.709929 99.361 -147.0938
4004.519563 99.342 -147.2697
4033.537962 99.325 -147.4489
4062.766641 99.311 -147.6362
4092.207123 99.298 -147.8294
4121.860942 99.286 -148.0246
4151.729646 99.276 -148.2211
4181.814790 99.267 -148.4217
4212.117944 99.259 -148.6280
4242.640687 99.251 -148.8362
4273.384610 99.243 -149.0396
4304.351317 99.237 -149.2346
4335.542421 99.233 -149.4242
4366.959549 99.232 -149.6171
4398.604338 99.235 -149.8256
4430.478438 99.241 -150.0619
4462.583511 99.248 -150.3315
4494.921231 99.256 -150.6335
4527.493283 99.264 -150.9658
4560.301365 99.271 -151.3286
4593.347189 99.278 -151.7224
4626.632476 99.284 -152.1437
4660.158962 99.287 -152.5844
4693.928395 99.289 -153.0375
4727.942535 99.290 -153.5010
4762.203156 99.293 -153.9795
4796.712043 99.296 -154.4834
4831.470996 99.301 -155.0236
4866.481826 99.305 -155.6058
4901.746360 99.307 -156.2312
4937.266434 99.306 -156.9002
4973.043902 99.301 -157.6129
5009.080628 99.289 -158.3649
5045.378492 99.269 -159.1446
5081.939384 99.242 -159.9372
5118.765212 99.206 -160.7300
5155.857894 99.164 -161.5159
5193.219366 99.117 -162.2947
5230.851574 99.064 -163.0689
5268.756481 99.005 -163.8390
5306.936062 98.940 -164.6037
5345.392309 98.869 -165.3627
5384.127225 98.791 -166.1149
5423.142830 98.703 -166.8541
5462.441159 98.607 -167.5686
5502.024259 98.501 -168.2449
5541.894195 98.388 -168.8730
5582.053045 98.270 -169.4499
5622.502902 98.147 -169.9778
5663.245876 98.021 -170.4595
5704.284090 97.893 -170.8975
5745.619684 97.762 -171.2954
5787.254813 97.628 -171.6551
5829.191647 97.491 -171.9728
5871.432373 97.350 -172.2383
5913.979192 97.207 -172.4391
5956.834323 97.062 -172.5660
6000.000000 96.918 -172.6168
6043.478473 96.777 -172.5944
6087.272010 96.641 -172.5049
6131.382892 96.511 -172.3584
6175.813420 96.388 -172.1667
6220.565910 96.271 -171.9386
6265.642695 96.160 -171.6762
6311.046124 96.055 -171.3772
6356.778566 95.957 -171.0389
6402.842404 95.867 -170.6622
6449.240040 95.786 -170.2508
6495.973891 95.716 -169.8121
6543.046396 95.657 -169.3576
6590.460007 95.609 -168.8996
6638.217197 95.573 -168.4469
6686.320456 95.549 -168.0033
6734.772290 95.535 -167.5706
6783.575226 95.533 -167.1528
6832.731809 95.543 -166.7565
6882.244600 95.565 -166.3920
6932.116181 95.599 -166.0741
6982.349153 95.645 -165.8188
7032.946133 95.701 -165.6398
7083.909760 95.769 -165.5464
7135.242690 95.847 -165.5466
7186.947600 95.935 -165.6507
7239.027185 96.035 -165.8721
7291.484160 96.146 -166.2290
7344.321260 96.267 -166.7444
7397.541239 96.395 -167.4414
7451.146872 96.528 -168.3383
7505.140954 96.661 -169.4474
7559.526299 96.793 -170.7781
7614.305743 96.919 -172.3382
7669.482141 97.036 -174.1360
7725.058371 97.139 -176.1810
7781.037328 97.222 -178.4797
7837.421932 97.279 178.9720
7894.215122 97.301 176.1938
7951.419859 97.280 173.2210
8009.039125 97.212 170.1015
8067.075924 97.092 166.8914
8125.533282 96.919 163.6486
8184.414245 96.690 160.4294
8243.721885 96.406 157.2910
8303.459292 96.068 154.2915
8363.629581 95.678 151.4879
8424.235888 95.241 148.9330
8485.281374 94.763 146.6691
8546.769221 94.251 144.7221
8608.702634 93.715 143.1019
8671.084842 93.160 141.8071
8733.919097 92.595 140.8308
8797.208675 92.024 140.1636
8860.956876 91.453 139.7940
8925.167022 90.887 139.7045
8989.842461 90.332 139.8685
9054.986566 89.791 140.2548
9120.602731 89.266 140.8331
9186.694378 88.757 141.5796
9253.264952 88.266 142.4794
9320.317925 87.792 143.5211
9387.856790 87.336 144.6911
9455.885071 86.898 145.9723
9524.406312 86.480 147.3484
9593.424086 86.080 148.8094
9662.941992 85.698 150.3538
9732.963653 85.333 151.9827
9803.492719 84.988 153.6932
9874.532869 84.661 155.4754
9946.087805 84.354 157.3173
10018.161257 84.065 159.2115
10090.756983 83.792 161.1594
10163.878768 83.537 163.1638
10237.530423 83.299 165.2222
10311.715789 83.080 167.3254
10386.438732 82.879 169.4619
10461.703149 82.695 171.6256
10537.512962 82.530 173.8145
10613.872125 82.382 176.0245
10690.784618 82.251 178.2473
10768.254450 82.137 -179.5247
10846.285661 82.038 -177.2899
10924.882318 81.953 -175.0371
11004.048518 81.883 -172.7552
11083.788390 81.830 -170.4427
11164.106090 81.795 -168.1078
11245.005805 81.780 -165.7591
11326.491752 81.783 -163.3994
11408.568180 81.807 -161.0289
11491.239368 81.853 -158.6516
11574.509626 81.921 -156.2762
11658.383294 82.013 -153.9101
11742.864745 82.127 -151.5551
11827.958384 82.267 -149.2108
11913.668646 82.433 -146.8814
12000.000000 82.629 -144.5756
12086.956947 82.856 -142.3019
12174.544019 83.116 -140.0665
12262.765784 83.414 -137.8790
12351.626840 83.753 -135.7592
12441.131819 84.139 -133.7356
12531.285389 84.575 -131.8410
12622.092249 85.066 -130.1139
12713.557132 85.617 -128.6068
12805.684808 86.233 -127.3908
12898.480079 86.913 -126.5531
12991.947783 87.655 -126.1925
13086.092792 88.451 -126.4180
13180.920015 89.289 -127.3472
13276.434395 90.148 -129.0946
13372.640911 91.002 -131.7548
13469.544580 91.818 -135.3874
13567.150452 92.563 -140.0063
13665.463617 93.199 -145.5661
13764.489200 93.691 -151.9460
13864.232362 94.011 -158.9421
13964.698305 94.139 -166.2768
14065.892266 94.071 -173.6282
14167.819519 93.816 179.3267
14270.485380 93.396 172.8687
14373.895200 92.844 167.2037
14478.054370 92.201 162.4495
14582.968320 91.508 158.6399
14688.642520 90.808 155.7394
14795.082478 90.140 153.6548
14902.293745 89.541 152.2446
15010.281908 89.041 151.3307
15119.052599 88.667 150.7101
15228.611486 88.436 150.1597
15338.964283 88.355 149.4413
15450.116741 88.422 148.3125
15562.074656 88.618 146.5404
15674.843864 88.910 143.9193
15788.430244 89.251 140.2904
15902.839718 89.587 135.5667
16018.078250 89.856 129.7539
16134.151848 90.002 122.9667
16251.066563 89.973 115.4341
16368.828491 89.733 107.4878
16487.443769 89.263 99.5202
16606.918584 88.567 91.9177
16727.259161 87.664 85.0046
16848.471777 86.585 79.0157
16970.562748 85.365 74.0923
17093.538442 84.043 70.2935
17217.405268 82.658 67.6135
17342.169684 81.244 65.9952
17467.838194 79.836 65.3420
17594.417350 78.461 65.5316
17721.913751 77.142 66.4303
17850.334044 75.895 67.9035
17979.684923 74.726 69.8260
18109.973131 73.639 72.0910
18241.205462 72.630 74.6121
18373.388756 71.694 77.3234
18506.529905 70.821 80.1840
18640.635849 70.004 83.1739
18775.713581 69.236 86.2838
18911.770141 68.512 89.5076
19048.812624 67.829 92.8324
19186.848172 67.187 96.2309
19325.883983 66.593 99.6560
19465.927305 66.059 103.0280
19606.985439 65.604 106.2171
19749.065738 65.251 109.0240
19892.175609 65.016 111.1747
20036.322514 64.900 112.3618
