* Measurement data measured by REW V5.31
* Source: EXCL: Microphone (USB Sound Device        ), MICROPHONE (Master Volume), L, volume: 0.390
* Format: 256k Log Swept Sine, 1 sweep at -4.0 dBFS with no timing reference
* Dated: Aug 10, 2024 7:27:36 PM
* REW Settings:
*  C-weighting compensation: Off
*  Target level: 75.0 dB
* Note: DaVinci 18ohm
* Measurement: L DaVinci 18ohm
* Smoothing: 1/12 octave
* Frequency Step: 96 ppo
* Start Frequency: 0.36621094 Hz
*
* Freq(Hz) SPL(dB) Phase(degrees)
0.366211 80.728 167.1976
0.368865 80.721 167.1843
0.371538 80.710 167.1643
0.374230 80.698 167.1392
0.376942 80.683 167.1102
0.379673 80.668 167.0783
0.382424 80.652 167.0441
0.385196 80.635 167.0079
0.387987 80.618 166.9701
0.390798 80.601 166.9306
0.393630 80.584 166.8896
0.396483 80.566 166.8472
0.399356 80.549 166.8032
0.402250 80.531 166.7576
0.405165 80.513 166.7106
0.408101 80.495 166.6620
0.411058 80.477 166.6119
0.414037 80.459 166.5602
0.417037 80.440 166.5070
0.420059 80.422 166.4521
0.423103 80.403 166.3957
0.426169 80.384 166.3376
0.429257 80.365 166.2779
0.432368 80.346 166.2166
0.435501 80.327 166.1536
0.438656 80.308 166.0889
0.441835 80.288 166.0226
0.445037 80.269 165.9546
0.448262 80.249 165.8848
0.451510 80.229 165.8134
0.454782 80.209 165.7402
0.458077 80.189 165.6653
0.461397 80.169 165.5886
0.464740 80.148 165.5102
0.468108 80.128 165.4300
0.471500 80.107 165.3481
0.474917 80.086 165.2644
0.478358 80.065 165.1788
0.481825 80.044 165.0915
0.485316 80.022 165.0024
0.488833 80.001 164.9115
0.492375 79.979 164.8187
0.495943 79.957 164.7242
0.499537 79.935 164.6278
0.503157 79.913 164.5296
0.506803 79.891 164.4296
0.510475 79.868 164.3278
0.514175 79.845 164.2241
0.517900 79.823 164.1186
0.521653 79.800 164.0113
0.525434 79.777 163.9022
0.529241 79.753 163.7913
0.533076 79.730 163.6786
0.536939 79.706 163.5641
0.540830 79.682 163.4478
0.544749 79.658 163.3297
0.548696 79.634 163.2099
0.552673 79.610 163.0883
0.556677 79.585 162.9650
0.560711 79.561 162.8400
0.564774 79.536 162.7133
0.568867 79.511 162.5849
0.572989 79.485 162.4549
0.577141 79.460 162.3232
0.581324 79.434 162.1900
0.585536 79.408 162.0552
0.589779 79.383 161.9189
0.594053 79.356 161.7811
0.598358 79.330 161.6419
0.602694 79.303 161.5013
0.607061 79.277 161.3593
0.611460 79.250 161.2160
0.615891 79.223 161.0715
0.620354 79.195 160.9257
0.624849 79.168 160.7789
0.629377 79.140 160.6310
0.633938 79.112 160.4820
0.638532 79.084 160.3322
0.643159 79.056 160.1815
0.647819 79.027 160.0301
0.652514 78.998 159.8780
0.657242 78.969 159.7253
0.662005 78.940 159.5722
0.666802 78.911 159.4187
0.671634 78.881 159.2650
0.676501 78.851 159.1111
0.681403 78.821 158.9572
0.686341 78.791 158.8035
0.691314 78.761 158.6500
0.696324 78.730 158.4969
0.701370 78.699 158.3444
0.706452 78.667 158.1924
0.711571 78.634 158.0412
0.716728 78.601 157.8905
0.721921 78.566 157.7403
0.727153 78.529 157.5903
0.732422 78.489 157.4398
0.737729 78.446 157.2882
0.743075 78.402 157.1348
0.748460 78.356 156.9789
0.753883 78.309 156.8199
0.759346 78.263 156.6576
0.764849 78.217 156.4916
0.770391 78.171 156.3219
0.775974 78.127 156.1483
0.781597 78.083 155.9707
0.787261 78.040 155.7890
0.792966 77.997 155.6033
0.798712 77.955 155.4134
0.804500 77.914 155.2193
0.810329 77.872 155.0209
0.816201 77.831 154.8183
0.822116 77.790 154.6114
0.828073 77.748 154.4001
0.834074 77.706 154.1844
0.840118 77.664 153.9644
0.846206 77.621 153.7398
0.852338 77.576 153.5108
0.858514 77.531 153.2774
0.864735 77.485 153.0394
0.871001 77.437 152.7968
0.877313 77.387 152.5498
0.883670 77.335 152.2982
0.890074 77.281 152.0421
0.896524 77.224 151.7815
0.903020 77.165 151.5164
0.909564 77.102 151.2468
0.916155 77.037 150.9727
0.922794 76.968 150.6943
0.929481 76.895 150.4116
0.936216 76.817 150.1246
0.943000 76.736 149.8335
0.949834 76.649 149.5383
0.956717 76.558 149.2392
0.963649 76.460 148.9362
0.970632 76.357 148.6296
0.977666 76.248 148.3195
0.984750 76.132 148.0062
0.991886 76.009 147.6899
0.999074 75.879 147.3708
1.006314 75.741 147.0493
1.013606 75.594 146.7256
1.020951 75.439 146.4002
1.028349 75.275 146.0735
1.035801 75.100 145.7459
1.043307 74.916 145.4180
1.050867 74.720 145.0903
1.058482 74.514 144.7633
1.066152 74.295 144.4376
1.073878 74.062 144.1136
1.081660 73.815 143.7917
1.089498 73.552 143.4718
1.097393 73.270 143.1537
1.105345 72.967 142.8366
1.113355 72.640 142.5196
1.121423 72.286 142.2015
1.129549 71.905 141.8816
1.137734 71.495 141.5589
1.145979 71.056 141.2327
1.154283 70.590 140.9024
1.162647 70.096 140.5672
1.171072 69.576 140.2265
1.179558 69.031 139.8795
1.188106 68.461 139.5255
1.196715 67.870 139.1633
1.205387 67.258 138.7921
1.214122 66.626 138.4105
1.222920 65.978 138.0171
1.231782 65.313 137.6102
1.240708 64.636 137.1879
1.249699 63.947 136.7478
1.258754 63.249 136.2871
1.267876 62.544 135.8024
1.277063 61.835 135.2894
1.286318 61.125 134.7429
1.295639 60.416 134.1565
1.305027 59.711 133.5218
1.314484 59.014 132.8282
1.324009 58.328 132.0614
1.333604 57.657 131.2025
1.343268 57.005 130.2253
1.353002 56.375 129.0929
1.362806 55.773 127.7512
1.372681 55.203 126.1179
1.382628 54.671 124.0622
1.392647 54.181 121.3631
1.402739 53.741 117.6199
1.412904 53.356 112.0392
1.423142 53.033 102.8842
1.433455 52.779 86.1390
1.443843 52.601 55.4816
1.454305 52.504 19.0291
1.464844 52.494 -4.1525
1.475459 52.574 -16.4405
1.486150 52.746 -23.5385
1.496920 53.007 -28.1037
1.507767 53.356 -31.2988
1.518693 53.789 -33.6820
1.529698 54.301 -35.5484
1.540783 54.886 -37.0668
1.551948 55.539 -38.3407
1.563194 56.253 -39.4365
1.574521 57.022 -40.3989
1.585931 57.839 -41.2592
1.597423 58.699 -42.0396
1.608999 59.595 -42.7567
1.620658 60.520 -43.4229
1.632402 61.467 -44.0477
1.644232 62.430 -44.6386
1.656146 63.403 -45.2016
1.668147 64.379 -45.7415
1.680235 65.351 -46.2620
1.692411 66.313 -46.7666
1.704675 67.259 -47.2578
1.717028 68.183 -47.7381
1.729470 69.079 -48.2093
1.742003 69.940 -48.6733
1.754626 70.762 -49.1315
1.767341 71.540 -49.5852
1.780147 72.269 -50.0359
1.793047 72.946 -50.4847
1.806040 73.571 -50.9327
1.819128 74.145 -51.3812
1.832310 74.669 -51.8312
1.845587 75.148 -52.2835
1.858961 75.587 -52.7387
1.872432 75.991 -53.1968
1.886001 76.363 -53.6577
1.899667 76.705 -54.1207
1.913433 77.019 -54.5854
1.927299 77.307 -55.0511
1.941265 77.571 -55.5172
1.955332 77.813 -55.9830
1.969501 78.034 -56.4480
1.983773 78.237 -56.9118
1.998148 78.422 -57.3739
2.012627 78.593 -57.8340
2.027212 78.750 -58.2916
2.041902 78.898 -58.7467
2.056698 79.037 -59.1988
2.071602 79.170 -59.6479
2.086614 79.300 -60.0937
2.101734 79.430 -60.5364
2.116964 79.562 -60.9758
2.132304 79.698 -61.4123
2.147756 79.840 -61.8460
2.163320 79.989 -62.2778
2.178996 80.145 -62.7084
2.194786 80.308 -63.1391
2.210690 80.475 -63.5712
2.226710 80.644 -64.0061
2.242845 80.811 -64.4446
2.259098 80.976 -64.8869
2.275468 81.138 -65.3329
2.291957 81.295 -65.7823
2.308566 81.449 -66.2345
2.325295 81.598 -66.6887
2.342145 81.743 -67.1443
2.359117 81.884 -67.6004
2.376212 82.022 -68.0565
2.393431 82.157 -68.5117
2.410775 82.288 -68.9655
2.428244 82.418 -69.4171
2.445840 82.545 -69.8661
2.463564 82.671 -70.3119
2.481416 82.795 -70.7543
2.499397 82.918 -71.1930
2.517509 83.040 -71.6281
2.535752 83.161 -72.0602
2.554127 83.281 -72.4901
2.572635 83.400 -72.9190
2.591277 83.517 -73.3482
2.610055 83.632 -73.7789
2.628968 83.744 -74.2116
2.648019 83.854 -74.6466
2.667208 83.961 -75.0837
2.686535 84.065 -75.5224
2.706003 84.167 -75.9621
2.725612 84.267 -76.4020
2.745363 84.364 -76.8416
2.765257 84.460 -77.2799
2.785295 84.553 -77.7161
2.805478 84.645 -78.1496
2.825808 84.736 -78.5797
2.846285 84.825 -79.0057
2.866910 84.913 -79.4274
2.887685 85.000 -79.8446
2.908611 85.086 -80.2577
2.929688 85.170 -80.6673
2.950917 85.253 -81.0744
2.972301 85.334 -81.4802
2.993839 85.414 -81.8853
3.015534 85.491 -82.2901
3.037386 85.567 -82.6946
3.059396 85.640 -83.0986
3.081565 85.712 -83.5015
3.103896 85.782 -83.9028
3.126388 85.851 -84.3017
3.149043 85.919 -84.6976
3.171862 85.985 -85.0897
3.194847 86.050 -85.4772
3.217998 86.114 -85.8597
3.241317 86.178 -86.2366
3.264805 86.240 -86.6078
3.288463 86.302 -86.9732
3.312293 86.362 -87.3335
3.336295 86.422 -87.6890
3.360471 86.480 -88.0404
3.384822 86.537 -88.3882
3.409350 86.593 -88.7327
3.434056 86.647 -89.0740
3.458940 86.700 -89.4122
3.484005 86.753 -89.7472
3.509252 86.804 -90.0788
3.534681 86.855 -90.4069
3.560295 86.905 -90.7314
3.586094 86.955 -91.0519
3.612081 87.004 -91.3684
3.638255 87.053 -91.6807
3.664620 87.102 -91.9886
3.691175 87.150 -92.2922
3.717923 87.198 -92.5917
3.744864 87.245 -92.8873
3.772001 87.292 -93.1793
3.799335 87.338 -93.4680
3.826866 87.384 -93.7539
3.854597 87.429 -94.0374
3.882529 87.474 -94.3187
3.910664 87.518 -94.5982
3.939002 87.563 -94.8762
3.967546 87.607 -95.1528
3.996296 87.652 -95.4280
4.025255 87.697 -95.7019
4.054423 87.741 -95.9742
4.083804 87.786 -96.2449
4.113396 87.831 -96.5141
4.143204 87.875 -96.7820
4.173227 87.920 -97.0492
4.203468 87.964 -97.3160
4.233928 88.008 -97.5833
4.264609 88.053 -97.8517
4.295512 88.097 -98.1217
4.326639 88.141 -98.3940
4.357992 88.185 -98.6688
4.389572 88.230 -98.9464
4.421380 88.274 -99.2268
4.453419 88.318 -99.5100
4.485691 88.362 -99.7958
4.518196 88.406 -100.0843
4.550936 88.451 -100.3756
4.583914 88.494 -100.6700
4.617131 88.538 -100.9677
4.650589 88.581 -101.2690
4.684289 88.624 -101.5743
4.718233 88.667 -101.8839
4.752424 88.709 -102.1980
4.786862 88.751 -102.5168
4.821549 88.793 -102.8405
4.856488 88.834 -103.1688
4.891680 88.874 -103.5016
4.927127 88.914 -103.8386
4.962831 88.954 -104.1795
4.998794 88.993 -104.5240
5.035017 89.031 -104.8719
5.071503 89.068 -105.2232
5.108253 89.105 -105.5778
5.145270 89.141 -105.9359
5.182555 89.176 -106.2976
5.220110 89.210 -106.6629
5.257937 89.244 -107.0316
5.296038 89.277 -107.4031
5.334415 89.309 -107.7768
5.373071 89.340 -108.1522
5.412006 89.370 -108.5285
5.451224 89.400 -108.9054
5.490725 89.429 -109.2828
5.530514 89.457 -109.6605
5.570590 89.484 -110.0387
5.610957 89.510 -110.4173
5.651616 89.536 -110.7961
5.692570 89.561 -111.1746
5.733821 89.585 -111.5523
5.775370 89.609 -111.9287
5.817221 89.633 -112.3033
5.859375 89.656 -112.6759
5.901834 89.679 -113.0464
5.944602 89.701 -113.4147
5.987679 89.723 -113.7812
6.031068 89.745 -114.1457
6.074771 89.767 -114.5084
6.118792 89.789 -114.8693
6.163131 89.811 -115.2284
6.207792 89.833 -115.5855
6.252776 89.855 -115.9407
6.298086 89.878 -116.2940
6.343725 89.900 -116.6455
6.389694 89.924 -116.9958
6.435996 89.947 -117.3452
6.482634 89.971 -117.6942
6.529610 89.995 -118.0433
6.576926 90.020 -118.3926
6.624585 90.046 -118.7425
6.672590 90.072 -119.0930
6.720942 90.098 -119.4444
6.769645 90.125 -119.7971
6.818700 90.153 -120.1514
6.868111 90.181 -120.5078
6.917881 90.209 -120.8669
6.968010 90.238 -121.2287
7.018504 90.267 -121.5936
7.069362 90.297 -121.9615
7.120590 90.327 -122.3324
7.172189 90.357 -122.7062
7.224161 90.387 -123.0830
7.276511 90.417 -123.4627
7.329239 90.447 -123.8454
7.382350 90.478 -124.2310
7.435845 90.508 -124.6192
7.489729 90.538 -125.0098
7.544002 90.568 -125.4021
7.598669 90.597 -125.7958
7.653732 90.627 -126.1903
7.709194 90.656 -126.5853
7.765058 90.684 -126.9804
7.821327 90.713 -127.3754
7.878004 90.741 -127.7697
7.935091 90.769 -128.1626
7.992592 90.796 -128.5536
8.050510 90.823 -128.9421
8.108847 90.850 -129.3278
8.167607 90.877 -129.7104
8.226793 90.903 -130.0896
8.286408 90.930 -130.4652
8.346454 90.956 -130.8369
8.406936 90.983 -131.2045
8.467856 91.009 -131.5677
8.529218 91.036 -131.9266
8.591024 91.063 -132.2812
8.653278 91.090 -132.6317
8.715983 91.117 -132.9783
8.779143 91.144 -133.3211
8.842760 91.172 -133.6603
8.906839 91.200 -133.9962
8.971381 91.228 -134.3289
9.036392 91.257 -134.6588
9.101873 91.286 -134.9863
9.167829 91.315 -135.3117
9.234263 91.344 -135.6352
9.301178 91.374 -135.9569
9.368578 91.403 -136.2770
9.436467 91.433 -136.5956
9.504847 91.462 -136.9129
9.573723 91.491 -137.2289
9.643099 91.519 -137.5435
9.712976 91.546 -137.8566
9.783361 91.572 -138.1681
9.854255 91.595 -138.4777
9.925663 91.616 -138.7853
9.997588 91.634 -139.0906
10.070035 91.649 -139.3935
10.143007 91.662 -139.6936
10.216507 91.673 -139.9907
10.290540 91.682 -140.2845
10.365109 91.689 -140.5750
10.440219 91.695 -140.8620
10.515873 91.700 -141.1455
10.592076 91.704 -141.4255
10.668830 91.708 -141.7020
10.746141 91.711 -141.9751
10.824012 91.714 -142.2450
10.902447 91.717 -142.5120
10.981451 91.719 -142.7765
11.061027 91.721 -143.0386
11.141180 91.723 -143.2987
11.221913 91.724 -143.5571
11.303232 91.726 -143.8143
11.385140 91.726 -144.0705
11.467641 91.727 -144.3259
11.550741 91.727 -144.5808
11.634442 91.727 -144.8353
11.718750 91.726 -145.0896
11.803669 91.726 -145.3436
11.889203 91.725 -145.5975
11.975357 91.724 -145.8510
12.062136 91.723 -146.1042
12.149543 91.721 -146.3569
12.237583 91.719 -146.6089
12.326262 91.717 -146.8602
12.415583 91.715 -147.1107
12.505552 91.711 -147.3604
12.596172 91.708 -147.6091
12.687449 91.704 -147.8570
12.779387 91.699 -148.1043
12.871992 91.694 -148.3511
12.965268 91.689 -148.5977
13.059220 91.684 -148.8443
13.153852 91.679 -149.0915
13.249170 91.674 -149.3395
13.345179 91.670 -149.5888
13.441884 91.665 -149.8396
13.539289 91.661 -150.0924
13.637401 91.657 -150.3474
13.736223 91.653 -150.6049
13.835761 91.649 -150.8649
13.936021 91.645 -151.1276
14.037007 91.641 -151.3929
14.138725 91.636 -151.6607
14.241180 91.632 -151.9309
14.344377 91.627 -152.2033
14.448323 91.622 -152.4776
14.553021 91.617 -152.7536
14.658478 91.611 -153.0311
14.764700 91.606 -153.3099
14.871691 91.601 -153.5898
14.979457 91.596 -153.8706
15.088005 91.591 -154.1522
15.197339 91.587 -154.4346
15.307465 91.583 -154.7177
15.418389 91.579 -155.0015
15.530117 91.576 -155.2858
15.642655 91.573 -155.5708
15.756008 91.570 -155.8562
15.870182 91.567 -156.1419
15.985184 91.565 -156.4278
16.101019 91.563 -156.7138
16.217694 91.561 -156.9995
16.335214 91.560 -157.2849
16.453586 91.559 -157.5696
16.572815 91.558 -157.8534
16.692909 91.558 -158.1363
16.813872 91.559 -158.4179
16.935713 91.560 -158.6983
17.058436 91.562 -158.9773
17.182048 91.564 -159.2549
17.306556 91.567 -159.5311
17.431967 91.570 -159.8057
17.558286 91.573 -160.0786
17.685521 91.576 -160.3498
17.813677 91.580 -160.6190
17.942762 91.583 -160.8859
18.072783 91.586 -161.1502
18.203746 91.588 -161.4116
18.335658 91.591 -161.6697
18.468526 91.593 -161.9240
18.602356 91.595 -162.1745
18.737156 91.598 -162.4207
18.872934 91.600 -162.6626
19.009695 91.602 -162.9002
19.147447 91.604 -163.1337
19.286197 91.606 -163.3634
19.425953 91.608 -163.5897
19.566721 91.610 -163.8129
19.708510 91.612 -164.0337
19.851326 91.614 -164.2525
19.995177 91.615 -164.4697
20.140070 91.616 -164.6858
20.286013 91.616 -164.9009
20.433014 91.616 -165.1154
20.581080 91.616 -165.3294
20.730219 91.615 -165.5430
20.880439 91.613 -165.7562
21.031747 91.611 -165.9693
21.184152 91.609 -166.1823
21.337661 91.607 -166.3955
21.492282 91.605 -166.6092
21.648024 91.602 -166.8237
21.804895 91.600 -167.0394
21.962902 91.597 -167.2567
22.122054 91.594 -167.4759
22.282360 91.591 -167.6975
22.443827 91.587 -167.9217
22.606464 91.584 -168.1487
22.770280 91.580 -168.3785
22.935283 91.575 -168.6111
23.101481 91.571 -168.8464
23.268884 91.566 -169.0840
23.437500 91.561 -169.3237
23.607338 91.556 -169.5650
23.778406 91.550 -169.8075
23.950714 91.544 -170.0507
24.124271 91.539 -170.2943
24.299086 91.533 -170.5379
24.475167 91.527 -170.7812
24.652524 91.521 -171.0242
24.831166 91.516 -171.2667
25.011103 91.511 -171.5088
25.192344 91.507 -171.7506
25.374898 91.503 -171.9922
25.558775 91.499 -172.2335
25.743984 91.496 -172.4745
25.930536 91.493 -172.7149
26.118439 91.490 -172.9545
26.307704 91.487 -173.1927
26.498341 91.483 -173.4291
26.690359 91.480 -173.6629
26.883768 91.477 -173.8939
27.078579 91.474 -174.1216
27.274801 91.470 -174.3458
27.472446 91.467 -174.5666
27.671522 91.463 -174.7843
27.872042 91.459 -174.9990
28.074014 91.456 -175.2114
28.277450 91.451 -175.4219
28.482360 91.447 -175.6309
28.688755 91.442 -175.8388
28.896645 91.437 -176.0457
29.106042 91.431 -176.2518
29.316957 91.425 -176.4570
29.529400 91.419 -176.6613
29.743382 91.412 -176.8649
29.958915 91.404 -177.0677
30.176009 91.397 -177.2701
30.394677 91.389 -177.4727
30.614929 91.382 -177.6760
30.836778 91.374 -177.8809
31.060234 91.366 -178.0881
31.285309 91.359 -178.2983
31.512015 91.351 -178.5118
31.740364 91.343 -178.7287
31.970368 91.334 -178.9487
32.202039 91.326 -179.1712
32.435388 91.317 -179.3954
32.670428 91.308 -179.6208
32.907171 91.298 -179.8470
33.145630 91.289 179.9263
33.385817 91.280 179.6990
33.627745 91.272 179.4711
33.871425 91.263 179.2424
34.116871 91.254 179.0131
34.364096 91.246 178.7838
34.613113 91.237 178.5551
34.863934 91.228 178.3279
35.116572 91.219 178.1028
35.371041 91.211 177.8800
35.627354 91.202 177.6595
35.885525 91.193 177.4408
36.145566 91.183 177.2234
36.407492 91.174 177.0074
36.671316 91.164 176.7927
36.937051 91.154 176.5804
37.204712 91.143 176.3712
37.474313 91.132 176.1659
37.745867 91.121 175.9648
38.019389 91.109 175.7672
38.294893 91.098 175.5716
38.572394 91.087 175.3762
38.851905 91.077 175.1790
39.133442 91.066 174.9790
39.417019 91.055 174.7755
39.702651 91.044 174.5691
39.990353 91.031 174.3608
40.280140 91.019 174.1517
40.572026 91.006 173.9427
40.866028 90.993 173.7340
41.162160 90.980 173.5255
41.460438 90.966 173.3167
41.760877 90.953 173.1072
42.063494 90.940 172.8970
42.368303 90.926 172.6861
42.675322 90.912 172.4751
42.984565 90.898 172.2644
43.296048 90.884 172.0543
43.609789 90.869 171.8448
43.925804 90.854 171.6360
44.244108 90.839 171.4279
44.564719 90.824 171.2208
44.887654 90.808 171.0150
45.212928 90.792 170.8109
45.540560 90.776 170.6086
45.870565 90.760 170.4075
46.202962 90.744 170.2071
46.537768 90.727 170.0065
46.875000 90.711 169.8052
47.214676 90.694 169.6035
47.556813 90.676 169.4019
47.901429 90.659 169.2017
48.248542 90.641 169.0034
48.598171 90.623 168.8073
48.950334 90.605 168.6126
49.305048 90.587 168.4183
49.662333 90.570 168.2233
50.022206 90.552 168.0270
50.384688 90.535 167.8295
50.749796 90.517 167.6314
51.117550 90.498 167.4333
51.487969 90.480 167.2360
51.861072 90.461 167.0399
52.236879 90.442 166.8458
52.615409 90.423 166.6541
52.996681 90.404 166.4648
53.380717 90.385 166.2780
53.767536 90.366 166.0928
54.157158 90.348 165.9087
54.549603 90.330 165.7250
54.944892 90.313 165.5408
55.343045 90.296 165.3553
55.744084 90.279 165.1674
56.148028 90.262 164.9762
56.554900 90.245 164.7812
56.964720 90.228 164.5830
57.377510 90.210 164.3831
57.793291 90.191 164.1827
58.212085 90.172 163.9824
58.633914 90.152 163.7820
59.058799 90.132 163.5809
59.486764 90.111 163.3789
59.917829 90.089 163.1766
60.352019 90.065 162.9751
60.789354 90.041 162.7756
61.229859 90.016 162.5786
61.673556 89.991 162.3839
62.120468 89.965 162.1906
62.570618 89.938 161.9980
63.024031 89.912 161.8055
63.480729 89.886 161.6129
63.940736 89.859 161.4203
64.404077 89.832 161.2281
64.870776 89.805 161.0366
65.340856 89.778 160.8459
65.814343 89.750 160.6562
66.291261 89.723 160.4681
66.771635 89.695 160.2822
67.255489 89.667 160.0993
67.742850 89.638 159.9196
68.233743 89.610 159.7432
68.728193 89.581 159.5694
69.226226 89.552 159.3977
69.727867 89.523 159.2276
70.233144 89.494 159.0585
70.742083 89.465 158.8894
71.254709 89.435 158.7195
71.771050 89.405 158.5486
72.291132 89.375 158.3766
72.814984 89.344 158.2046
73.342631 89.313 158.0334
73.874102 89.282 157.8638
74.409424 89.250 157.6958
74.948626 89.219 157.5289
75.491734 89.188 157.3624
76.038779 89.158 157.1953
76.589787 89.127 157.0274
77.144788 89.097 156.8588
77.703811 89.066 156.6892
78.266885 89.036 156.5178
78.834039 89.006 156.3433
79.405303 88.975 156.1644
79.980706 88.945 155.9804
80.560280 88.913 155.7909
81.144053 88.881 155.5961
81.732056 88.848 155.3967
82.324320 88.813 155.1938
82.920876 88.776 154.9896
83.521755 88.738 154.7867
84.126988 88.698 154.5884
84.736607 88.656 154.3975
85.350643 88.613 154.2155
85.969129 88.570 154.0427
86.592097 88.526 153.8783
87.219579 88.482 153.7218
87.851608 88.437 153.5730
88.488217 88.392 153.4318
89.129439 88.347 153.2979
89.775308 88.303 153.1700
90.425856 88.259 153.0468
91.081119 88.216 152.9265
91.741131 88.173 152.8078
92.405925 88.130 152.6901
93.075536 88.087 152.5734
93.750000 88.043 152.4583
94.429351 88.000 152.3461
95.113625 87.955 152.2378
95.802858 87.910 152.1339
96.497085 87.865 152.0338
97.196342 87.820 151.9363
97.900667 87.774 151.8405
98.610096 87.728 151.7457
99.324665 87.682 151.6523
100.044413 87.634 151.5617
100.769376 87.587 151.4755
101.499592 87.539 151.3948
102.235100 87.492 151.3196
102.975938 87.445 151.2480
103.722144 87.398 151.1773
104.473757 87.353 151.1054
105.230817 87.307 151.0310
105.993363 87.261 150.9545
106.761435 87.215 150.8766
107.535072 87.168 150.7980
108.314315 87.121 150.7190
109.099206 87.073 150.6392
109.889783 87.025 150.5579
110.686090 86.976 150.4749
111.488167 86.925 150.3904
112.296056 86.873 150.3058
113.109800 86.820 150.2229
113.929440 86.764 150.1437
114.755020 86.707 150.0702
115.586582 86.647 150.0052
116.424170 86.585 149.9540
117.267827 86.521 149.9230
118.117598 86.457 149.9160
118.973527 86.394 149.9329
119.835658 86.334 149.9670
120.704037 86.277 150.0074
121.578708 86.224 150.0433
122.459718 86.173 150.0705
123.347111 86.122 150.0902
124.240935 86.072 150.1056
125.141236 86.021 150.1204
126.048061 85.970 150.1371
126.961458 85.918 150.1570
127.881473 85.865 150.1806
128.808154 85.811 150.2081
129.741551 85.757 150.2394
130.681712 85.702 150.2736
131.628686 85.647 150.3094
132.582521 85.592 150.3455
133.543269 85.537 150.3816
134.510979 85.481 150.4190
135.485701 85.425 150.4595
136.467486 85.368 150.5053
137.456386 85.311 150.5581
138.452451 85.253 150.6193
139.455735 85.196 150.6895
140.466288 85.138 150.7680
141.484165 85.081 150.8540
142.509418 85.024 150.9457
143.542100 84.967 151.0418
144.582265 84.909 151.1411
145.629968 84.851 151.2426
146.685262 84.792 151.3467
147.748204 84.732 151.4545
148.818849 84.670 151.5684
149.897251 84.608 151.6906
150.983469 84.544 151.8234
152.077557 84.480 151.9682
153.179574 84.417 152.1254
154.289576 84.354 152.2950
155.407622 84.292 152.4757
156.533770 84.231 152.6639
157.668078 84.173 152.8546
158.810606 84.116 153.0428
159.961413 84.060 153.2260
161.120559 84.005 153.4035
162.288105 83.950 153.5768
163.464112 83.894 153.7486
164.648640 83.836 153.9225
165.841752 83.777 154.1016
167.043510 83.715 154.2885
168.253976 83.653 154.4857
169.473213 83.590 154.6960
170.701286 83.527 154.9221
171.938258 83.465 155.1647
173.184194 83.404 155.4226
174.439158 83.345 155.6920
175.703216 83.287 155.9686
176.976434 83.229 156.2482
178.258878 83.172 156.5286
179.550615 83.114 156.8103
180.851713 83.057 157.0955
182.162239 82.999 157.3865
183.482262 82.942 157.6853
184.811850 82.884 157.9926
186.151073 82.826 158.3077
187.500000 82.766 158.6295
188.858702 82.705 158.9576
190.227250 82.641 159.2945
191.605715 82.577 159.6450
192.994169 82.513 160.0170
194.392685 82.452 160.4193
195.801334 82.395 160.8571
197.220191 82.345 161.3325
198.649330 82.301 161.8470
200.088825 82.263 162.4009
201.538751 82.231 162.9910
202.999184 82.205 163.6082
204.470200 82.185 164.2363
205.951875 82.171 164.8528
207.444287 82.164 165.4306
208.947514 82.162 165.9453
210.461634 82.163 166.3841
211.986726 82.166 166.7512
213.522869 82.168 167.0644
215.070144 82.166 167.3467
216.628631 82.160 167.6171
218.198411 82.150 167.8873
219.779567 82.137 168.1629
221.372180 82.122 168.4457
222.976334 82.103 168.7357
224.592112 82.080 169.0319
226.219600 82.052 169.3313
227.858880 82.021 169.6292
229.510039 81.987 169.9223
231.173164 81.955 170.2114
232.848340 81.926 170.4998
234.535655 81.902 170.7910
236.235197 81.883 171.0881
237.947054 81.866 171.3940
239.671317 81.849 171.7100
241.408074 81.830 172.0347
243.157416 81.808 172.3666
244.919435 81.785 172.7065
246.694223 81.759 173.0573
248.481871 81.733 173.4224
250.282473 81.708 173.8045
252.096123 81.684 174.2051
253.922915 81.662 174.6225
255.762945 81.643 175.0502
257.616309 81.628 175.4766
259.483103 81.616 175.8905
261.363424 81.605 176.2875
263.257372 81.594 176.6721
265.165043 81.583 177.0535
267.086538 81.570 177.4412
269.021957 81.557 177.8418
270.971401 81.545 178.2582
272.934972 81.535 178.6895
274.912771 81.528 179.1319
276.904902 81.524 179.5795
278.911469 81.525 -179.9740
280.932577 81.530 -179.5348
282.968330 81.539 -179.1093
285.018835 81.551 -178.7048
287.084199 81.566 -178.3293
289.164530 81.582 -177.9891
291.259935 81.596 -177.6841
293.370525 81.607 -177.4060
295.496408 81.615 -177.1414
297.637697 81.619 -176.8780
299.794503 81.621 -176.6086
301.966937 81.620 -176.3321
304.155114 81.618 -176.0504
306.359147 81.616 -175.7656
308.579152 81.615 -175.4788
310.815244 81.613 -175.1904
313.067539 81.611 -174.9008
315.336156 81.608 -174.6086
317.621211 81.604 -174.3105
319.922826 81.599 -174.0027
322.241118 81.595 -173.6844
324.576210 81.591 -173.3580
326.928223 81.587 -173.0286
329.297280 81.585 -172.7002
331.683504 81.584 -172.3749
334.087019 81.584 -172.0540
336.507952 81.585 -171.7382
338.946427 81.586 -171.4281
341.402572 81.586 -171.1231
343.876516 81.585 -170.8213
346.368387 81.584 -170.5197
348.878315 81.582 -170.2160
351.406431 81.580 -169.9084
353.952867 81.578 -169.5970
356.517756 81.577 -169.2825
359.101230 81.576 -168.9660
361.703426 81.576 -168.6480
364.324478 81.576 -168.3286
366.964523 81.577 -168.0076
369.623699 81.578 -167.6852
372.302145 81.580 -167.3624
375.000000 81.583 -167.0414
377.717405 81.586 -166.7246
380.454501 81.590 -166.4128
383.211431 81.595 -166.1058
385.988339 81.600 -165.8028
388.785369 81.606 -165.5036
391.602668 81.611 -165.2087
394.440383 81.616 -164.9187
397.298660 81.622 -164.6338
400.177650 81.627 -164.3542
403.077502 81.632 -164.0804
405.998368 81.638 -163.8131
408.940400 81.643 -163.5530
411.903750 81.648 -163.2991
414.888575 81.651 -163.0493
417.895028 81.652 -162.8004
420.923268 81.653 -162.5490
423.973452 81.653 -162.2924
427.045738 81.653 -162.0302
430.140287 81.653 -161.7649
433.257261 81.654 -161.5000
436.396822 81.655 -161.2373
439.559133 81.656 -160.9762
442.744360 81.657 -160.7159
445.952668 81.658 -160.4582
449.184225 81.659 -160.2072
452.439199 81.660 -159.9681
455.717760 81.660 -159.7439
459.020079 81.658 -159.5318
462.346327 81.651 -159.3228
465.696680 81.641 -159.1062
469.071310 81.628 -158.8746
472.470394 81.613 -158.6250
475.894109 81.599 -158.3594
479.342634 81.584 -158.0836
482.816148 81.569 -157.8042
486.314833 81.553 -157.5231
489.838871 81.536 -157.2352
493.388445 81.517 -156.9304
496.963741 81.498 -156.6024
500.564945 81.480 -156.2532
504.192245 81.463 -155.8905
507.845830 81.448 -155.5212
511.525890 81.433 -155.1486
515.232618 81.419 -154.7720
518.966206 81.405 -154.3886
522.726849 81.391 -153.9946
526.514743 81.378 -153.5869
530.330086 81.367 -153.1651
534.173076 81.358 -152.7339
538.043915 81.352 -152.3000
541.942803 81.348 -151.8677
545.869944 81.346 -151.4374
549.825542 81.345 -151.0088
553.809805 81.346 -150.5836
557.822939 81.348 -150.1650
561.865154 81.351 -149.7558
565.936660 81.353 -149.3565
570.037671 81.355 -148.9658
574.168399 81.356 -148.5814
578.329060 81.357 -148.2019
582.519870 81.357 -147.8267
586.741049 81.357 -147.4537
590.992817 81.356 -147.0785
595.275394 81.354 -146.6969
599.589005 81.353 -146.3090
603.933874 81.351 -145.9182
608.310228 81.349 -145.5270
612.718295 81.347 -145.1349
617.158304 81.343 -144.7382
621.630488 81.338 -144.3300
626.135079 81.333 -143.9045
630.672311 81.328 -143.4601
635.242423 81.324 -143.0025
639.845651 81.322 -142.5388
644.482237 81.321 -142.0714
649.152421 81.322 -141.5989
653.856447 81.325 -141.1220
658.594560 81.330 -140.6466
663.367008 81.337 -140.1828
668.174039 81.346 -139.7389
673.015903 81.353 -139.3149
677.892854 81.358 -138.9038
682.805145 81.361 -138.4963
687.753032 81.361 -138.0853
692.736774 81.359 -137.6648
697.756631 81.355 -137.2297
702.812863 81.351 -136.7776
707.905735 81.347 -136.3104
713.035511 81.344 -135.8329
718.202461 81.341 -135.3492
723.406852 81.339 -134.8597
728.648956 81.337 -134.3633
733.929047 81.335 -133.8585
739.247399 81.334 -133.3451
744.604290 81.333 -132.8231
750.000000 81.333 -132.2926
755.434809 81.333 -131.7539
760.909001 81.334 -131.2073
766.422861 81.336 -130.6531
771.976677 81.338 -130.0916
777.570739 81.341 -129.5234
783.205337 81.345 -128.9480
788.880766 81.349 -128.3637
794.597321 81.355 -127.7672
800.355301 81.362 -127.1565
806.155005 81.372 -126.5339
811.996736 81.385 -125.9060
817.880799 81.402 -125.2820
823.807501 81.422 -124.6710
829.777150 81.445 -124.0807
835.790057 81.468 -123.5128
841.846536 81.489 -122.9604
847.946903 81.509 -122.4126
854.091476 81.526 -121.8611
860.280575 81.542 -121.3017
866.514523 81.557 -120.7314
872.793644 81.572 -120.1468
879.118267 81.587 -119.5478
885.488720 81.603 -118.9389
891.905336 81.621 -118.3242
898.368450 81.639 -117.7044
904.878398 81.659 -117.0775
911.435520 81.680 -116.4419
918.040157 81.704 -115.7990
924.692655 81.730 -115.1513
931.393359 81.758 -114.5026
938.142619 81.789 -113.8570
944.940787 81.821 -113.2173
951.788218 81.855 -112.5828
958.685268 81.889 -111.9513
965.632296 81.925 -111.3197
972.629666 81.961 -110.6853
979.677741 81.999 -110.0471
986.776890 82.039 -109.4064
993.927482 82.080 -108.7631
1001.129891 82.124 -108.1146
1008.384491 82.170 -107.4581
1015.691660 82.220 -106.7959
1023.051781 82.274 -106.1340
1030.465236 82.333 -105.4812
1037.932411 82.397 -104.8495
1045.453698 82.464 -104.2520
1053.029486 82.534 -103.6956
1060.660172 82.602 -103.1783
1068.346153 82.670 -102.6922
1076.087829 82.735 -102.2277
1083.885605 82.799 -101.7778
1091.739887 82.862 -101.3395
1099.651084 82.922 -100.9124
1107.619609 82.981 -100.4955
1115.645878 83.038 -100.0868
1123.730308 83.093 -99.6841
1131.873321 83.147 -99.2851
1140.075341 83.198 -98.8879
1148.336797 83.247 -98.4900
1156.658119 83.295 -98.0890
1165.039741 83.341 -97.6818
1173.482099 83.388 -97.2654
1181.985634 83.435 -96.8399
1190.550789 83.483 -96.4110
1199.178011 83.534 -95.9898
1207.867749 83.587 -95.5874
1216.620457 83.639 -95.2087
1225.436590 83.690 -94.8492
1234.316609 83.737 -94.4997
1243.260976 83.780 -94.1506
1252.270157 83.821 -93.7937
1261.344623 83.859 -93.4248
1270.484846 83.895 -93.0427
1279.691303 83.929 -92.6465
1288.964474 83.963 -92.2353
1298.304842 83.996 -91.8103
1307.712894 84.029 -91.3743
1317.189120 84.063 -90.9310
1326.734016 84.098 -90.4820
1336.348077 84.132 -90.0264
1346.031806 84.167 -89.5614
1355.785708 84.202 -89.0833
1365.610290 84.239 -88.5886
1375.506065 84.277 -88.0728
1385.473549 84.317 -87.5309
1395.513261 84.360 -86.9618
1405.625726 84.408 -86.3711
1415.811469 84.461 -85.7710
1426.071023 84.518 -85.1770
1436.404921 84.579 -84.5994
1446.813703 84.640 -84.0394
1457.297912 84.701 -83.4915
1467.858093 84.761 -82.9490
1478.494798 84.819 -82.4069
1489.208581 84.876 -81.8613
1500.000000 84.929 -81.3088
1510.869618 84.980 -80.7465
1521.818002 85.027 -80.1716
1532.845723 85.071 -79.5816
1543.953355 85.113 -78.9744
1555.141477 85.154 -78.3496
1566.410674 85.197 -77.7120
1577.761531 85.243 -77.0734
1589.194642 85.292 -76.4488
1600.710601 85.344 -75.8478
1612.310010 85.396 -75.2711
1623.993473 85.448 -74.7131
1635.761599 85.498 -74.1664
1647.615002 85.548 -73.6252
1659.554299 85.597 -73.0849
1671.580114 85.646 -72.5423
1683.693072 85.695 -71.9971
1695.893807 85.746 -71.4514
1708.182952 85.797 -70.9077
1720.561150 85.847 -70.3659
1733.029045 85.897 -69.8227
1745.587288 85.945 -69.2729
1758.236533 85.992 -68.7101
1770.977440 86.040 -68.1292
1783.810673 86.091 -67.5318
1796.736900 86.146 -66.9283
1809.756796 86.206 -66.3342
1822.871040 86.270 -65.7615
1836.080315 86.337 -65.2145
1849.385310 86.404 -64.6921
1862.786718 86.473 -64.1905
1876.285239 86.543 -63.7051
1889.881575 86.614 -63.2303
1903.576436 86.688 -62.7602
1917.370535 86.765 -62.2898
1931.264593 86.848 -61.8162
1945.259332 86.936 -61.3415
1959.355483 87.032 -60.8758
1973.553781 87.133 -60.4335
1987.854965 87.239 -60.0254
2002.259781 87.346 -59.6544
2016.768981 87.452 -59.3173
2031.383320 87.557 -59.0089
2046.103561 87.659 -58.7234
2060.930471 87.759 -58.4565
2075.864823 87.856 -58.2065
2090.907395 87.951 -57.9725
2106.058972 88.041 -57.7522
2121.320344 88.128 -57.5396
2136.692305 88.210 -57.3258
2152.175658 88.289 -57.1014
2167.771210 88.366 -56.8631
2183.479774 88.443 -56.6174
2199.302169 88.520 -56.3761
2215.239219 88.597 -56.1490
2231.291755 88.673 -55.9400
2247.460615 88.746 -55.7479
2263.746641 88.817 -55.5675
2280.150683 88.885 -55.3908
2296.673595 88.950 -55.2089
2313.316238 89.013 -55.0145
2330.079481 89.077 -54.8064
2346.964198 89.142 -54.5921
2363.971268 89.208 -54.3844
2381.101578 89.276 -54.1935
2398.356022 89.343 -54.0237
2415.735498 89.410 -53.8742
2433.240913 89.474 -53.7410
2450.873180 89.536 -53.6206
2468.633217 89.596 -53.5111
2486.521951 89.653 -53.4102
2504.540314 89.708 -53.3126
2522.689246 89.759 -53.2099
2540.969692 89.808 -53.0938
2559.382606 89.858 -52.9635
2577.928947 89.910 -52.8272
2596.609683 89.963 -52.6968
2615.425787 90.019 -52.5827
2634.378241 90.075 -52.4908
2653.468031 90.130 -52.4224
2672.696154 90.185 -52.3747
2692.063613 90.239 -52.3432
2711.571415 90.292 -52.3266
2731.220579 90.347 -52.3316
2751.012130 90.403 -52.3713
2770.947098 90.458 -52.4588
2791.026522 90.511 -52.6029
2811.251451 90.560 -52.8068
2831.622938 90.602 -53.0688
2852.142045 90.634 -53.3841
2872.809842 90.655 -53.7429
2893.627406 90.662 -54.1288
2914.595823 90.653 -54.5182
2935.716186 90.630 -54.8862
2956.989596 90.593 -55.2130
2978.417161 90.544 -55.4855
3000.000000 90.486 -55.6943
3021.739237 90.419 -55.8311
3043.636005 90.347 -55.8877
3065.691446 90.270 -55.8560
3087.906710 90.193 -55.7311
3110.282955 90.119 -55.5176
3132.821347 90.051 -55.2313
3155.523062 89.991 -54.8948
3178.389283 89.939 -54.5313
3201.421202 89.895 -54.1606
3224.620020 89.856 -53.7976
3247.986946 89.821 -53.4525
3271.523198 89.787 -53.1283
3295.230004 89.753 -52.8191
3319.108599 89.717 -52.5141
3343.160228 89.680 -52.2052
3367.386145 89.642 -51.8907
3391.787613 89.604 -51.5718
3416.365904 89.564 -51.2487
3441.122300 89.523 -50.9162
3466.058091 89.479 -50.5636
3491.174576 89.434 -50.1800
3516.473066 89.389 -49.7611
3541.954880 89.347 -49.3102
3567.621345 89.307 -48.8348
3593.473800 89.270 -48.3435
3619.513592 89.235 -47.8446
3645.742080 89.202 -47.3437
3672.160630 89.169 -46.8405
3698.770620 89.135 -46.3275
3725.573436 89.101 -45.7967
3752.570477 89.067 -45.2456
3779.763150 89.035 -44.6766
3807.152872 89.003 -44.0928
3834.741071 88.971 -43.4929
3862.529185 88.940 -42.8697
3890.518664 88.911 -42.2173
3918.710966 88.885 -41.5366
3947.107561 88.865 -40.8369
3975.709929 88.852 -40.1323
4004.519563 88.847 -39.4395
4033.537962 88.848 -38.7739
4062.766641 88.855 -38.1442
4092.207123 88.866 -37.5507
4121.860942 88.880 -36.9922
4151.729646 88.897 -36.4713
4181.814790 88.917 -35.9939
4212.117944 88.938 -35.5635
4242.640687 88.959 -35.1774
4273.384610 88.979 -34.8291
4304.351317 88.998 -34.5162
4335.542421 89.018 -34.2425
4366.959549 89.038 -34.0178
4398.604338 89.059 -33.8548
4430.478438 89.077 -33.7650
4462.583511 89.091 -33.7523
4494.921231 89.099 -33.8129
4527.493283 89.099 -33.9406
4560.301365 89.090 -34.1300
4593.347189 89.071 -34.3745
4626.632476 89.038 -34.6612
4660.158962 88.992 -34.9712
4693.928395 88.933 -35.2864
4727.942535 88.862 -35.5939
4762.203156 88.781 -35.8882
4796.712043 88.691 -36.1708
4831.470996 88.593 -36.4448
4866.481826 88.487 -36.7095
4901.746360 88.371 -36.9609
4937.266434 88.247 -37.1956
4973.043902 88.113 -37.4114
5009.080628 87.970 -37.6028
5045.378492 87.815 -37.7573
5081.939384 87.650 -37.8597
5118.765212 87.476 -37.8969
5155.857894 87.295 -37.8625
5193.219366 87.108 -37.7579
5230.851574 86.918 -37.5879
5268.756481 86.725 -37.3550
5306.936062 86.528 -37.0601
5345.392309 86.330 -36.7057
5384.127225 86.129 -36.2942
5423.142830 85.925 -35.8227
5462.441159 85.718 -35.2823
5502.024259 85.508 -34.6625
5541.894195 85.299 -33.9571
5582.053045 85.093 -33.1677
5622.502902 84.892 -32.3028
5663.245876 84.698 -31.3723
5704.284090 84.513 -30.3869
5745.619684 84.338 -29.3597
5787.254813 84.173 -28.3035
5829.191647 84.017 -27.2252
5871.432373 83.869 -26.1246
5913.979192 83.729 -24.9979
5956.834323 83.599 -23.8434
6000.000000 83.480 -22.6650
6043.478473 83.372 -21.4704
6087.272010 83.277 -20.2690
6131.382892 83.195 -19.0727
6175.813420 83.125 -17.8935
6220.565910 83.066 -16.7376
6265.642695 83.018 -15.6039
6311.046124 82.980 -14.4862
6356.778566 82.953 -13.3792
6402.842404 82.936 -12.2820
6449.240040 82.933 -11.1981
6495.973891 82.943 -10.1352
6543.046396 82.968 -9.1050
6590.460007 83.008 -8.1200
6638.217197 83.062 -7.1893
6686.320456 83.130 -6.3179
6734.772290 83.212 -5.5096
6783.575226 83.307 -4.7699
6832.731809 83.415 -4.1060
6882.244600 83.535 -3.5268
6932.116181 83.666 -3.0435
6982.349153 83.806 -2.6668
7032.946133 83.954 -2.4031
7083.909760 84.108 -2.2536
7135.242690 84.269 -2.2183
7186.947600 84.435 -2.2992
7239.027185 84.606 -2.5010
7291.484160 84.781 -2.8307
7344.321260 84.960 -3.2968
7397.541239 85.138 -3.9039
7451.146872 85.314 -4.6504
7505.140954 85.485 -5.5309
7559.526299 85.649 -6.5396
7614.305743 85.806 -7.6708
7669.482141 85.953 -8.9189
7725.058371 86.088 -10.2802
7781.037328 86.211 -11.7506
7837.421932 86.316 -13.3211
7894.215122 86.402 -14.9759
7951.419859 86.467 -16.6952
8009.039125 86.508 -18.4569
8067.075924 86.526 -20.2400
8125.533282 86.520 -22.0277
8184.414245 86.491 -23.8062
8243.721885 86.437 -25.5606
8303.459292 86.358 -27.2722
8363.629581 86.252 -28.9182
8424.235888 86.120 -30.4700
8485.281374 85.963 -31.8936
8546.769221 85.782 -33.1545
8608.702634 85.583 -34.2233
8671.084842 85.373 -35.0869
8733.919097 85.159 -35.7556
8797.208675 84.944 -36.2541
8860.956876 84.730 -36.6036
8925.167022 84.518 -36.8174
8989.842461 84.308 -36.9045
9054.986566 84.100 -36.8713
9120.602731 83.893 -36.7217
9186.694378 83.688 -36.4551
9253.264952 83.484 -36.0672
9320.317925 83.284 -35.5556
9387.856790 83.089 -34.9252
9455.885071 82.900 -34.1863
9524.406312 82.718 -33.3501
9593.424086 82.544 -32.4239
9662.941992 82.377 -31.4092
9732.963653 82.218 -30.3067
9803.492719 82.068 -29.1234
9874.532869 81.928 -27.8720
9946.087805 81.797 -26.5669
10018.161257 81.673 -25.2156
10090.756983 81.553 -23.8157
10163.878768 81.438 -22.3594
10237.530423 81.327 -20.8394
10311.715789 81.220 -19.2506
10386.438732 81.118 -17.5900
10461.703149 81.023 -15.8555
10537.512962 80.936 -14.0506
10613.872125 80.858 -12.1858
10690.784618 80.790 -10.2776
10768.254450 80.732 -8.3424
10846.285661 80.682 -6.3891
10924.882318 80.640 -4.4186
11004.048518 80.604 -2.4309
11083.788390 80.576 -0.4321
11164.106090 80.556 1.5669
11245.005805 80.542 3.5582
11326.491752 80.534 5.5413
11408.568180 80.531 7.5179
11491.239368 80.532 9.4859
11574.509626 80.539 11.4399
11658.383294 80.549 13.3776
11742.864745 80.562 15.3038
11827.958384 80.576 17.2262
11913.668646 80.594 19.1485
12000.000000 80.616 21.0694
12086.956947 80.642 22.9882
12174.544019 80.674 24.9040
12262.765784 80.713 26.8101
12351.626840 80.764 28.6864
12441.131819 80.825 30.5028
12531.285389 80.898 32.2281
12622.092249 80.980 33.8363
12713.557132 81.070 35.3043
12805.684808 81.163 36.6097
12898.480079 81.258 37.7343
12991.947783 81.348 38.6681
13086.092792 81.429 39.4080
13180.920015 81.497 39.9528
13276.434395 81.546 40.3053
13372.640911 81.572 40.4768
13469.544580 81.569 40.4891
13567.150452 81.535 40.3678
13665.463617 81.468 40.1381
13764.489200 81.364 39.8265
13864.232362 81.223 39.4628
13964.698305 81.044 39.0751
14065.892266 80.828 38.6853
14167.819519 80.575 38.3108
14270.485380 80.286 37.9683
14373.895200 79.962 37.6723
14478.054370 79.601 37.4330
14582.968320 79.205 37.2609
14688.642520 78.770 37.1778
14795.082478 78.295 37.2234
14902.293745 77.776 37.4609
15010.281908 77.214 37.9849
15119.052599 76.611 38.9171
15228.611486 75.983 40.3733
15338.964283 75.353 42.4027
15450.116741 74.749 44.9328
15562.074656 74.194 47.7757
15674.843864 73.695 50.7145
15788.430244 73.245 53.6011
15902.839718 72.827 56.3919
16018.078250 72.428 59.1183
16134.151848 72.041 61.8351
16251.066563 71.661 64.5838
16368.828491 71.291 67.3812
16487.443769 70.931 70.2214
16606.918584 70.583 73.0817
16727.259161 70.248 75.9337
16848.471777 69.923 78.7548
16970.562748 69.606 81.5336
17093.538442 69.295 84.2690
17217.405268 68.989 86.9693
17342.169684 68.686 89.6480
17467.838194 68.387 92.3199
17594.417350 68.094 94.9997
17721.913751 67.808 97.6946
17850.334044 67.533 100.3893
17979.684923 67.274 103.0367
18109.973131 67.034 105.5602
18241.205462 66.811 107.8620
18373.388756 66.599 109.8410
18506.529905 66.389 111.4118
18640.635849 66.165 112.5126
18775.713581 65.912 113.1038
18911.770141 65.611 113.1662
19048.812624 65.242 112.7052
19186.848172 64.782 111.7728
19325.883983 64.215 110.4865
19465.927305 63.534 109.0243
19606.985439 62.765 107.5946
19749.065738 61.975 106.3946
19892.175609 61.294 105.5659
20036.322514 60.889 105.1601
