* Measurement data measured by REW V5.31
* Source: EXCL: Microphone (USB Sound Device        ), MICROPHONE (Master Volume), L, volume: 0.390
* Format: 256k Log Swept Sine, 1 sweep at -4.0 dBFS with no timing reference
* Dated: Aug 10, 2024 7:26:24 PM
* REW Settings:
*  C-weighting compensation: Off
*  Target level: 75.0 dB
* Note: DaVinci
* Measurement: L DaVinci
* Smoothing: 1/12 octave
* Frequency Step: 96 ppo
* Start Frequency: 0.36621094 Hz
*
* Freq(Hz) SPL(dB) Phase(degrees)
0.366211 89.580 -62.6737
0.368865 89.585 -62.7384
0.371538 89.593 -62.8353
0.374230 89.602 -62.9567
0.376942 89.613 -63.0964
0.379673 89.625 -63.2494
0.382424 89.637 -63.4128
0.385196 89.650 -63.5845
0.387987 89.662 -63.7635
0.390798 89.675 -63.9492
0.393630 89.688 -64.1413
0.396483 89.701 -64.3396
0.399356 89.715 -64.5440
0.402250 89.728 -64.7545
0.405165 89.741 -64.9712
0.408101 89.755 -65.1940
0.411058 89.769 -65.4230
0.414037 89.782 -65.6581
0.417037 89.796 -65.8994
0.420059 89.810 -66.1469
0.423103 89.824 -66.4006
0.426169 89.838 -66.6604
0.429257 89.852 -66.9265
0.432368 89.867 -67.1988
0.435501 89.881 -67.4772
0.438656 89.896 -67.7619
0.441835 89.910 -68.0526
0.445037 89.925 -68.3496
0.448262 89.940 -68.6526
0.451510 89.955 -68.9617
0.454782 89.970 -69.2769
0.458077 89.985 -69.5981
0.461397 90.000 -69.9252
0.464740 90.016 -70.2583
0.468108 90.031 -70.5973
0.471500 90.047 -70.9421
0.474917 90.063 -71.2927
0.478358 90.078 -71.6489
0.481825 90.094 -72.0108
0.485316 90.110 -72.3782
0.488833 90.127 -72.7511
0.492375 90.143 -73.1294
0.495943 90.159 -73.5130
0.499537 90.176 -73.9017
0.503157 90.193 -74.2956
0.506803 90.209 -74.6945
0.510475 90.226 -75.0982
0.514175 90.243 -75.5067
0.517900 90.260 -75.9198
0.521653 90.278 -76.3374
0.525434 90.295 -76.7595
0.529241 90.313 -77.1857
0.533076 90.330 -77.6161
0.536939 90.348 -78.0505
0.540830 90.366 -78.4886
0.544749 90.384 -78.9304
0.548696 90.402 -79.3758
0.552673 90.421 -79.8244
0.556677 90.439 -80.2763
0.560711 90.458 -80.7312
0.564774 90.476 -81.1889
0.568867 90.495 -81.6494
0.572989 90.514 -82.1123
0.577141 90.533 -82.5776
0.581324 90.553 -83.0450
0.585536 90.572 -83.5144
0.589779 90.591 -83.9856
0.594053 90.611 -84.4584
0.598358 90.631 -84.9326
0.602694 90.651 -85.4081
0.607061 90.671 -85.8847
0.611460 90.691 -86.3621
0.615891 90.712 -86.8403
0.620354 90.732 -87.3190
0.624849 90.753 -87.7980
0.629377 90.774 -88.2772
0.633938 90.795 -88.7564
0.638532 90.816 -89.2354
0.643159 90.837 -89.7141
0.647819 90.859 -90.1922
0.652514 90.880 -90.6697
0.657242 90.902 -91.1463
0.662005 90.924 -91.6219
0.666802 90.946 -92.0964
0.671634 90.968 -92.5695
0.676501 90.991 -93.0412
0.681403 91.013 -93.5113
0.686341 91.036 -93.9797
0.691314 91.059 -94.4462
0.696324 91.082 -94.9108
0.701370 91.105 -95.3735
0.706452 91.128 -95.8342
0.711571 91.151 -96.2932
0.716728 91.173 -96.7507
0.721921 91.195 -97.2074
0.727153 91.215 -97.6642
0.732422 91.234 -98.1225
0.737729 91.252 -98.5837
0.743075 91.267 -99.0495
0.748460 91.282 -99.5212
0.753883 91.296 -99.9995
0.759346 91.309 -100.4852
0.764849 91.321 -100.9785
0.770391 91.334 -101.4794
0.775974 91.346 -101.9879
0.781597 91.357 -102.5040
0.787261 91.369 -103.0275
0.792966 91.380 -103.5583
0.798712 91.391 -104.0962
0.804500 91.402 -104.6408
0.810329 91.413 -105.1921
0.816201 91.424 -105.7499
0.822116 91.434 -106.3137
0.828073 91.444 -106.8835
0.834074 91.453 -107.4589
0.840118 91.462 -108.0397
0.846206 91.471 -108.6255
0.852338 91.480 -109.2161
0.858514 91.488 -109.8112
0.864735 91.496 -110.4104
0.871001 91.503 -111.0135
0.877313 91.510 -111.6201
0.883670 91.516 -112.2298
0.890074 91.522 -112.8423
0.896524 91.527 -113.4573
0.903020 91.532 -114.0743
0.909564 91.536 -114.6931
0.916155 91.540 -115.3132
0.922794 91.543 -115.9342
0.929481 91.545 -116.5558
0.936216 91.547 -117.1775
0.943000 91.547 -117.7989
0.949834 91.548 -118.4198
0.956717 91.547 -119.0395
0.963649 91.545 -119.6578
0.970632 91.543 -120.2742
0.977666 91.540 -120.8883
0.984750 91.536 -121.4997
0.991886 91.531 -122.1079
0.999074 91.524 -122.7126
1.006314 91.517 -123.3132
1.013606 91.509 -123.9095
1.020951 91.500 -124.5009
1.028349 91.489 -125.0871
1.035801 91.477 -125.6676
1.043307 91.464 -126.2420
1.050867 91.450 -126.8101
1.058482 91.434 -127.3716
1.066152 91.417 -127.9265
1.073878 91.399 -128.4749
1.081660 91.379 -129.0174
1.089498 91.359 -129.5552
1.097393 91.337 -130.0902
1.105345 91.314 -130.6246
1.113355 91.291 -131.1612
1.121423 91.267 -131.7020
1.129549 91.243 -132.2491
1.137734 91.219 -132.8036
1.145979 91.194 -133.3664
1.154283 91.168 -133.9383
1.162647 91.142 -134.5196
1.171072 91.115 -135.1107
1.179558 91.088 -135.7116
1.188106 91.059 -136.3227
1.196715 91.029 -136.9439
1.205387 90.999 -137.5754
1.214122 90.966 -138.2172
1.222920 90.933 -138.8692
1.231782 90.897 -139.5313
1.240708 90.860 -140.2034
1.249699 90.821 -140.8853
1.258754 90.779 -141.5768
1.267876 90.735 -142.2775
1.277063 90.689 -142.9870
1.286318 90.639 -143.7047
1.295639 90.587 -144.4301
1.305027 90.531 -145.1624
1.314484 90.472 -145.9009
1.324009 90.410 -146.6446
1.333604 90.343 -147.3924
1.343268 90.272 -148.1430
1.353002 90.197 -148.8951
1.362806 90.117 -149.6472
1.372681 90.032 -150.3974
1.382628 89.942 -151.1440
1.392647 89.847 -151.8849
1.402739 89.745 -152.6181
1.412904 89.637 -153.3412
1.423142 89.523 -154.0524
1.433455 89.401 -154.7501
1.443843 89.272 -155.4332
1.454305 89.133 -156.1019
1.464844 88.986 -156.7580
1.475459 88.827 -157.4042
1.486150 88.657 -158.0441
1.496920 88.474 -158.6811
1.507767 88.279 -159.3181
1.518693 88.071 -159.9570
1.529698 87.851 -160.5993
1.540783 87.619 -161.2461
1.551948 87.376 -161.8980
1.563194 87.122 -162.5554
1.574521 86.859 -163.2185
1.585931 86.587 -163.8876
1.597423 86.307 -164.5624
1.608999 86.020 -165.2430
1.620658 85.728 -165.9290
1.632402 85.431 -166.6200
1.644232 85.130 -167.3152
1.656146 84.827 -168.0137
1.668147 84.523 -168.7144
1.680235 84.220 -169.4157
1.692411 83.918 -170.1157
1.704675 83.620 -170.8120
1.717028 83.327 -171.5015
1.729470 83.040 -172.1806
1.742003 82.762 -172.8448
1.754626 82.493 -173.4887
1.767341 82.237 -174.1058
1.780147 81.993 -174.6886
1.793047 81.765 -175.2285
1.806040 81.552 -175.7157
1.819128 81.355 -176.1400
1.832310 81.172 -176.4902
1.845587 81.003 -176.7542
1.858961 80.846 -176.9174
1.872432 80.700 -176.9601
1.886001 80.562 -176.8546
1.899667 80.433 -176.5603
1.913433 80.313 -176.0163
1.927299 80.202 -175.1291
1.941265 80.100 -173.7482
1.955332 80.008 -171.6205
1.969501 79.926 -168.2911
1.983773 79.856 -162.8822
1.998148 79.799 -153.5829
2.012627 79.754 -136.7833
2.027212 79.723 -108.9134
2.041902 79.708 -78.5738
2.056698 79.708 -58.5944
2.071602 79.726 -47.5633
2.086614 79.762 -41.3143
2.101734 79.818 -37.5848
2.116964 79.895 -35.2883
2.132304 79.995 -33.8746
2.147756 80.121 -33.0434
2.163320 80.273 -32.6192
2.178996 80.457 -32.4924
2.194786 80.674 -32.5906
2.210690 80.928 -32.8625
2.226710 81.220 -33.2695
2.242845 81.553 -33.7814
2.259098 81.923 -34.3744
2.275468 82.330 -35.0292
2.291957 82.768 -35.7304
2.308566 83.235 -36.4659
2.325295 83.726 -37.2264
2.342145 84.236 -38.0045
2.359117 84.759 -38.7947
2.376212 85.292 -39.5926
2.393431 85.828 -40.3953
2.410775 86.364 -41.2006
2.428244 86.893 -42.0073
2.445840 87.411 -42.8148
2.463564 87.913 -43.6233
2.481416 88.395 -44.4337
2.499397 88.853 -45.2478
2.517509 89.284 -46.0684
2.535752 89.686 -46.8994
2.554127 90.060 -47.7455
2.572635 90.406 -48.6118
2.591277 90.726 -49.5024
2.610055 91.023 -50.4193
2.628968 91.299 -51.3618
2.648019 91.557 -52.3271
2.667208 91.797 -53.3112
2.686535 92.022 -54.3092
2.706003 92.233 -55.3161
2.725612 92.432 -56.3270
2.745363 92.619 -57.3373
2.765257 92.797 -58.3431
2.785295 92.966 -59.3405
2.805478 93.129 -60.3267
2.825808 93.287 -61.2995
2.846285 93.441 -62.2575
2.866910 93.593 -63.2007
2.887685 93.742 -64.1307
2.908611 93.889 -65.0510
2.929688 94.034 -65.9667
2.950917 94.176 -66.8842
2.972301 94.313 -67.8089
2.993839 94.445 -68.7445
3.015534 94.571 -69.6922
3.037386 94.690 -70.6509
3.059396 94.803 -71.6183
3.081565 94.910 -72.5908
3.103896 95.011 -73.5644
3.126388 95.107 -74.5347
3.149043 95.198 -75.4975
3.171862 95.284 -76.4486
3.194847 95.365 -77.3843
3.217998 95.443 -78.3019
3.241317 95.517 -79.1998
3.264805 95.588 -80.0782
3.288463 95.655 -80.9397
3.312293 95.717 -81.7883
3.336295 95.775 -82.6291
3.360471 95.828 -83.4661
3.384822 95.876 -84.3016
3.409350 95.919 -85.1357
3.434056 95.957 -85.9673
3.458940 95.991 -86.7937
3.484005 96.020 -87.6114
3.509252 96.046 -88.4165
3.534681 96.068 -89.2043
3.560295 96.086 -89.9707
3.586094 96.102 -90.7114
3.612081 96.115 -91.4233
3.638255 96.126 -92.1043
3.664620 96.133 -92.7544
3.691175 96.138 -93.3748
3.717923 96.138 -93.9678
3.744864 96.135 -94.5356
3.772001 96.129 -95.0800
3.799335 96.120 -95.6017
3.826866 96.107 -96.1010
3.854597 96.093 -96.5773
3.882529 96.078 -97.0296
3.910664 96.062 -97.4563
3.939002 96.046 -97.8554
3.967546 96.031 -98.2246
3.996296 96.017 -98.5614
4.025255 96.004 -98.8635
4.054423 95.991 -99.1288
4.083804 95.980 -99.3566
4.113396 95.968 -99.5472
4.143204 95.958 -99.7028
4.173227 95.949 -99.8261
4.203468 95.941 -99.9210
4.233928 95.936 -99.9916
4.264609 95.934 -100.0422
4.295512 95.935 -100.0764
4.326639 95.941 -100.0972
4.357992 95.952 -100.1062
4.389572 95.969 -100.1034
4.421380 95.991 -100.0877
4.453419 96.019 -100.0582
4.485691 96.052 -100.0154
4.518196 96.090 -99.9621
4.550936 96.134 -99.9028
4.583914 96.182 -99.8435
4.617131 96.234 -99.7910
4.650589 96.289 -99.7518
4.684289 96.349 -99.7318
4.718233 96.412 -99.7355
4.752424 96.479 -99.7653
4.786862 96.550 -99.8215
4.821549 96.625 -99.9035
4.856488 96.703 -100.0102
4.891680 96.785 -100.1413
4.927127 96.869 -100.2972
4.962831 96.955 -100.4792
4.998794 97.042 -100.6890
5.035017 97.128 -100.9284
5.071503 97.214 -101.1995
5.108253 97.298 -101.5037
5.145270 97.381 -101.8419
5.182555 97.463 -102.2140
5.220110 97.542 -102.6182
5.257937 97.620 -103.0520
5.296038 97.697 -103.5119
5.334415 97.770 -103.9942
5.373071 97.841 -104.4957
5.412006 97.908 -105.0138
5.451224 97.971 -105.5471
5.490725 98.029 -106.0953
5.530514 98.084 -106.6588
5.570590 98.133 -107.2376
5.610957 98.179 -107.8303
5.651616 98.220 -108.4337
5.692570 98.256 -109.0435
5.733821 98.289 -109.6546
5.775370 98.317 -110.2625
5.817221 98.341 -110.8635
5.859375 98.361 -111.4559
5.901834 98.376 -112.0389
5.944602 98.387 -112.6126
5.987679 98.395 -113.1765
6.031068 98.398 -113.7287
6.074771 98.398 -114.2664
6.118792 98.396 -114.7864
6.163131 98.392 -115.2852
6.207792 98.386 -115.7599
6.252776 98.378 -116.2089
6.298086 98.369 -116.6317
6.343725 98.358 -117.0288
6.389694 98.347 -117.4013
6.435996 98.337 -117.7503
6.482634 98.327 -118.0767
6.529610 98.318 -118.3810
6.576926 98.312 -118.6633
6.624585 98.308 -118.9237
6.672590 98.306 -119.1631
6.720942 98.307 -119.3834
6.769645 98.312 -119.5883
6.818700 98.319 -119.7823
6.868111 98.331 -119.9698
6.917881 98.345 -120.1549
6.968010 98.364 -120.3404
7.018504 98.387 -120.5281
7.069362 98.414 -120.7201
7.120590 98.444 -120.9187
7.172189 98.477 -121.1274
7.224161 98.513 -121.3498
7.276511 98.551 -121.5894
7.329239 98.591 -121.8486
7.382350 98.633 -122.1288
7.435845 98.675 -122.4300
7.489729 98.718 -122.7519
7.544002 98.762 -123.0938
7.598669 98.805 -123.4552
7.653732 98.846 -123.8358
7.709194 98.886 -124.2351
7.765058 98.924 -124.6522
7.821327 98.960 -125.0852
7.878004 98.994 -125.5314
7.935091 99.025 -125.9872
7.992592 99.053 -126.4494
8.050510 99.078 -126.9152
8.108847 99.100 -127.3824
8.167607 99.118 -127.8493
8.226793 99.134 -128.3132
8.286408 99.147 -128.7713
8.346454 99.158 -129.2202
8.406936 99.166 -129.6572
8.467856 99.173 -130.0802
8.529218 99.178 -130.4882
8.591024 99.181 -130.8805
8.653278 99.184 -131.2565
8.715983 99.186 -131.6157
8.779143 99.189 -131.9578
8.842760 99.192 -132.2829
8.906839 99.196 -132.5917
8.971381 99.201 -132.8859
9.036392 99.207 -133.1676
9.101873 99.215 -133.4393
9.167829 99.225 -133.7029
9.234263 99.238 -133.9605
9.301178 99.252 -134.2140
9.368578 99.268 -134.4659
9.436467 99.285 -134.7188
9.504847 99.305 -134.9750
9.573723 99.325 -135.2365
9.643099 99.345 -135.5042
9.712976 99.366 -135.7789
9.783361 99.385 -136.0611
9.854255 99.403 -136.3512
9.925663 99.418 -136.6493
9.997588 99.430 -136.9547
10.070035 99.439 -137.2664
10.143007 99.445 -137.5831
10.216507 99.448 -137.9030
10.290540 99.448 -138.2247
10.365109 99.446 -138.5467
10.440219 99.441 -138.8675
10.515873 99.434 -139.1855
10.592076 99.425 -139.4990
10.668830 99.415 -139.8068
10.746141 99.403 -140.1081
10.824012 99.391 -140.4024
10.902447 99.379 -140.6895
10.981451 99.366 -140.9693
11.061027 99.353 -141.2421
11.141180 99.339 -141.5085
11.221913 99.326 -141.7693
11.303232 99.313 -142.0258
11.385140 99.301 -142.2789
11.467641 99.289 -142.5297
11.550741 99.277 -142.7793
11.634442 99.265 -143.0284
11.718750 99.254 -143.2780
11.803669 99.244 -143.5287
11.889203 99.233 -143.7806
11.975357 99.222 -144.0338
12.062136 99.212 -144.2880
12.149543 99.201 -144.5430
12.237583 99.190 -144.7983
12.326262 99.178 -145.0533
12.415583 99.166 -145.3073
12.505552 99.154 -145.5597
12.596172 99.141 -145.8103
12.687449 99.127 -146.0588
12.779387 99.113 -146.3051
12.871992 99.099 -146.5495
12.965268 99.086 -146.7925
13.059220 99.072 -147.0346
13.153852 99.059 -147.2768
13.249170 99.047 -147.5200
13.345179 99.034 -147.7650
13.441884 99.023 -148.0126
13.539289 99.012 -148.2637
13.637401 99.000 -148.5187
13.736223 98.989 -148.7776
13.835761 98.978 -149.0405
13.936021 98.966 -149.3067
14.037007 98.953 -149.5757
14.138725 98.940 -149.8463
14.241180 98.926 -150.1176
14.344377 98.911 -150.3883
14.448323 98.896 -150.6573
14.553021 98.880 -150.9238
14.658478 98.864 -151.1871
14.764700 98.847 -151.4468
14.871691 98.832 -151.7031
14.979457 98.816 -151.9565
15.088005 98.802 -152.2078
15.197339 98.788 -152.4580
15.307465 98.776 -152.7086
15.418389 98.765 -152.9608
15.530117 98.754 -153.2158
15.642655 98.744 -153.4747
15.756008 98.734 -153.7381
15.870182 98.725 -154.0063
15.985184 98.715 -154.2789
16.101019 98.706 -154.5552
16.217694 98.696 -154.8342
16.335214 98.685 -155.1146
16.453586 98.674 -155.3947
16.572815 98.663 -155.6732
16.692909 98.652 -155.9486
16.813872 98.640 -156.2200
16.935713 98.630 -156.4866
17.058436 98.619 -156.7485
17.182048 98.610 -157.0056
17.306556 98.601 -157.2589
17.431967 98.593 -157.5090
17.558286 98.586 -157.7571
17.685521 98.580 -158.0042
17.813677 98.574 -158.2511
17.942762 98.568 -158.4983
18.072783 98.563 -158.7462
18.203746 98.557 -158.9945
18.335658 98.551 -159.2428
18.468526 98.546 -159.4902
18.602356 98.540 -159.7359
18.737156 98.533 -159.9791
18.872934 98.527 -160.2189
19.009695 98.521 -160.4550
19.147447 98.514 -160.6870
19.286197 98.508 -160.9152
19.425953 98.502 -161.1398
19.566721 98.496 -161.3615
19.708510 98.491 -161.5807
19.851326 98.485 -161.7981
19.995177 98.479 -162.0141
20.140070 98.473 -162.2291
20.286013 98.467 -162.4430
20.433014 98.460 -162.6559
20.581080 98.453 -162.8678
20.730219 98.446 -163.0785
20.880439 98.439 -163.2882
21.031747 98.431 -163.4970
21.184152 98.424 -163.7053
21.337661 98.417 -163.9136
21.492282 98.410 -164.1225
21.648024 98.403 -164.3324
21.804895 98.395 -164.5436
21.962902 98.388 -164.7563
22.122054 98.380 -164.9702
22.282360 98.372 -165.1850
22.443827 98.363 -165.4002
22.606464 98.354 -165.6153
22.770280 98.345 -165.8300
22.935283 98.336 -166.0443
23.101481 98.326 -166.2583
23.268884 98.317 -166.4726
23.437500 98.308 -166.6878
23.607338 98.299 -166.9046
23.778406 98.290 -167.1235
23.950714 98.281 -167.3449
24.124271 98.272 -167.5686
24.299086 98.262 -167.7941
24.475167 98.252 -168.0207
24.652524 98.243 -168.2475
24.831166 98.233 -168.4735
25.011103 98.223 -168.6983
25.192344 98.213 -168.9214
25.374898 98.204 -169.1428
25.558775 98.194 -169.3628
25.743984 98.186 -169.5818
25.930536 98.178 -169.8002
26.118439 98.170 -170.0182
26.307704 98.162 -170.2359
26.498341 98.154 -170.4530
26.690359 98.146 -170.6690
26.883768 98.139 -170.8835
27.078579 98.131 -171.0961
27.274801 98.123 -171.3065
27.472446 98.116 -171.5147
27.671522 98.108 -171.7207
27.872042 98.100 -171.9247
28.074014 98.093 -172.1266
28.277450 98.085 -172.3267
28.482360 98.077 -172.5249
28.688755 98.068 -172.7213
28.896645 98.060 -172.9159
29.106042 98.051 -173.1091
29.316957 98.042 -173.3011
29.529400 98.034 -173.4926
29.743382 98.025 -173.6840
29.958915 98.016 -173.8757
30.176009 98.007 -174.0679
30.394677 97.998 -174.2604
30.614929 97.989 -174.4532
30.836778 97.979 -174.6459
31.060234 97.969 -174.8386
31.285309 97.959 -175.0313
31.512015 97.950 -175.2244
31.740364 97.940 -175.4184
31.970368 97.930 -175.6138
32.202039 97.920 -175.8110
32.435388 97.911 -176.0101
32.670428 97.901 -176.2110
32.907171 97.891 -176.4134
33.145630 97.881 -176.6171
33.385817 97.871 -176.8217
33.627745 97.861 -177.0271
33.871425 97.851 -177.2333
34.116871 97.841 -177.4399
34.364096 97.832 -177.6467
34.613113 97.822 -177.8535
34.863934 97.811 -178.0595
35.116572 97.801 -178.2644
35.371041 97.791 -178.4677
35.627354 97.780 -178.6691
35.885525 97.770 -178.8683
36.145566 97.759 -179.0653
36.407492 97.748 -179.2602
36.671316 97.737 -179.4531
36.937051 97.726 -179.6441
37.204712 97.715 -179.8336
37.474313 97.704 179.9784
37.745867 97.693 179.7917
38.019389 97.681 179.6064
38.294893 97.670 179.4231
38.572394 97.658 179.2421
38.851905 97.646 179.0638
39.133442 97.633 178.8882
39.417019 97.621 178.7149
39.702651 97.610 178.5428
39.990353 97.598 178.3709
40.280140 97.587 178.1978
40.572026 97.577 178.0225
40.866028 97.566 177.8442
41.162160 97.555 177.6627
41.460438 97.545 177.4782
41.760877 97.533 177.2912
42.063494 97.522 177.1025
42.368303 97.510 176.9130
42.675322 97.498 176.7233
42.984565 97.485 176.5341
43.296048 97.472 176.3455
43.609789 97.459 176.1577
43.925804 97.445 175.9706
44.244108 97.432 175.7841
44.564719 97.418 175.5986
44.887654 97.403 175.4141
45.212928 97.389 175.2311
45.540560 97.374 175.0499
45.870565 97.359 174.8707
46.202962 97.344 174.6937
46.537768 97.329 174.5190
46.875000 97.314 174.3464
47.214676 97.299 174.1758
47.556813 97.284 174.0070
47.901429 97.269 173.8397
48.248542 97.254 173.6736
48.598171 97.239 173.5090
48.950334 97.224 173.3459
49.305048 97.209 173.1847
49.662333 97.195 173.0254
50.022206 97.180 172.8677
50.384688 97.165 172.7115
50.749796 97.150 172.5562
51.117550 97.136 172.4018
51.487969 97.121 172.2484
51.861072 97.106 172.0962
52.236879 97.091 171.9454
52.615409 97.076 171.7960
52.996681 97.062 171.6476
53.380717 97.048 171.5000
53.767536 97.034 171.3526
54.157158 97.020 171.2051
54.549603 97.007 171.0571
54.944892 96.994 170.9078
55.343045 96.982 170.7562
55.744084 96.970 170.6013
56.148028 96.959 170.4425
56.554900 96.948 170.2798
56.964720 96.936 170.1138
57.377510 96.925 169.9452
57.793291 96.914 169.7744
58.212085 96.902 169.6011
58.633914 96.890 169.4250
59.058799 96.877 169.2458
59.486764 96.864 169.0643
59.917829 96.849 168.8819
60.352019 96.834 168.7006
60.789354 96.817 168.5220
61.229859 96.799 168.3469
61.673556 96.781 168.1748
62.120468 96.762 168.0052
62.570618 96.743 167.8376
63.024031 96.723 167.6718
63.480729 96.703 167.5075
63.940736 96.683 167.3443
64.404077 96.663 167.1816
64.870776 96.642 167.0192
65.340856 96.622 166.8572
65.814343 96.601 166.6961
66.291261 96.580 166.5361
66.771635 96.559 166.3776
67.255489 96.538 166.2204
67.742850 96.517 166.0647
68.233743 96.496 165.9106
68.728193 96.475 165.7579
69.226226 96.453 165.6068
69.727867 96.432 165.4572
70.233144 96.410 165.3093
70.742083 96.388 165.1631
71.254709 96.366 165.0182
71.771050 96.343 164.8744
72.291132 96.321 164.7310
72.814984 96.299 164.5879
73.342631 96.277 164.4451
73.874102 96.255 164.3030
74.409424 96.232 164.1620
74.948626 96.210 164.0222
75.491734 96.188 163.8835
76.038779 96.166 163.7460
76.589787 96.145 163.6093
77.144788 96.124 163.4726
77.703811 96.103 163.3351
78.266885 96.082 163.1956
78.834039 96.061 163.0532
79.405303 96.040 162.9067
79.980706 96.019 162.7551
80.560280 95.997 162.5975
81.144053 95.974 162.4335
81.732056 95.950 162.2638
82.324320 95.924 162.0901
82.920876 95.897 161.9147
83.521755 95.868 161.7400
84.126988 95.838 161.5685
84.736607 95.807 161.4028
85.350643 95.774 161.2449
85.969129 95.741 161.0961
86.592097 95.708 160.9572
87.219579 95.674 160.8282
87.851608 95.640 160.7089
88.488217 95.607 160.5981
89.129439 95.574 160.4942
89.775308 95.542 160.3957
90.425856 95.510 160.3010
91.081119 95.478 160.2090
91.741131 95.447 160.1187
92.405925 95.415 160.0298
93.075536 95.384 159.9417
93.750000 95.353 159.8539
94.429351 95.322 159.7659
95.113625 95.290 159.6776
95.802858 95.259 159.5891
96.497085 95.227 159.5012
97.196342 95.195 159.4150
97.900667 95.162 159.3317
98.610096 95.130 159.2520
99.324665 95.096 159.1768
100.044413 95.063 159.1068
100.769376 95.030 159.0421
101.499592 94.997 158.9827
102.235100 94.963 158.9279
102.975938 94.931 158.8769
103.722144 94.898 158.8285
104.473757 94.867 158.7812
105.230817 94.835 158.7339
105.993363 94.804 158.6851
106.761435 94.773 158.6330
107.535072 94.742 158.5766
108.314315 94.710 158.5154
109.099206 94.678 158.4505
109.889783 94.644 158.3832
110.686090 94.610 158.3146
111.488167 94.575 158.2451
112.296056 94.539 158.1748
113.109800 94.501 158.1051
113.929440 94.462 158.0385
114.755020 94.421 157.9797
115.586582 94.378 157.9343
116.424170 94.334 157.9070
117.267827 94.289 157.9002
118.117598 94.245 157.9127
118.973527 94.202 157.9396
119.835658 94.160 157.9750
120.704037 94.120 158.0131
121.578708 94.081 158.0503
122.459718 94.044 158.0849
123.347111 94.008 158.1165
124.240935 93.972 158.1454
125.141236 93.937 158.1725
126.048061 93.902 158.1991
126.961458 93.867 158.2257
127.881473 93.832 158.2527
128.808154 93.797 158.2803
129.741551 93.761 158.3081
130.681712 93.725 158.3364
131.628686 93.689 158.3652
132.582521 93.652 158.3947
133.543269 93.615 158.4256
134.510979 93.577 158.4586
135.485701 93.539 158.4948
136.467486 93.500 158.5353
137.456386 93.461 158.5813
138.452451 93.421 158.6337
139.455735 93.382 158.6926
140.466288 93.342 158.7574
141.484165 93.303 158.8268
142.509418 93.264 158.8996
143.542100 93.225 158.9747
144.582265 93.185 159.0518
145.629968 93.146 159.1310
146.685262 93.106 159.2130
147.748204 93.066 159.2990
148.818849 93.026 159.3903
149.897251 92.984 159.4887
150.983469 92.942 159.5966
152.077557 92.899 159.7167
153.179574 92.856 159.8505
154.289576 92.813 159.9981
155.407622 92.772 160.1567
156.533770 92.732 160.3215
157.668078 92.694 160.4868
158.810606 92.657 160.6476
159.961413 92.622 160.8012
161.120559 92.587 160.9474
162.288105 92.551 161.0880
163.464112 92.515 161.2256
164.648640 92.478 161.3635
165.841752 92.440 161.5047
167.043510 92.401 161.6522
168.253976 92.362 161.8088
169.473213 92.322 161.9763
170.701286 92.283 162.1554
171.938258 92.245 162.3447
173.184194 92.209 162.5417
174.439158 92.174 162.7435
175.703216 92.140 162.9470
176.976434 92.107 163.1505
178.258878 92.075 163.3531
179.550615 92.044 163.5549
180.851713 92.013 163.7562
182.162239 91.982 163.9575
183.482262 91.952 164.1586
184.811850 91.922 164.3600
186.151073 91.893 164.5620
187.500000 91.864 164.7654
188.858702 91.834 164.9709
190.227250 91.805 165.1797
191.605715 91.776 165.3931
192.994169 91.747 165.6119
194.392685 91.718 165.8362
195.801334 91.691 166.0667
197.220191 91.663 166.3038
198.649330 91.637 166.5482
200.088825 91.611 166.7999
201.538751 91.587 167.0580
202.999184 91.564 167.3199
204.470200 91.543 167.5816
205.951875 91.523 167.8393
207.444287 91.504 168.0906
208.947514 91.485 168.3358
210.461634 91.465 168.5779
211.986726 91.443 168.8215
213.522869 91.421 169.0715
215.070144 91.397 169.3324
216.628631 91.372 169.6067
218.198411 91.348 169.8934
219.779567 91.325 170.1882
221.372180 91.303 170.4846
222.976334 91.284 170.7773
224.592112 91.265 171.0627
226.219600 91.248 171.3403
227.858880 91.230 171.6123
229.510039 91.213 171.8823
231.173164 91.196 172.1531
232.848340 91.179 172.4264
234.535655 91.161 172.7025
236.235197 91.144 172.9817
237.947054 91.127 173.2641
239.671317 91.109 173.5512
241.408074 91.091 173.8455
243.157416 91.072 174.1508
244.919435 91.053 174.4712
246.694223 91.034 174.8112
248.481871 91.016 175.1748
250.282473 90.999 175.5647
252.096123 90.986 175.9805
253.922915 90.979 176.4167
255.762945 90.979 176.8619
257.616309 90.986 177.2998
259.483103 90.999 177.7136
261.363424 91.016 178.0916
263.257372 91.036 178.4302
265.165043 91.055 178.7327
267.086538 91.073 179.0061
269.021957 91.089 179.2593
270.971401 91.103 179.5005
272.934972 91.115 179.7358
274.912771 91.126 179.9697
276.904902 91.136 -179.7955
278.911469 91.147 -179.5579
280.932577 91.157 -179.3174
282.968330 91.169 -179.0759
285.018835 91.182 -178.8380
287.084199 91.197 -178.6107
289.164530 91.212 -178.3999
291.259935 91.227 -178.2078
293.370525 91.241 -178.0300
295.496408 91.253 -177.8590
297.637697 91.263 -177.6878
299.794503 91.272 -177.5126
301.966937 91.280 -177.3329
304.155114 91.288 -177.1509
306.359147 91.296 -176.9699
308.579152 91.305 -176.7934
310.815244 91.313 -176.6234
313.067539 91.321 -176.4595
315.336156 91.328 -176.2986
317.621211 91.335 -176.1357
319.922826 91.341 -175.9657
322.241118 91.346 -175.7869
324.576210 91.352 -175.6005
326.928223 91.359 -175.4101
329.297280 91.366 -175.2195
331.683504 91.374 -175.0324
334.087019 91.382 -174.8514
336.507952 91.390 -174.6781
338.946427 91.398 -174.5126
341.402572 91.404 -174.3533
343.876516 91.410 -174.1971
346.368387 91.415 -174.0414
348.878315 91.419 -173.8844
351.406431 91.423 -173.7252
353.952867 91.426 -173.5638
356.517756 91.429 -173.4007
359.101230 91.432 -173.2366
361.703426 91.435 -173.0722
364.324478 91.438 -172.9078
366.964523 91.441 -172.7429
369.623699 91.444 -172.5771
372.302145 91.447 -172.4100
375.000000 91.450 -172.2414
377.717405 91.453 -172.0716
380.454501 91.456 -171.9012
383.211431 91.459 -171.7309
385.988339 91.462 -171.5610
388.785369 91.465 -171.3914
391.602668 91.468 -171.2220
394.440383 91.471 -171.0526
397.298660 91.474 -170.8832
400.177650 91.478 -170.7140
403.077502 91.482 -170.5460
405.998368 91.486 -170.3804
408.940400 91.489 -170.2177
411.903750 91.491 -170.0565
414.888575 91.493 -169.8938
417.895028 91.495 -169.7260
420.923268 91.496 -169.5506
423.973452 91.498 -169.3667
427.045738 91.501 -169.1759
430.140287 91.506 -168.9822
433.257261 91.512 -168.7913
436.396822 91.519 -168.6072
439.559133 91.527 -168.4314
442.744360 91.536 -168.2645
445.952668 91.545 -168.1084
449.184225 91.555 -167.9670
452.439199 91.564 -167.8455
455.717760 91.571 -167.7461
459.020079 91.576 -167.6651
462.346327 91.577 -167.5926
465.696680 91.574 -167.5175
469.071310 91.568 -167.4324
472.470394 91.561 -167.3347
475.894109 91.552 -167.2252
479.342634 91.544 -167.1071
482.816148 91.534 -166.9837
486.314833 91.523 -166.8551
489.838871 91.511 -166.7157
493.388445 91.497 -166.5569
496.963741 91.483 -166.3738
500.564945 91.469 -166.1688
504.192245 91.457 -165.9489
507.845830 91.446 -165.7211
511.525890 91.436 -165.4894
515.232618 91.427 -165.2545
518.966206 91.417 -165.0150
522.726849 91.408 -164.7686
526.514743 91.400 -164.5125
530.330086 91.393 -164.2463
534.173076 91.389 -163.9732
538.043915 91.386 -163.6989
541.942803 91.385 -163.4276
545.869944 91.385 -163.1606
549.825542 91.386 -162.8987
553.809805 91.389 -162.6441
557.822939 91.392 -162.3991
561.865154 91.396 -162.1643
565.936660 91.399 -161.9383
570.037671 91.401 -161.7180
574.168399 91.401 -161.5002
578.329060 91.401 -161.2831
582.519870 91.399 -161.0660
586.741049 91.397 -160.8480
590.992817 91.394 -160.6256
595.275394 91.390 -160.3952
599.589005 91.386 -160.1568
603.933874 91.382 -159.9134
608.310228 91.379 -159.6682
612.718295 91.375 -159.4219
617.158304 91.370 -159.1721
621.630488 91.364 -158.9131
626.135079 91.357 -158.6389
630.672311 91.350 -158.3473
635.242423 91.345 -158.0423
639.845651 91.341 -157.7300
644.482237 91.338 -157.4126
649.152421 91.337 -157.0889
653.856447 91.337 -156.7597
658.594560 91.340 -156.4313
663.367008 91.346 -156.1136
668.174039 91.352 -155.8147
673.015903 91.357 -155.5344
677.892854 91.360 -155.2661
682.805145 91.360 -155.0019
687.753032 91.358 -154.7357
692.736774 91.354 -154.4625
697.756631 91.349 -154.1776
702.812863 91.343 -153.8786
707.905735 91.338 -153.5668
713.035511 91.334 -153.2461
718.202461 91.330 -152.9197
723.406852 91.326 -152.5880
728.648956 91.323 -152.2494
733.929047 91.320 -151.9022
739.247399 91.317 -151.5462
744.604290 91.313 -151.1816
750.000000 91.311 -150.8094
755.434809 91.308 -150.4298
760.909001 91.306 -150.0427
766.422861 91.305 -149.6478
771.976677 91.305 -149.2454
777.570739 91.305 -148.8361
783.205337 91.306 -148.4200
788.880766 91.307 -147.9961
794.597321 91.310 -147.5615
800.355301 91.313 -147.1139
806.155005 91.320 -146.6549
811.996736 91.329 -146.1902
817.880799 91.342 -145.7284
823.807501 91.358 -145.2785
829.777150 91.375 -144.8483
835.790057 91.393 -144.4401
841.846536 91.409 -144.0474
847.946903 91.423 -143.6604
854.091476 91.435 -143.2716
860.280575 91.445 -142.8774
866.514523 91.455 -142.4749
872.793644 91.464 -142.0608
879.118267 91.474 -141.6345
885.488720 91.485 -141.1993
891.905336 91.497 -140.7585
898.368450 91.510 -140.3121
904.878398 91.524 -139.8582
911.435520 91.538 -139.3955
918.040157 91.553 -138.9245
924.692655 91.570 -138.4467
931.393359 91.588 -137.9642
938.142619 91.608 -137.4803
944.940787 91.629 -136.9976
951.788218 91.652 -136.5168
958.685268 91.675 -136.0376
965.632296 91.700 -135.5594
972.629666 91.726 -135.0810
979.677741 91.755 -134.6026
986.776890 91.785 -134.1255
993.927482 91.817 -133.6486
1001.129891 91.850 -133.1674
1008.384491 91.887 -132.6779
1015.691660 91.927 -132.1808
1023.051781 91.971 -131.6818
1030.465236 92.020 -131.1894
1037.932411 92.074 -130.7159
1045.453698 92.131 -130.2749
1053.029486 92.190 -129.8729
1060.660172 92.249 -129.5079
1068.346153 92.306 -129.1725
1076.087829 92.361 -128.8581
1083.885605 92.415 -128.5587
1091.739887 92.467 -128.2723
1099.651084 92.518 -127.9985
1107.619609 92.568 -127.7362
1115.645878 92.616 -127.4837
1123.730308 92.663 -127.2385
1131.873321 92.708 -126.9980
1140.075341 92.751 -126.7599
1148.336797 92.793 -126.5221
1156.658119 92.834 -126.2826
1165.039741 92.873 -126.0387
1173.482099 92.912 -125.7874
1181.985634 92.952 -125.5278
1190.550789 92.994 -125.2648
1199.178011 93.037 -125.0087
1207.867749 93.082 -124.7706
1216.620457 93.126 -124.5562
1225.436590 93.169 -124.3620
1234.316609 93.208 -124.1798
1243.260976 93.244 -124.0008
1252.270157 93.277 -123.8174
1261.344623 93.307 -123.6250
1270.484846 93.336 -123.4220
1279.691303 93.363 -123.2067
1288.964474 93.389 -122.9771
1298.304842 93.414 -122.7337
1307.712894 93.440 -122.4789
1317.189120 93.467 -122.2168
1326.734016 93.493 -121.9498
1336.348077 93.520 -121.6774
1346.031806 93.548 -121.3972
1355.785708 93.576 -121.1056
1365.610290 93.605 -120.7993
1375.506065 93.635 -120.4739
1385.473549 93.668 -120.1246
1395.513261 93.704 -119.7503
1405.625726 93.745 -119.3559
1415.811469 93.790 -118.9532
1426.071023 93.839 -118.5566
1436.404921 93.891 -118.1760
1446.813703 93.944 -117.8127
1457.297912 93.996 -117.4616
1467.858093 94.046 -117.1169
1478.494798 94.096 -116.7743
1489.208581 94.143 -116.4302
1500.000000 94.188 -116.0811
1510.869618 94.230 -115.7238
1521.818002 94.269 -115.3556
1532.845723 94.305 -114.9741
1543.953355 94.338 -114.5780
1555.141477 94.370 -114.1671
1566.410674 94.403 -113.7457
1577.761531 94.439 -113.3249
1589.194642 94.478 -112.9190
1600.710601 94.519 -112.5375
1612.310010 94.560 -112.1814
1623.993473 94.600 -111.8459
1635.761599 94.640 -111.5241
1647.615002 94.678 -111.2101
1659.554299 94.716 -110.8991
1671.580114 94.754 -110.5878
1683.693072 94.792 -110.2755
1695.893807 94.830 -109.9642
1708.182952 94.869 -109.6561
1720.561150 94.907 -109.3512
1733.029045 94.944 -109.0466
1745.587288 94.979 -108.7378
1758.236533 95.013 -108.4183
1770.977440 95.048 -108.0830
1783.810673 95.085 -107.7328
1796.736900 95.125 -107.3774
1809.756796 95.170 -107.0316
1822.871040 95.218 -106.7072
1836.080315 95.267 -106.4086
1849.385310 95.318 -106.1352
1862.786718 95.370 -105.8836
1876.285239 95.421 -105.6494
1889.881575 95.474 -105.4268
1903.576436 95.529 -105.2100
1917.370535 95.587 -104.9936
1931.264593 95.649 -104.7743
1945.259332 95.718 -104.5537
1959.355483 95.792 -104.3407
1973.553781 95.872 -104.1492
1987.854965 95.955 -103.9902
2002.259781 96.038 -103.8674
2016.768981 96.122 -103.7790
2031.383320 96.203 -103.7196
2046.103561 96.282 -103.6832
2060.930471 96.358 -103.6648
2075.864823 96.432 -103.6618
2090.907395 96.504 -103.6728
2106.058972 96.571 -103.6952
2121.320344 96.635 -103.7230
2136.692305 96.694 -103.7479
2152.175658 96.751 -103.7613
2167.771210 96.805 -103.7603
2183.479774 96.859 -103.7509
2199.302169 96.914 -103.7439
2215.239219 96.968 -103.7484
2231.291755 97.021 -103.7685
2247.460615 97.072 -103.8037
2263.746641 97.121 -103.8501
2280.150683 97.167 -103.9005
2296.673595 97.211 -103.9466
2313.316238 97.253 -103.9814
2330.079481 97.296 -104.0034
2346.964198 97.341 -104.0194
2363.971268 97.387 -104.0413
2381.101578 97.435 -104.0792
2398.356022 97.483 -104.1381
2415.735498 97.530 -104.2184
2433.240913 97.576 -104.3177
2450.873180 97.620 -104.4330
2468.633217 97.662 -104.5625
2486.521951 97.701 -104.7035
2504.540314 97.739 -104.8512
2522.689246 97.774 -104.9973
2540.969692 97.808 -105.1345
2559.382606 97.842 -105.2617
2577.928947 97.878 -105.3864
2596.609683 97.916 -105.5198
2615.425787 97.956 -105.6719
2634.378241 97.996 -105.8491
2653.468031 98.036 -106.0533
2672.696154 98.075 -106.2817
2692.063613 98.113 -106.5297
2711.571415 98.151 -106.7955
2731.220579 98.190 -107.0852
2751.012130 98.230 -107.4108
2770.947098 98.270 -107.7848
2791.026522 98.307 -108.2163
2811.251451 98.340 -108.7086
2831.622938 98.367 -109.2605
2852.142045 98.386 -109.8668
2872.809842 98.394 -110.5174
2893.627406 98.391 -111.1959
2914.595823 98.374 -111.8791
2935.716186 98.344 -112.5421
2956.989596 98.304 -113.1653
2978.417161 98.255 -113.7349
3000.000000 98.197 -114.2416
3021.739237 98.134 -114.6779
3043.636005 98.067 -115.0374
3065.691446 97.997 -115.3138
3087.906710 97.929 -115.5043
3110.282955 97.864 -115.6145
3132.821347 97.807 -115.6605
3155.523062 97.758 -115.6655
3178.389283 97.717 -115.6533
3201.421202 97.684 -115.6448
3224.620020 97.657 -115.6563
3247.986946 97.634 -115.6987
3271.523198 97.613 -115.7761
3295.230004 97.592 -115.8838
3319.108599 97.570 -116.0123
3343.160228 97.548 -116.1542
3367.386145 97.525 -116.3067
3391.787613 97.501 -116.4701
3416.365904 97.476 -116.6436
3441.122300 97.449 -116.8219
3466.058091 97.419 -116.9945
3491.174576 97.388 -117.1500
3516.473066 97.356 -117.2825
3541.954880 97.324 -117.3934
3567.621345 97.293 -117.4880
3593.473800 97.264 -117.5731
3619.513592 97.236 -117.6554
3645.742080 97.208 -117.7396
3672.160630 97.179 -117.8246
3698.770620 97.149 -117.9028
3725.573436 97.117 -117.9660
3752.570477 97.084 -118.0108
3779.763150 97.052 -118.0386
3807.152872 97.019 -118.0518
3834.741071 96.986 -118.0490
3862.529185 96.952 -118.0235
3890.518664 96.919 -117.9692
3918.710966 96.888 -117.8868
3947.107561 96.863 -117.7844
3975.709929 96.843 -117.6750
4004.519563 96.830 -117.5744
4033.537962 96.822 -117.4973
4062.766641 96.820 -117.4527
4092.207123 96.821 -117.4418
4121.860942 96.825 -117.4643
4151.729646 96.832 -117.5232
4181.814790 96.841 -117.6240
4212.117944 96.852 -117.7708
4242.640687 96.862 -117.9611
4273.384610 96.872 -118.1894
4304.351317 96.882 -118.4529
4335.542421 96.892 -118.7553
4366.959549 96.903 -119.1061
4398.604338 96.914 -119.5185
4430.478438 96.924 -120.0043
4462.583511 96.930 -120.5680
4494.921231 96.932 -121.2068
4527.493283 96.927 -121.9154
4560.301365 96.914 -122.6895
4593.347189 96.892 -123.5231
4626.632476 96.858 -124.4045
4660.158962 96.812 -125.3163
4693.928395 96.755 -126.2412
4727.942535 96.687 -127.1669
4762.203156 96.610 -128.0880
4796.712043 96.525 -129.0052
4831.470996 96.432 -129.9213
4866.481826 96.331 -130.8353
4901.746360 96.221 -131.7428
4937.266434 96.102 -132.6395
4973.043902 95.973 -133.5226
5009.080628 95.834 -134.3854
5045.378492 95.685 -135.2153
5081.939384 95.524 -135.9968
5118.765212 95.354 -136.7160
5155.857894 95.176 -137.3654
5193.219366 94.993 -137.9450
5230.851574 94.806 -138.4587
5268.756481 94.614 -138.9087
5306.936062 94.420 -139.2963
5345.392309 94.224 -139.6246
5384.127225 94.025 -139.8965
5423.142830 93.823 -140.1103
5462.441159 93.618 -140.2582
5502.024259 93.412 -140.3309
5541.894195 93.207 -140.3230
5582.053045 93.005 -140.2372
5622.502902 92.808 -140.0828
5663.245876 92.619 -139.8709
5704.284090 92.439 -139.6133
5745.619684 92.269 -139.3236
5787.254813 92.109 -139.0146
5829.191647 91.957 -138.6929
5871.432373 91.813 -138.3575
5913.979192 91.677 -138.0041
5956.834323 91.550 -137.6303
6000.000000 91.434 -137.2388
6043.478473 91.328 -136.8350
6087.272010 91.235 -136.4258
6131.382892 91.154 -136.0204
6175.813420 91.087 -135.6294
6220.565910 91.032 -135.2597
6265.642695 90.989 -134.9132
6311.046124 90.958 -134.5881
6356.778566 90.939 -134.2844
6402.842404 90.934 -134.0067
6449.240040 90.944 -133.7623
6495.973891 90.968 -133.5611
6543.046396 91.006 -133.4156
6590.460007 91.059 -133.3366
6638.217197 91.124 -133.3300
6686.320456 91.201 -133.3960
6734.772290 91.289 -133.5328
6783.575226 91.388 -133.7406
6832.731809 91.498 -134.0222
6882.244600 91.619 -134.3835
6932.116181 91.750 -134.8336
6982.349153 91.890 -135.3827
7032.946133 92.037 -136.0374
7083.909760 92.190 -136.7997
7135.242690 92.350 -137.6697
7186.947600 92.515 -138.6482
7239.027185 92.686 -139.7380
7291.484160 92.863 -140.9453
7344.321260 93.044 -142.2803
7397.541239 93.228 -143.7529
7451.146872 93.410 -145.3680
7505.140954 93.590 -147.1235
7559.526299 93.764 -149.0137
7614.305743 93.931 -151.0305
7669.482141 94.089 -153.1661
7725.058371 94.237 -155.4163
7781.037328 94.373 -157.7782
7837.421932 94.494 -160.2452
7894.215122 94.597 -162.8045
7951.419859 94.680 -165.4382
8009.039125 94.741 -168.1253
8067.075924 94.780 -170.8438
8125.533282 94.795 -173.5737
8184.414245 94.788 -176.2980
8243.721885 94.756 -178.9990
8303.459292 94.701 178.3438
8363.629581 94.620 175.7543
8424.235888 94.514 173.2621
8485.281374 94.385 170.8997
8546.769221 94.236 168.6964
8608.702634 94.071 166.6733
8671.084842 93.897 164.8362
8733.919097 93.718 163.1749
8797.208675 93.537 161.6732
8860.956876 93.357 160.3188
8925.167022 93.176 159.1036
8989.842461 92.998 158.0196
9054.986566 92.821 157.0582
9120.602731 92.647 156.2130
9186.694378 92.475 155.4806
9253.264952 92.305 154.8616
9320.317925 92.140 154.3553
9387.856790 91.980 153.9551
9455.885071 91.826 153.6497
9524.406312 91.680 153.4278
9593.424086 91.541 153.2830
9662.941992 91.408 153.2161
9732.963653 91.281 153.2291
9803.492719 91.163 153.3199
9874.532869 91.054 153.4805
9946.087805 90.952 153.7014
10018.161257 90.857 153.9783
10090.756983 90.769 154.3136
10163.878768 90.687 154.7106
10237.530423 90.611 155.1680
10311.715789 90.544 155.6804
10386.438732 90.483 156.2417
10461.703149 90.431 156.8498
10537.512962 90.386 157.5038
10613.872125 90.350 158.1987
10690.784618 90.323 158.9237
10768.254450 90.304 159.6665
10846.285661 90.294 160.4204
10924.882318 90.290 161.1856
11004.048518 90.292 161.9623
11083.788390 90.302 162.7459
11164.106090 90.319 163.5271
11245.005805 90.343 164.2988
11326.491752 90.373 165.0591
11408.568180 90.410 165.8062
11491.239368 90.454 166.5338
11574.509626 90.504 167.2302
11658.383294 90.560 167.8867
11742.864745 90.619 168.5004
11827.958384 90.682 169.0723
11913.668646 90.747 169.6005
12000.000000 90.816 170.0807
12086.956947 90.885 170.5102
12174.544019 90.957 170.8893
12262.765784 91.031 171.2165
12351.626840 91.107 171.4831
12441.131819 91.185 171.6772
12531.285389 91.266 171.7897
12622.092249 91.347 171.8149
12713.557132 91.431 171.7442
12805.684808 91.516 171.5605
12898.480079 91.601 171.2428
12991.947783 91.684 170.7720
13086.092792 91.762 170.1332
13180.920015 91.830 169.3139
13276.434395 91.886 168.3058
13372.640911 91.923 167.1111
13469.544580 91.936 165.7429
13567.150452 91.921 164.2209
13665.463617 91.875 162.5669
13764.489200 91.794 160.8065
13864.232362 91.675 158.9702
13964.698305 91.518 157.0895
14065.892266 91.322 155.1912
14167.819519 91.089 153.2976
14270.485380 90.817 151.4294
14373.895200 90.507 149.6042
14478.054370 90.159 147.8347
14582.968320 89.772 146.1344
14688.642520 89.343 144.5274
14795.082478 88.869 143.0547
14902.293745 88.346 141.7797
15010.281908 87.773 140.7936
15119.052599 87.155 140.2102
15228.611486 86.505 140.1329
15338.964283 85.848 140.6003
15450.116741 85.212 141.5450
15562.074656 84.617 142.8094
15674.843864 84.071 144.2184
15788.430244 83.569 145.6514
15902.839718 83.098 147.0669
16018.078250 82.646 148.4818
16134.151848 82.206 149.9333
16251.066563 81.775 151.4507
16368.828491 81.354 153.0456
16487.443769 80.945 154.7111
16606.918584 80.549 156.4233
16727.259161 80.167 158.1514
16848.471777 79.799 159.8702
16970.562748 79.440 161.5647
17093.538442 79.091 163.2323
17217.405268 78.747 164.8856
17342.169684 78.411 166.5475
17467.838194 78.083 168.2404
17594.417350 77.767 169.9768
17721.913751 77.470 171.7462
17850.334044 77.199 173.4998
17979.684923 76.960 175.1444
18109.973131 76.755 176.5493
18241.205462 76.580 177.5639
18373.388756 76.420 178.0454
18506.529905 76.254 177.8904
18640.635849 76.052 177.0567
18775.713581 75.780 175.5751
18911.770141 75.404 173.5553
19048.812624 74.895 171.1804
19186.848172 74.233 168.6915
19325.883983 73.410 166.3653
19465.927305 72.439 164.4807
19606.985439 71.362 163.2659
19749.065738 70.272 162.8106
19892.175609 69.335 162.9512
20036.322514 68.775 163.2459
