* Measurement data measured by REW V5.31
* Source: EXCL: Microphone (USB Sound Device        ), MICROPHONE (Master Volume), L, volume: 0.390
* Format: 256k Log Swept Sine, 1 sweep at -10.0 dBFS with no timing reference
* Dated: Oct 1, 2024 12:03:26 AM
* REW Settings:
*  C-weighting compensation: Off
*  Target level: 75.0 dB
* Note: ELISE AUDIO x Kinera Dark Phoenix
* Measurement: L Oct 1
* Smoothing: 1/12 octave
* Frequency Step: 96 ppo
* Start Frequency: 0.36621094 Hz
*
* Freq(Hz)	SPL(dB)	Phase(degrees)
0.366211	89.018	160.8597
0.368865	89.012	160.8397
0.371538	89.003	160.8096
0.374230	88.992	160.7719
0.376942	88.979	160.7285
0.379673	88.966	160.6807
0.382424	88.952	160.6296
0.385196	88.937	160.5756
0.387987	88.923	160.5192
0.390798	88.908	160.4605
0.393630	88.893	160.3996
0.396483	88.878	160.3365
0.399356	88.862	160.2712
0.402250	88.847	160.2038
0.405165	88.832	160.1342
0.408101	88.816	160.0623
0.411058	88.800	159.9883
0.414037	88.784	159.9119
0.417037	88.768	159.8333
0.420059	88.752	159.7524
0.423103	88.736	159.6692
0.426169	88.720	159.5837
0.429257	88.703	159.4958
0.432368	88.687	159.4055
0.435501	88.670	159.3129
0.438656	88.653	159.2178
0.441835	88.636	159.1203
0.445037	88.619	159.0203
0.448262	88.602	158.9178
0.451510	88.585	158.8129
0.454782	88.567	158.7054
0.458077	88.550	158.5954
0.461397	88.532	158.4829
0.464740	88.514	158.3678
0.468108	88.496	158.2502
0.471500	88.478	158.1300
0.474917	88.460	158.0071
0.478358	88.442	157.8817
0.481825	88.423	157.7536
0.485316	88.405	157.6228
0.488833	88.386	157.4895
0.492375	88.367	157.3534
0.495943	88.348	157.2147
0.499537	88.329	157.0734
0.503157	88.310	156.9293
0.506803	88.290	156.7826
0.510475	88.271	156.6332
0.514175	88.251	156.4811
0.517900	88.231	156.3263
0.521653	88.211	156.1688
0.525434	88.191	156.0087
0.529241	88.171	155.8458
0.533076	88.151	155.6803
0.536939	88.130	155.5122
0.540830	88.109	155.3414
0.544749	88.088	155.1679
0.548696	88.067	154.9919
0.552673	88.046	154.8132
0.556677	88.025	154.6319
0.560711	88.003	154.4481
0.564774	87.982	154.2618
0.568867	87.960	154.0729
0.572989	87.938	153.8816
0.577141	87.916	153.6879
0.581324	87.894	153.4917
0.585536	87.871	153.2932
0.589779	87.849	153.0924
0.594053	87.826	152.8893
0.598358	87.803	152.6840
0.602694	87.780	152.4766
0.607061	87.757	152.2671
0.611460	87.733	152.0556
0.615891	87.710	151.8421
0.620354	87.686	151.6268
0.624849	87.662	151.4096
0.629377	87.638	151.1908
0.633938	87.614	150.9704
0.638532	87.589	150.7484
0.643159	87.565	150.5251
0.647819	87.540	150.3005
0.652514	87.515	150.0747
0.657242	87.490	149.8479
0.662005	87.464	149.6202
0.666802	87.439	149.3917
0.671634	87.413	149.1626
0.676501	87.387	148.9331
0.681403	87.361	148.7032
0.686341	87.335	148.4733
0.691314	87.308	148.2433
0.696324	87.281	148.0137
0.701370	87.254	147.7843
0.706452	87.227	147.5555
0.711571	87.199	147.3273
0.716728	87.170	147.0996
0.721921	87.140	146.8723
0.727153	87.108	146.6448
0.732422	87.074	146.4167
0.737729	87.038	146.1869
0.743075	87.000	145.9546
0.748460	86.960	145.7190
0.753883	86.919	145.4794
0.759346	86.877	145.2354
0.764849	86.834	144.9868
0.770391	86.790	144.7332
0.775974	86.746	144.4745
0.781597	86.701	144.2107
0.787261	86.656	143.9416
0.792966	86.610	143.6672
0.798712	86.563	143.3874
0.804500	86.517	143.1021
0.810329	86.469	142.8114
0.816201	86.421	142.5151
0.822116	86.372	142.2132
0.828073	86.323	141.9057
0.834074	86.272	141.5925
0.840118	86.221	141.2735
0.846206	86.169	140.9489
0.852338	86.117	140.6184
0.858514	86.063	140.2822
0.864735	86.008	139.9401
0.871001	85.953	139.5923
0.877313	85.896	139.2386
0.883670	85.839	138.8791
0.890074	85.780	138.5139
0.896524	85.720	138.1429
0.903020	85.658	137.7662
0.909564	85.596	137.3839
0.916155	85.532	136.9960
0.922794	85.467	136.6026
0.929481	85.400	136.2037
0.936216	85.331	135.7996
0.943000	85.261	135.3904
0.949834	85.190	134.9761
0.956717	85.116	134.5570
0.963649	85.041	134.1332
0.970632	84.964	133.7050
0.977666	84.885	133.2727
0.984750	84.804	132.8364
0.991886	84.721	132.3966
0.999074	84.636	131.9534
1.006314	84.548	131.5074
1.013606	84.458	131.0589
1.020951	84.365	130.6084
1.028349	84.270	130.1563
1.035801	84.173	129.7032
1.043307	84.072	129.2496
1.050867	83.969	128.7962
1.058482	83.862	128.3435
1.066152	83.753	127.8922
1.073878	83.640	127.4427
1.081660	83.524	126.9955
1.089498	83.404	126.5508
1.097393	83.280	126.1085
1.105345	83.152	125.6682
1.113355	83.020	125.2294
1.121423	82.882	124.7911
1.129549	82.740	124.3530
1.137734	82.593	123.9141
1.145979	82.440	123.4742
1.154283	82.283	123.0325
1.162647	82.121	122.5887
1.171072	81.955	122.1422
1.179558	81.784	121.6925
1.188106	81.608	121.2392
1.196715	81.428	120.7816
1.205387	81.244	120.3191
1.214122	81.056	119.8512
1.222920	80.864	119.3771
1.231782	80.668	118.8961
1.240708	80.469	118.4074
1.249699	80.267	117.9102
1.258754	80.061	117.4036
1.267876	79.853	116.8865
1.277063	79.643	116.3580
1.286318	79.430	115.8168
1.295639	79.214	115.2617
1.305027	78.997	114.6914
1.314484	78.779	114.1044
1.324009	78.559	113.4991
1.333604	78.339	112.8737
1.343268	78.118	112.2265
1.353002	77.896	111.5553
1.362806	77.675	110.8579
1.372681	77.455	110.1320
1.382628	77.235	109.3749
1.392647	77.016	108.5839
1.402739	76.799	107.7560
1.412904	76.584	106.8880
1.423142	76.371	105.9766
1.433455	76.160	105.0181
1.443843	75.951	104.0091
1.454305	75.743	102.9454
1.464844	75.536	101.8230
1.475459	75.327	100.6366
1.486150	75.114	99.3800
1.496920	74.898	98.0452
1.507767	74.676	96.6218
1.518693	74.450	95.0975
1.529698	74.218	93.4570
1.540783	73.981	91.6819
1.551948	73.741	89.7501
1.563194	73.497	87.6351
1.574521	73.251	85.3053
1.585931	73.003	82.7226
1.597423	72.755	79.8416
1.608999	72.509	76.6088
1.620658	72.264	72.9623
1.632402	72.023	68.8325
1.644232	71.787	64.1456
1.656146	71.557	58.8314
1.668147	71.335	52.8372
1.680235	71.122	46.1492
1.692411	70.920	38.8192
1.704675	70.731	30.9858
1.717028	70.556	22.8755
1.729470	70.398	14.7720
1.742003	70.259	6.9585
1.754626	70.141	-0.3395
1.767341	70.045	-6.9853
1.780147	69.975	-12.9299
1.793047	69.934	-18.1910
1.806040	69.923	-22.8270
1.819128	69.945	-26.9153
1.832310	70.004	-30.5380
1.845587	70.101	-33.7728
1.858961	70.236	-36.6867
1.872432	70.411	-39.3343
1.886001	70.625	-41.7585
1.899667	70.874	-43.9923
1.913433	71.158	-46.0617
1.927299	71.473	-47.9868
1.941265	71.816	-49.7840
1.955332	72.184	-51.4665
1.969501	72.573	-53.0451
1.983773	72.980	-54.5288
1.998148	73.402	-55.9253
2.012627	73.834	-57.2408
2.027212	74.273	-58.4808
2.041902	74.715	-59.6497
2.056698	75.155	-60.7514
2.071602	75.591	-61.7892
2.086614	76.018	-62.7661
2.101734	76.432	-63.6846
2.116964	76.831	-64.5472
2.132304	77.209	-65.3565
2.147756	77.566	-66.1155
2.163320	77.898	-66.8280
2.178996	78.205	-67.4987
2.194786	78.488	-68.1338
2.210690	78.749	-68.7400
2.226710	78.989	-69.3240
2.242845	79.211	-69.8911
2.259098	79.417	-70.4451
2.275468	79.610	-70.9880
2.291957	79.789	-71.5206
2.308566	79.957	-72.0431
2.325295	80.114	-72.5550
2.342145	80.261	-73.0554
2.359117	80.400	-73.5432
2.376212	80.531	-74.0173
2.393431	80.655	-74.4763
2.410775	80.774	-74.9189
2.428244	80.887	-75.3435
2.445840	80.998	-75.7487
2.463564	81.106	-76.1331
2.481416	81.213	-76.4954
2.499397	81.319	-76.8343
2.517509	81.426	-77.1492
2.535752	81.533	-77.4399
2.554127	81.640	-77.7072
2.572635	81.747	-77.9522
2.591277	81.851	-78.1772
2.610055	81.953	-78.3840
2.628968	82.052	-78.5745
2.648019	82.147	-78.7501
2.667208	82.238	-78.9119
2.686535	82.325	-79.0605
2.706003	82.409	-79.1965
2.725612	82.490	-79.3203
2.745363	82.569	-79.4322
2.765257	82.645	-79.5322
2.785295	82.721	-79.6206
2.805478	82.795	-79.6975
2.825808	82.869	-79.7627
2.846285	82.944	-79.8162
2.866910	83.018	-79.8579
2.887685	83.094	-79.8873
2.908611	83.171	-79.9039
2.929688	83.249	-79.9071
2.950917	83.328	-79.8964
2.972301	83.406	-79.8714
2.993839	83.485	-79.8322
3.015534	83.563	-79.7797
3.037386	83.641	-79.7149
3.059396	83.719	-79.6393
3.081565	83.797	-79.5545
3.103896	83.875	-79.4622
3.126388	83.953	-79.3644
3.149043	84.032	-79.2627
3.171862	84.111	-79.1591
3.194847	84.191	-79.0550
3.217998	84.273	-78.9517
3.241317	84.356	-78.8502
3.264805	84.440	-78.7506
3.288463	84.526	-78.6525
3.312293	84.614	-78.5548
3.336295	84.704	-78.4566
3.360471	84.795	-78.3572
3.384822	84.887	-78.2567
3.409350	84.981	-78.1563
3.434056	85.076	-78.0573
3.458940	85.172	-77.9618
3.484005	85.269	-77.8720
3.509252	85.366	-77.7901
3.534681	85.463	-77.7183
3.560295	85.561	-77.6588
3.586094	85.659	-77.6134
3.612081	85.757	-77.5833
3.638255	85.855	-77.5694
3.664620	85.952	-77.5717
3.691175	86.050	-77.5896
3.717923	86.148	-77.6222
3.744864	86.246	-77.6685
3.772001	86.345	-77.7278
3.799335	86.443	-77.7995
3.826866	86.541	-77.8832
3.854597	86.638	-77.9786
3.882529	86.734	-78.0855
3.910664	86.830	-78.2041
3.939002	86.924	-78.3342
3.967546	87.016	-78.4762
3.996296	87.107	-78.6304
4.025255	87.196	-78.7972
4.054423	87.283	-78.9768
4.083804	87.368	-79.1694
4.113396	87.452	-79.3745
4.143204	87.534	-79.5912
4.173227	87.614	-79.8185
4.203468	87.692	-80.0549
4.233928	87.768	-80.2990
4.264609	87.843	-80.5493
4.295512	87.915	-80.8046
4.326639	87.985	-81.0642
4.357992	88.054	-81.3275
4.389572	88.119	-81.5948
4.421380	88.183	-81.8664
4.453419	88.244	-82.1428
4.485691	88.303	-82.4243
4.518196	88.359	-82.7101
4.550936	88.413	-82.9992
4.583914	88.465	-83.2901
4.617131	88.515	-83.5812
4.650589	88.564	-83.8706
4.684289	88.610	-84.1570
4.718233	88.656	-84.4391
4.752424	88.700	-84.7164
4.786862	88.742	-84.9889
4.821549	88.782	-85.2568
4.856488	88.821	-85.5207
4.891680	88.859	-85.7808
4.927127	88.895	-86.0371
4.962831	88.930	-86.2895
4.998794	88.964	-86.5376
5.035017	88.999	-86.7809
5.071503	89.032	-87.0190
5.108253	89.066	-87.2513
5.145270	89.100	-87.4775
5.182555	89.134	-87.6977
5.220110	89.168	-87.9123
5.257937	89.202	-88.1223
5.296038	89.236	-88.3288
5.334415	89.271	-88.5333
5.373071	89.307	-88.7372
5.412006	89.343	-88.9416
5.451224	89.380	-89.1474
5.490725	89.418	-89.3550
5.530514	89.458	-89.5646
5.570590	89.498	-89.7764
5.610957	89.540	-89.9911
5.651616	89.583	-90.2096
5.692570	89.627	-90.4337
5.733821	89.671	-90.6651
5.775370	89.717	-90.9053
5.817221	89.763	-91.1559
5.859375	89.810	-91.4177
5.901834	89.858	-91.6910
5.944602	89.907	-91.9760
5.987679	89.956	-92.2726
6.031068	90.005	-92.5809
6.074771	90.055	-92.9011
6.118792	90.104	-93.2336
6.163131	90.153	-93.5789
6.207792	90.202	-93.9374
6.252776	90.250	-94.3095
6.298086	90.297	-94.6948
6.343725	90.343	-95.0928
6.389694	90.389	-95.5022
6.435996	90.433	-95.9214
6.482634	90.477	-96.3490
6.529610	90.519	-96.7836
6.576926	90.559	-97.2243
6.624585	90.598	-97.6707
6.672590	90.635	-98.1222
6.720942	90.671	-98.5778
6.769645	90.705	-99.0358
6.818700	90.738	-99.4942
6.868111	90.770	-99.9508
6.917881	90.801	-100.4037
6.968010	90.830	-100.8515
7.018504	90.858	-101.2936
7.069362	90.886	-101.7293
7.120590	90.913	-102.1579
7.172189	90.939	-102.5786
7.224161	90.966	-102.9902
7.276511	90.992	-103.3915
7.329239	91.020	-103.7817
7.382350	91.048	-104.1604
7.435845	91.077	-104.5280
7.489729	91.108	-104.8852
7.544002	91.140	-105.2332
7.598669	91.174	-105.5732
7.653732	91.211	-105.9061
7.709194	91.250	-106.2327
7.765058	91.292	-106.5541
7.821327	91.336	-106.8716
7.878004	91.383	-107.1876
7.935091	91.434	-107.5046
7.992592	91.486	-107.8252
8.050510	91.542	-108.1516
8.108847	91.601	-108.4855
8.167607	91.662	-108.8279
8.226793	91.725	-109.1806
8.286408	91.791	-109.5451
8.346454	91.858	-109.9233
8.406936	91.926	-110.3167
8.467856	91.995	-110.7262
8.529218	92.065	-111.1519
8.591024	92.135	-111.5934
8.653278	92.205	-112.0501
8.715983	92.274	-112.5213
8.779143	92.342	-113.0064
8.842760	92.408	-113.5045
8.906839	92.472	-114.0140
8.971381	92.535	-114.5327
9.036392	92.594	-115.0579
9.101873	92.651	-115.5868
9.167829	92.705	-116.1170
9.234263	92.756	-116.6462
9.301178	92.804	-117.1718
9.368578	92.848	-117.6908
9.436467	92.890	-118.1998
9.504847	92.928	-118.6956
9.573723	92.964	-119.1756
9.643099	92.996	-119.6376
9.712976	93.025	-120.0797
9.783361	93.051	-120.4996
9.854255	93.073	-120.8954
9.925663	93.092	-121.2655
9.997588	93.109	-121.6094
10.070035	93.123	-121.9268
10.143007	93.135	-122.2181
10.216507	93.147	-122.4840
10.290540	93.159	-122.7255
10.365109	93.171	-122.9441
10.440219	93.184	-123.1420
10.515873	93.200	-123.3223
10.592076	93.217	-123.4880
10.668830	93.237	-123.6422
10.746141	93.261	-123.7881
10.824012	93.287	-123.9293
10.902447	93.316	-124.0694
10.981451	93.348	-124.2120
11.061027	93.382	-124.3603
11.141180	93.419	-124.5169
11.221913	93.457	-124.6843
11.303232	93.497	-124.8647
11.385140	93.537	-125.0598
11.467641	93.579	-125.2709
11.550741	93.620	-125.4984
11.634442	93.661	-125.7426
11.718750	93.702	-126.0034
11.803669	93.742	-126.2802
11.889203	93.781	-126.5722
11.975357	93.818	-126.8780
12.062136	93.854	-127.1963
12.149543	93.888	-127.5255
12.237583	93.919	-127.8640
12.326262	93.948	-128.2102
12.415583	93.975	-128.5623
12.505552	93.999	-128.9187
12.596172	94.021	-129.2781
12.687449	94.041	-129.6391
12.779387	94.058	-130.0005
12.871992	94.073	-130.3614
12.965268	94.086	-130.7212
13.059220	94.098	-131.0792
13.153852	94.108	-131.4353
13.249170	94.117	-131.7894
13.345179	94.126	-132.1414
13.441884	94.134	-132.4917
13.539289	94.141	-132.8407
13.637401	94.148	-133.1888
13.736223	94.154	-133.5364
13.835761	94.160	-133.8842
13.936021	94.166	-134.2325
14.037007	94.172	-134.5820
14.138725	94.177	-134.9328
14.241180	94.181	-135.2854
14.344377	94.186	-135.6399
14.448323	94.190	-135.9963
14.553021	94.193	-136.3545
14.658478	94.197	-136.7144
14.764700	94.200	-137.0757
14.871691	94.203	-137.4380
14.979457	94.207	-137.8009
15.088005	94.210	-138.1640
15.197339	94.214	-138.5269
15.307465	94.218	-138.8892
15.418389	94.222	-139.2505
15.530117	94.227	-139.6106
15.642655	94.232	-139.9693
15.756008	94.238	-140.3267
15.870182	94.245	-140.6826
15.985184	94.252	-141.0371
16.101019	94.260	-141.3905
16.217694	94.269	-141.7429
16.335214	94.278	-142.0945
16.453586	94.289	-142.4453
16.572815	94.300	-142.7955
16.692909	94.313	-143.1451
16.813872	94.326	-143.4937
16.935713	94.340	-143.8413
17.058436	94.355	-144.1875
17.182048	94.371	-144.5316
17.306556	94.387	-144.8734
17.431967	94.403	-145.2120
17.558286	94.420	-145.5470
17.685521	94.436	-145.8779
17.813677	94.453	-146.2041
17.942762	94.469	-146.5253
18.072783	94.486	-146.8414
18.203746	94.503	-147.1522
18.335658	94.520	-147.4579
18.468526	94.536	-147.7585
18.602356	94.553	-148.0545
18.737156	94.570	-148.3461
18.872934	94.587	-148.6338
19.009695	94.604	-148.9179
19.147447	94.621	-149.1988
19.286197	94.637	-149.4767
19.425953	94.653	-149.7521
19.566721	94.668	-150.0250
19.708510	94.682	-150.2956
19.851326	94.696	-150.5642
19.995177	94.709	-150.8310
20.140070	94.720	-151.0960
20.286013	94.731	-151.3598
20.433014	94.740	-151.6224
20.581080	94.749	-151.8845
20.730219	94.757	-152.1465
20.880439	94.763	-152.4088
21.031747	94.769	-152.6720
21.184152	94.775	-152.9367
21.337661	94.779	-153.2033
21.492282	94.783	-153.4722
21.648024	94.787	-153.7440
21.804895	94.789	-154.0188
21.962902	94.791	-154.2972
22.122054	94.792	-154.5793
22.282360	94.793	-154.8654
22.443827	94.793	-155.1558
22.606464	94.793	-155.4509
22.770280	94.793	-155.7509
22.935283	94.792	-156.0561
23.101481	94.791	-156.3667
23.268884	94.790	-156.6827
23.437500	94.789	-157.0043
23.607338	94.787	-157.3312
23.778406	94.786	-157.6631
23.950714	94.785	-157.9995
24.124271	94.783	-158.3398
24.299086	94.782	-158.6833
24.475167	94.781	-159.0291
24.652524	94.781	-159.3765
24.831166	94.781	-159.7247
25.011103	94.781	-160.0732
25.192344	94.782	-160.4214
25.374898	94.784	-160.7689
25.558775	94.787	-161.1155
25.743984	94.790	-161.4609
25.930536	94.794	-161.8047
26.118439	94.798	-162.1463
26.307704	94.803	-162.4851
26.498341	94.808	-162.8203
26.690359	94.813	-163.1509
26.883768	94.818	-163.4758
27.078579	94.822	-163.7940
27.274801	94.827	-164.1047
27.472446	94.832	-164.4076
27.671522	94.836	-164.7026
27.872042	94.840	-164.9902
28.074014	94.845	-165.2712
28.277450	94.849	-165.5466
28.482360	94.853	-165.8177
28.688755	94.856	-166.0853
28.896645	94.859	-166.3502
29.106042	94.861	-166.6127
29.316957	94.862	-166.8727
29.529400	94.862	-167.1300
29.743382	94.861	-167.3845
29.958915	94.859	-167.6362
30.176009	94.856	-167.8853
30.394677	94.854	-168.1327
30.614929	94.850	-168.3797
30.836778	94.847	-168.6276
31.060234	94.843	-168.8778
31.285309	94.839	-169.1313
31.512015	94.835	-169.3888
31.740364	94.830	-169.6502
31.970368	94.825	-169.9149
32.202039	94.819	-170.1821
32.435388	94.813	-170.4511
32.670428	94.808	-170.7213
32.907171	94.802	-170.9926
33.145630	94.798	-171.2655
33.385817	94.794	-171.5407
33.627745	94.791	-171.8191
33.871425	94.789	-172.1012
34.116871	94.787	-172.3872
34.364096	94.786	-172.6767
34.613113	94.785	-172.9687
34.863934	94.785	-173.2623
35.116572	94.785	-173.5567
35.371041	94.785	-173.8512
35.627354	94.785	-174.1461
35.885525	94.785	-174.4418
36.145566	94.786	-174.7388
36.407492	94.786	-175.0374
36.671316	94.785	-175.3370
36.937051	94.783	-175.6365
37.204712	94.780	-175.9341
37.474313	94.776	-176.2280
37.745867	94.770	-176.5166
38.019389	94.763	-176.7993
38.294893	94.756	-177.0761
38.572394	94.747	-177.3477
38.851905	94.738	-177.6146
39.133442	94.728	-177.8771
39.417019	94.718	-178.1350
39.702651	94.706	-178.3878
39.990353	94.694	-178.6351
40.280140	94.682	-178.8773
40.572026	94.670	-179.1154
40.866028	94.658	-179.3507
41.162160	94.647	-179.5843
41.460438	94.635	-179.8156
41.760877	94.623	179.9569
42.063494	94.611	179.7360
42.368303	94.600	179.5239
42.675322	94.590	179.3210
42.984565	94.582	179.1251
43.296048	94.576	178.9314
43.609789	94.574	178.7345
43.925804	94.573	178.5293
44.244108	94.574	178.3127
44.564719	94.577	178.0839
44.887654	94.579	177.8429
45.212928	94.582	177.5902
45.540560	94.585	177.3255
45.870565	94.588	177.0485
46.202962	94.590	176.7596
46.537768	94.590	176.4612
46.875000	94.589	176.1570
47.214676	94.585	175.8512
47.556813	94.581	175.5463
47.901429	94.576	175.2424
48.248542	94.570	174.9375
48.598171	94.564	174.6296
48.950334	94.556	174.3188
49.305048	94.546	174.0076
49.662333	94.535	173.7003
50.022206	94.522	173.4003
50.384688	94.509	173.1085
50.749796	94.496	172.8230
51.117550	94.482	172.5403
51.487969	94.469	172.2587
51.861072	94.454	171.9786
52.236879	94.439	171.7030
52.615409	94.423	171.4350
52.996681	94.408	171.1757
53.380717	94.393	170.9229
53.767536	94.380	170.6723
54.157158	94.368	170.4189
54.549603	94.357	170.1590
54.944892	94.347	169.8905
55.343045	94.337	169.6132
55.744084	94.326	169.3274
56.148028	94.316	169.0342
56.554900	94.304	168.7352
56.964720	94.291	168.4321
57.377510	94.278	168.1272
57.793291	94.263	167.8225
58.212085	94.248	167.5194
58.633914	94.232	167.2187
59.058799	94.215	166.9208
59.486764	94.197	166.6263
59.917829	94.178	166.3361
60.352019	94.159	166.0510
60.789354	94.138	165.7712
61.229859	94.118	165.4962
61.673556	94.097	165.2248
62.120468	94.075	164.9560
62.570618	94.054	164.6892
63.024031	94.032	164.4243
63.480729	94.010	164.1618
63.940736	93.988	163.9021
64.404077	93.965	163.6456
64.870776	93.943	163.3922
65.340856	93.921	163.1418
65.814343	93.899	162.8938
66.291261	93.877	162.6483
66.771635	93.855	162.4053
67.255489	93.834	162.1651
67.742850	93.812	161.9282
68.233743	93.791	161.6945
68.728193	93.769	161.4637
69.226226	93.749	161.2345
69.727867	93.728	161.0056
70.233144	93.707	160.7756
70.742083	93.687	160.5434
71.254709	93.667	160.3078
71.771050	93.646	160.0681
72.291132	93.626	159.8242
72.814984	93.605	159.5768
73.342631	93.584	159.3270
73.874102	93.562	159.0759
74.409424	93.540	158.8236
74.948626	93.519	158.5703
75.491734	93.497	158.3162
76.038779	93.474	158.0622
76.589787	93.452	157.8091
77.144788	93.429	157.5574
77.703811	93.407	157.3068
78.266885	93.385	157.0563
78.834039	93.363	156.8044
79.405303	93.341	156.5493
79.980706	93.318	156.2889
80.560280	93.296	156.0222
81.144053	93.273	155.7491
81.732056	93.248	155.4701
82.324320	93.223	155.1867
82.920876	93.195	154.9013
83.521755	93.166	154.6168
84.126988	93.135	154.3358
84.736607	93.103	154.0608
85.350643	93.071	153.7931
85.969129	93.037	153.5338
86.592097	93.003	153.2835
87.219579	92.969	153.0423
87.851608	92.935	152.8097
88.488217	92.902	152.5847
89.129439	92.869	152.3662
89.775308	92.837	152.1531
90.425856	92.806	151.9441
91.081119	92.775	151.7374
91.741131	92.744	151.5312
92.405925	92.713	151.3246
93.075536	92.683	151.1179
93.750000	92.651	150.9119
94.429351	92.620	150.7072
95.113625	92.588	150.5034
95.802858	92.556	150.2997
96.497085	92.525	150.0955
97.196342	92.493	149.8913
97.900667	92.461	149.6882
98.610096	92.429	149.4879
99.324665	92.396	149.2917
100.044413	92.364	149.1011
100.769376	92.331	148.9171
101.499592	92.298	148.7397
102.235100	92.266	148.5678
102.975938	92.234	148.3994
103.722144	92.203	148.2322
104.473757	92.172	148.0641
105.230817	92.142	147.8929
105.993363	92.113	147.7173
106.761435	92.084	147.5366
107.535072	92.056	147.3511
108.314315	92.028	147.1612
109.099206	92.000	146.9664
109.889783	91.972	146.7656
110.686090	91.944	146.5569
111.488167	91.914	146.3385
112.296056	91.883	146.1093
113.109800	91.849	145.8696
113.929440	91.813	145.6213
114.755020	91.774	145.3698
115.586582	91.732	145.1223
116.424170	91.690	144.8852
117.267827	91.647	144.6632
118.117598	91.605	144.4600
118.973527	91.564	144.2789
119.835658	91.525	144.1231
120.704037	91.489	143.9916
121.578708	91.454	143.8766
122.459718	91.422	143.7670
123.347111	91.390	143.6537
124.240935	91.358	143.5311
125.141236	91.325	143.3973
126.048061	91.291	143.2520
126.961458	91.256	143.0967
127.881473	91.221	142.9340
128.808154	91.184	142.7668
129.741551	91.148	142.5975
130.681712	91.111	142.4279
131.628686	91.075	142.2591
132.582521	91.037	142.0909
133.543269	91.000	141.9221
134.510979	90.962	141.7516
135.485701	90.923	141.5801
136.467486	90.884	141.4096
137.456386	90.845	141.2426
138.452451	90.806	141.0808
139.455735	90.767	140.9249
140.466288	90.729	140.7746
141.484165	90.691	140.6295
142.509418	90.652	140.4888
143.542100	90.614	140.3513
144.582265	90.574	140.2150
145.629968	90.535	140.0783
146.685262	90.495	139.9403
147.748204	90.454	139.8015
148.818849	90.412	139.6636
149.897251	90.370	139.5290
150.983469	90.326	139.4005
152.077557	90.282	139.2809
153.179574	90.237	139.1720
154.289576	90.192	139.0739
155.407622	90.148	138.9844
156.533770	90.105	138.8987
157.668078	90.064	138.8108
158.810606	90.024	138.7161
159.961413	89.984	138.6121
161.120559	89.943	138.4992
162.288105	89.903	138.3795
163.464112	89.860	138.2565
164.648640	89.817	138.1339
165.841752	89.772	138.0160
167.043510	89.726	137.9067
168.253976	89.679	137.8098
169.473213	89.631	137.7276
170.701286	89.583	137.6609
171.938258	89.536	137.6082
173.184194	89.490	137.5661
174.439158	89.446	137.5310
175.703216	89.403	137.5003
176.976434	89.361	137.4726
178.258878	89.320	137.4477
179.550615	89.281	137.4258
180.851713	89.244	137.4060
182.162239	89.209	137.3861
183.482262	89.176	137.3629
184.811850	89.144	137.3333
186.151073	89.114	137.2953
187.500000	89.085	137.2482
188.858702	89.057	137.1914
190.227250	89.030	137.1248
191.605715	89.003	137.0483
192.994169	88.976	136.9623
194.392685	88.949	136.8671
195.801334	88.922	136.7639
197.220191	88.893	136.6555
198.649330	88.863	136.5447
200.088825	88.831	136.4352
201.538751	88.799	136.3295
202.999184	88.766	136.2283
204.470200	88.732	136.1296
205.951875	88.698	136.0312
207.444287	88.664	135.9320
208.947514	88.629	135.8329
210.461634	88.591	135.7365
211.986726	88.552	135.6465
213.522869	88.512	135.5678
215.070144	88.470	135.5052
216.628631	88.429	135.4616
218.198411	88.388	135.4365
219.779567	88.350	135.4258
221.372180	88.315	135.4235
222.976334	88.282	135.4229
224.592112	88.252	135.4180
226.219600	88.224	135.4045
227.858880	88.198	135.3795
229.510039	88.172	135.3419
231.173164	88.147	135.2918
232.848340	88.122	135.2292
234.535655	88.098	135.1530
236.235197	88.074	135.0614
237.947054	88.051	134.9539
239.671317	88.026	134.8328
241.408074	88.000	134.7027
243.157416	87.973	134.5688
244.919435	87.944	134.4343
246.694223	87.914	134.3003
248.481871	87.883	134.1663
250.282473	87.852	134.0324
252.096123	87.820	133.8989
253.922915	87.788	133.7659
255.762945	87.756	133.6315
257.616309	87.723	133.4920
259.483103	87.690	133.3436
261.363424	87.655	133.1863
263.257372	87.617	133.0251
265.165043	87.577	132.8681
267.086538	87.534	132.7230
269.021957	87.490	132.5952
270.971401	87.445	132.4858
272.934972	87.401	132.3922
274.912771	87.358	132.3095
276.904902	87.316	132.2335
278.911469	87.276	132.1615
280.932577	87.237	132.0913
282.968330	87.199	132.0199
285.018835	87.163	131.9417
287.084199	87.127	131.8499
289.164530	87.092	131.7391
291.259935	87.055	131.6086
293.370525	87.016	131.4641
295.496408	86.973	131.3158
297.637697	86.928	131.1741
299.794503	86.881	131.0458
301.966937	86.833	130.9334
304.155114	86.785	130.8359
306.359147	86.737	130.7503
308.579152	86.689	130.6732
310.815244	86.642	130.6017
313.067539	86.596	130.5341
315.336156	86.549	130.4713
317.621211	86.500	130.4162
319.922826	86.451	130.3719
322.241118	86.402	130.3384
324.576210	86.352	130.3127
326.928223	86.303	130.2908
329.297280	86.255	130.2704
331.683504	86.208	130.2503
334.087019	86.162	130.2303
336.507952	86.116	130.2097
338.946427	86.070	130.1883
341.402572	86.024	130.1674
343.876516	85.976	130.1494
346.368387	85.928	130.1367
348.878315	85.879	130.1301
351.406431	85.830	130.1300
353.952867	85.780	130.1356
356.517756	85.731	130.1461
359.101230	85.681	130.1606
361.703426	85.632	130.1778
364.324478	85.582	130.1970
366.964523	85.533	130.2179
369.623699	85.484	130.2415
372.302145	85.435	130.2690
375.000000	85.386	130.3022
377.717405	85.338	130.3414
380.454501	85.289	130.3865
383.211431	85.241	130.4368
385.988339	85.192	130.4919
388.785369	85.142	130.5534
391.602668	85.093	130.6236
394.440383	85.043	130.7052
397.298660	84.994	130.8004
400.177650	84.946	130.9103
403.077502	84.899	131.0343
405.998368	84.854	131.1700
408.940400	84.812	131.3140
411.903750	84.772	131.4625
414.888575	84.734	131.6122
417.895028	84.699	131.7607
420.923268	84.666	131.9053
423.973452	84.635	132.0430
427.045738	84.606	132.1695
430.140287	84.579	132.2796
433.257261	84.553	132.3686
436.396822	84.527	132.4352
439.559133	84.500	132.4829
442.744360	84.471	132.5172
445.952668	84.441	132.5429
449.184225	84.408	132.5615
452.439199	84.373	132.5725
455.717760	84.334	132.5770
459.020079	84.292	132.5812
462.346327	84.245	132.5973
465.696680	84.195	132.6379
469.071310	84.144	132.7103
472.470394	84.092	132.8143
475.894109	84.043	132.9445
479.342634	83.995	133.0920
482.816148	83.949	133.2480
486.314833	83.905	133.4081
489.838871	83.860	133.5748
493.388445	83.816	133.7540
496.963741	83.773	133.9482
500.564945	83.731	134.1527
504.192245	83.692	134.3589
507.845830	83.655	134.5592
511.525890	83.619	134.7505
515.232618	83.583	134.9343
518.966206	83.546	135.1145
522.726849	83.508	135.2970
526.514743	83.470	135.4876
530.330086	83.432	135.6897
534.173076	83.393	135.9016
538.043915	83.355	136.1193
541.942803	83.317	136.3405
545.869944	83.279	136.5673
549.825542	83.241	136.8023
553.809805	83.202	137.0464
557.822939	83.164	137.2988
561.865154	83.125	137.5594
565.936660	83.086	137.8300
570.037671	83.046	138.1145
574.168399	83.005	138.4176
578.329060	82.965	138.7423
582.519870	82.925	139.0890
586.741049	82.886	139.4570
590.992817	82.849	139.8471
595.275394	82.814	140.2599
599.589005	82.782	140.6925
603.933874	82.753	141.1392
608.310228	82.727	141.5945
612.718295	82.704	142.0559
617.158304	82.682	142.5248
621.630488	82.663	143.0065
626.135079	82.645	143.5070
630.672311	82.631	144.0281
635.242423	82.621	144.5645
639.845651	82.616	145.1080
644.482237	82.614	145.6545
649.152421	82.618	146.2039
653.856447	82.626	146.7543
658.594560	82.639	147.2990
663.367008	82.657	147.8265
668.174039	82.678	148.3277
673.015903	82.700	148.8020
677.892854	82.723	149.2567
682.805145	82.745	149.7001
687.753032	82.766	150.1385
692.736774	82.787	150.5766
697.756631	82.808	151.0185
702.812863	82.830	151.4667
707.905735	82.854	151.9193
713.035511	82.879	152.3719
718.202461	82.906	152.8208
723.406852	82.934	153.2659
728.648956	82.963	153.7093
733.929047	82.993	154.1539
739.247399	83.024	154.6021
744.604290	83.055	155.0560
750.000000	83.088	155.5165
755.434809	83.122	155.9833
760.909001	83.158	156.4555
766.422861	83.196	156.9318
771.976677	83.236	157.4111
777.570739	83.277	157.8921
783.205337	83.320	158.3744
788.880766	83.365	158.8594
794.597321	83.412	159.3505
800.355301	83.462	159.8500
806.155005	83.515	160.3565
811.996736	83.573	160.8640
817.880799	83.635	161.3638
823.807501	83.702	161.8468
829.777150	83.771	162.3051
835.790057	83.841	162.7371
841.846536	83.910	163.1498
847.946903	83.978	163.5544
854.091476	84.046	163.9594
860.280575	84.113	164.3691
866.514523	84.180	164.7864
872.793644	84.248	165.2146
879.118267	84.318	165.6532
885.488720	84.391	166.0983
891.905336	84.466	166.5461
898.368450	84.544	166.9963
904.878398	84.624	167.4504
911.435520	84.707	167.9088
918.040157	84.794	168.3690
924.692655	84.884	168.8277
931.393359	84.978	169.2805
938.142619	85.076	169.7232
944.940787	85.177	170.1536
951.788218	85.280	170.5728
958.685268	85.386	170.9833
965.632296	85.494	171.3873
972.629666	85.605	171.7868
979.677741	85.718	172.1821
986.776890	85.834	172.5723
993.927482	85.952	172.9583
1001.129891	86.073	173.3443
1008.384491	86.198	173.7338
1015.691660	86.327	174.1254
1023.051781	86.463	174.5136
1030.465236	86.604	174.8896
1037.932411	86.751	175.2402
1045.453698	86.904	175.5518
1053.029486	87.059	175.8179
1060.660172	87.216	176.0424
1068.346153	87.374	176.2341
1076.087829	87.531	176.4032
1083.885605	87.688	176.5567
1091.739887	87.847	176.6970
1099.651084	88.007	176.8240
1107.619609	88.168	176.9374
1115.645878	88.331	177.0371
1123.730308	88.496	177.1229
1131.873321	88.663	177.1946
1140.075341	88.832	177.2510
1148.336797	89.004	177.2908
1156.658119	89.179	177.3120
1165.039741	89.357	177.3132
1173.482099	89.538	177.2932
1181.985634	89.725	177.2490
1190.550789	89.917	177.1724
1199.178011	90.113	177.0507
1207.867749	90.313	176.8716
1216.620457	90.514	176.6300
1225.436590	90.715	176.3303
1234.316609	90.912	175.9811
1243.260976	91.107	175.5915
1252.270157	91.299	175.1684
1261.344623	91.489	174.7152
1270.484846	91.677	174.2321
1279.691303	91.862	173.7189
1288.964474	92.046	173.1757
1298.304842	92.228	172.6001
1307.712894	92.408	171.9889
1317.189120	92.587	171.3380
1326.734016	92.764	170.6453
1336.348077	92.937	169.9113
1346.031806	93.108	169.1387
1355.785708	93.275	168.3316
1365.610290	93.439	167.4943
1375.506065	93.600	166.6321
1385.473549	93.757	165.7506
1395.513261	93.912	164.8512
1405.625726	94.065	163.9294
1415.811469	94.216	162.9752
1426.071023	94.363	161.9771
1436.404921	94.504	160.9298
1446.813703	94.638	159.8370
1457.297912	94.763	158.7077
1467.858093	94.879	157.5518
1478.494798	94.984	156.3778
1489.208581	95.080	155.1935
1500.000000	95.164	154.0060
1510.869618	95.236	152.8218
1521.818002	95.295	151.6466
1532.845723	95.343	150.4856
1543.953355	95.378	149.3434
1555.141477	95.404	148.2238
1566.410674	95.423	147.1264
1577.761531	95.435	146.0453
1589.194642	95.441	144.9715
1600.710601	95.440	143.9000
1612.310010	95.432	142.8333
1623.993473	95.416	141.7788
1635.761599	95.392	140.7458
1647.615002	95.359	139.7425
1659.554299	95.319	138.7766
1671.580114	95.274	137.8548
1683.693072	95.222	136.9807
1695.893807	95.166	136.1548
1708.182952	95.105	135.3766
1720.561150	95.039	134.6470
1733.029045	94.967	133.9695
1745.587288	94.890	133.3494
1758.236533	94.809	132.7932
1770.977440	94.725	132.3063
1783.810673	94.641	131.8884
1796.736900	94.559	131.5303
1809.756796	94.479	131.2173
1822.871040	94.401	130.9368
1836.080315	94.324	130.6829
1849.385310	94.248	130.4550
1862.786718	94.172	130.2554
1876.285239	94.096	130.0891
1889.881575	94.021	129.9628
1903.576436	93.948	129.8841
1917.370535	93.880	129.8595
1931.264593	93.818	129.8929
1945.259332	93.764	129.9818
1959.355483	93.721	130.1142
1973.553781	93.688	130.2704
1987.854965	93.663	130.4316
2002.259781	93.645	130.5853
2016.768981	93.631	130.7264
2031.383320	93.618	130.8563
2046.103561	93.606	130.9809
2060.930471	93.594	131.1085
2075.864823	93.581	131.2467
2090.907395	93.567	131.4016
2106.058972	93.552	131.5794
2121.320344	93.536	131.7876
2136.692305	93.521	132.0340
2152.175658	93.507	132.3245
2167.771210	93.497	132.6573
2183.479774	93.492	133.0203
2199.302169	93.495	133.3951
2215.239219	93.503	133.7661
2231.291755	93.515	134.1238
2247.460615	93.531	134.4651
2263.746641	93.548	134.7925
2280.150683	93.566	135.1126
2296.673595	93.584	135.4352
2313.316238	93.604	135.7700
2330.079481	93.626	136.1219
2346.964198	93.651	136.4872
2363.971268	93.680	136.8574
2381.101578	93.713	137.2247
2398.356022	93.749	137.5865
2415.735498	93.788	137.9440
2433.240913	93.829	138.3006
2450.873180	93.873	138.6588
2468.633217	93.919	139.0189
2486.521951	93.969	139.3802
2504.540314	94.023	139.7441
2522.689246	94.079	140.1142
2540.969692	94.141	140.4933
2559.382606	94.209	140.8773
2577.928947	94.284	141.2536
2596.609683	94.367	141.6073
2615.425787	94.455	141.9264
2634.378241	94.548	142.2043
2653.468031	94.645	142.4406
2672.696154	94.744	142.6398
2692.063613	94.845	142.8080
2711.571415	94.950	142.9484
2731.220579	95.059	143.0555
2751.012130	95.172	143.1179
2770.947098	95.287	143.1240
2791.026522	95.405	143.0665
2811.251451	95.521	142.9436
2831.622938	95.636	142.7571
2852.142045	95.748	142.5113
2872.809842	95.856	142.2131
2893.627406	95.958	141.8734
2914.595823	96.055	141.5068
2935.716186	96.147	141.1255
2956.989596	96.237	140.7340
2978.417161	96.326	140.3282
3000.000000	96.415	139.9008
3021.739237	96.502	139.4446
3043.636005	96.588	138.9559
3065.691446	96.673	138.4354
3087.906710	96.755	137.8853
3110.282955	96.836	137.3042
3132.821347	96.916	136.6845
3155.523062	96.994	136.0158
3178.389283	97.068	135.2900
3201.421202	97.137	134.5044
3224.620020	97.197	133.6621
3247.986946	97.247	132.7725
3271.523198	97.286	131.8511
3295.230004	97.313	130.9200
3319.108599	97.329	130.0023
3343.160228	97.337	129.1136
3367.386145	97.340	128.2578
3391.787613	97.342	127.4279
3416.365904	97.342	126.6110
3441.122300	97.342	125.7942
3466.058091	97.341	124.9689
3491.174576	97.338	124.1292
3516.473066	97.334	123.2675
3541.954880	97.327	122.3747
3567.621345	97.316	121.4428
3593.473800	97.298	120.4669
3619.513592	97.271	119.4458
3645.742080	97.233	118.3832
3672.160630	97.180	117.2897
3698.770620	97.112	116.1828
3725.573436	97.027	115.0814
3752.570477	96.925	114.0010
3779.763150	96.806	112.9536
3807.152872	96.668	111.9503
3834.741071	96.511	111.0071
3862.529185	96.334	110.1469
3890.518664	96.136	109.3946
3918.710966	95.920	108.7726
3947.107561	95.688	108.2990
3975.709929	95.441	107.9883
4004.519563	95.182	107.8533
4033.537962	94.912	107.9067
4062.766641	94.633	108.1664
4092.207123	94.348	108.6570
4121.860942	94.060	109.4026
4151.729646	93.777	110.4203
4181.814790	93.503	111.7163
4212.117944	93.246	113.2888
4242.640687	93.014	115.1306
4273.384610	92.812	117.2257
4304.351317	92.650	119.5402
4335.542421	92.535	122.0187
4366.959549	92.473	124.5863
4398.604338	92.466	127.1559
4430.478438	92.513	129.6392
4462.583511	92.609	131.9608
4494.921231	92.748	134.0628
4527.493283	92.921	135.9013
4560.301365	93.120	137.4434
4593.347189	93.336	138.6703
4626.632476	93.560	139.5815
4660.158962	93.785	140.1916
4693.928395	94.003	140.5214
4727.942535	94.211	140.5916
4762.203156	94.404	140.4210
4796.712043	94.578	140.0276
4831.470996	94.729	139.4326
4866.481826	94.853	138.6650
4901.746360	94.948	137.7595
4937.266434	95.012	136.7509
4973.043902	95.042	135.6730
5009.080628	95.038	134.5623
5045.378492	95.000	133.4594
5081.939384	94.929	132.4055
5118.765212	94.827	131.4359
5155.857894	94.700	130.5765
5193.219366	94.550	129.8423
5230.851574	94.381	129.2416
5268.756481	94.197	128.7810
5306.936062	93.999	128.4649
5345.392309	93.790	128.2932
5384.127225	93.573	128.2630
5423.142830	93.348	128.3748
5462.441159	93.116	128.6337
5502.024259	92.880	129.0461
5541.894195	92.643	129.6136
5582.053045	92.408	130.3294
5622.502902	92.178	131.1798
5663.245876	91.955	132.1501
5704.284090	91.740	133.2253
5745.619684	91.535	134.3887
5787.254813	91.339	135.6251
5829.191647	91.151	136.9265
5871.432373	90.970	138.2933
5913.979192	90.796	139.7302
5956.834323	90.631	141.2399
6000.000000	90.474	142.8196
6043.478473	90.326	144.4637
6087.272010	90.189	146.1656
6131.382892	90.062	147.9170
6175.813420	89.946	149.7090
6220.565910	89.839	151.5380
6265.642695	89.740	153.4084
6311.046124	89.649	155.3298
6356.778566	89.567	157.3115
6402.842404	89.495	159.3582
6449.240040	89.435	161.4710
6495.973891	89.389	163.6472
6543.046396	89.358	165.8798
6590.460007	89.344	168.1606
6638.217197	89.347	170.4852
6686.320456	89.369	172.8530
6734.772290	89.411	175.2639
6783.575226	89.475	177.7129
6832.731809	89.563	-179.8109
6882.244600	89.678	-177.3256
6932.116181	89.820	-174.8572
6982.349153	89.990	-172.4351
7032.946133	90.189	-170.0855
7083.909760	90.416	-167.8297
7135.242690	90.673	-165.6867
7186.947600	90.959	-163.6777
7239.027185	91.276	-161.8282
7291.484160	91.624	-160.1735
7344.321260	92.003	-158.7629
7397.541239	92.409	-157.6570
7451.146872	92.837	-156.9169
7505.140954	93.276	-156.5912
7559.526299	93.717	-156.7106
7614.305743	94.148	-157.2884
7669.482141	94.557	-158.3249
7725.058371	94.935	-159.8095
7781.037328	95.269	-161.7172
7837.421932	95.548	-164.0019
7894.215122	95.761	-166.5949
7951.419859	95.902	-169.4092
8009.039125	95.966	-172.3454
8067.075924	95.952	-175.2992
8125.533282	95.864	-178.1714
8184.414245	95.704	179.1285
8243.721885	95.479	176.6823
8303.459292	95.197	174.5641
8363.629581	94.866	172.8379
8424.235888	94.498	171.5541
8485.281374	94.105	170.7435
8546.769221	93.703	170.4097
8608.702634	93.305	170.5298
8671.084842	92.922	171.0613
8733.919097	92.566	171.9486
8797.208675	92.243	173.1293
8860.956876	91.958	174.5368
8925.167022	91.715	176.0987
8989.842461	91.514	177.7391
9054.986566	91.353	179.3876
9120.602731	91.224	-179.0092
9186.694378	91.122	-177.4812
9253.264952	91.038	-176.0336
9320.317925	90.967	-174.6543
9387.856790	90.905	-173.3232
9455.885071	90.848	-172.0157
9524.406312	90.798	-170.7032
9593.424086	90.753	-169.3555
9662.941992	90.719	-167.9439
9732.963653	90.699	-166.4522
9803.492719	90.701	-164.8853
9874.532869	90.728	-163.2679
9946.087805	90.785	-161.6380
10018.161257	90.872	-160.0360
10090.756983	90.990	-158.4993
10163.878768	91.137	-157.0664
10237.530423	91.311	-155.7777
10311.715789	91.509	-154.6719
10386.438732	91.726	-153.7774
10461.703149	91.956	-153.1069
10537.512962	92.194	-152.6618
10613.872125	92.437	-152.4417
10690.784618	92.682	-152.4484
10768.254450	92.927	-152.6862
10846.285661	93.169	-153.1562
10924.882318	93.405	-153.8592
11004.048518	93.634	-154.8011
11083.788390	93.855	-155.9967
11164.106090	94.064	-157.4664
11245.005805	94.255	-159.2266
11326.491752	94.423	-161.2844
11408.568180	94.560	-163.6384
11491.239368	94.658	-166.2794
11574.509626	94.710	-169.1883
11658.383294	94.705	-172.3282
11742.864745	94.635	-175.6411
11827.958384	94.492	-179.0509
11913.668646	94.273	177.5299
12000.000000	93.976	174.1944
12086.956947	93.602	171.0378
12174.544019	93.155	168.1493
12262.765784	92.646	165.5995
12351.626840	92.085	163.4280
12441.131819	91.486	161.6401
12531.285389	90.859	160.2143
12622.092249	90.213	159.1144
12713.557132	89.553	158.2991
12805.684808	88.881	157.7325
12898.480079	88.195	157.3967
12991.947783	87.490	157.3015
13086.092792	86.765	157.4833
13180.920015	86.019	157.9925
13276.434395	85.254	158.8808
13372.640911	84.476	160.1932
13469.544580	83.694	161.9618
13567.150452	82.918	164.1950
13665.463617	82.158	166.8703
13764.489200	81.427	169.9376
13864.232362	80.733	173.3290
13964.698305	80.082	176.9648
14065.892266	79.477	-179.2416
14167.819519	78.919	-175.3704
14270.485380	78.403	-171.4783
14373.895200	77.925	-167.5935
14478.054370	77.478	-163.7173
14582.968320	77.057	-159.8199
14688.642520	76.659	-155.8321
14795.082478	76.286	-151.6452
14902.293745	75.947	-147.1215
15010.281908	75.661	-142.1251
15119.052599	75.457	-136.5993
15228.611486	75.362	-130.6811
15338.964283	75.388	-124.7259
15450.116741	75.520	-119.1240
15562.074656	75.732	-114.0980
15674.843864	76.005	-109.6889
15788.430244	76.331	-105.8592
15902.839718	76.711	-102.5860
16018.078250	77.149	-99.9050
16134.151848	77.643	-97.9139
16251.066563	78.180	-96.7491
16368.828491	78.740	-96.5483
16487.443769	79.288	-97.4161
16606.918584	79.783	-99.3957
16727.259161	80.181	-102.4428
16848.471777	80.434	-106.4101
16970.562748	80.506	-111.0490
17093.538442	80.370	-116.0268
17217.405268	80.015	-120.9633
17342.169684	79.450	-125.4845
17467.838194	78.699	-129.2712
17594.417350	77.795	-132.0860
17721.913751	76.777	-133.7824
17850.334044	75.688	-134.3075
17979.684923	74.569	-133.7017
18109.973131	73.458	-132.0988
18241.205462	72.387	-129.7225
18373.388756	71.377	-126.8616
18506.529905	70.431	-123.8055
18640.635849	69.537	-120.7633
18775.713581	68.668	-117.8016
18911.770141	67.793	-114.8253
19048.812624	66.888	-111.6049
19186.848172	65.948	-107.8383
19325.883983	64.990	-103.2514
19465.927305	64.057	-97.7561
19606.985439	63.220	-91.6360
19749.065738	62.553	-85.6393
19892.175609	62.106	-80.8111
20036.322514	61.888	-78.1169
