* Measurement data measured by REW V5.31
* Source: EXCL: Microphone (USB Sound Device        ), MICROPHONE (Master Volume), L, volume: 0.560
* Format: 256k Log Swept Sine, 1 sweep at -5.0 dBFS with no timing reference
* Dated: May 1, 2024 1:43:29 PM
* REW Settings:
*  C-weighting compensation: Off
*  Target level: 75.0 dB
* Note: Elysian Acoustic Labs Pilgrim R
* Measurement: R Elysian PILGRIM
* Smoothing: 1/12 octave
* Frequency Step: 96 ppo
* Start Frequency: 0.36621094 Hz
*
* Freq(Hz) SPL(dB) Phase(degrees)
0.366211 78.847 -83.5366
0.368865 78.857 -83.5993
0.371538 78.873 -83.6930
0.374230 78.893 -83.8103
0.376942 78.915 -83.9449
0.379673 78.939 -84.0921
0.382424 78.964 -84.2489
0.385196 78.989 -84.4133
0.387987 79.015 -84.5842
0.390798 79.041 -84.7610
0.393630 79.068 -84.9434
0.396483 79.094 -85.1311
0.399356 79.121 -85.3242
0.402250 79.148 -85.5224
0.405165 79.176 -85.7259
0.408101 79.203 -85.9344
0.411058 79.231 -86.1481
0.414037 79.259 -86.3669
0.417037 79.287 -86.5907
0.420059 79.315 -86.8194
0.423103 79.343 -87.0532
0.426169 79.372 -87.2918
0.429257 79.401 -87.5354
0.432368 79.430 -87.7837
0.435501 79.459 -88.0368
0.438656 79.489 -88.2946
0.441835 79.519 -88.5570
0.445037 79.549 -88.8240
0.448262 79.579 -89.0954
0.451510 79.609 -89.3713
0.454782 79.640 -89.6516
0.458077 79.671 -89.9361
0.461397 79.702 -90.2247
0.464740 79.733 -90.5174
0.468108 79.765 -90.8142
0.471500 79.796 -91.1148
0.474917 79.828 -91.4192
0.478358 79.861 -91.7273
0.481825 79.893 -92.0390
0.485316 79.926 -92.3541
0.488833 79.959 -92.6727
0.492375 79.992 -92.9944
0.495943 80.025 -93.3194
0.499537 80.059 -93.6473
0.503157 80.093 -93.9781
0.506803 80.127 -94.3117
0.510475 80.161 -94.6479
0.514175 80.196 -94.9866
0.517900 80.231 -95.3278
0.521653 80.266 -95.6712
0.525434 80.301 -96.0167
0.529241 80.337 -96.3642
0.533076 80.373 -96.7136
0.536939 80.409 -97.0647
0.540830 80.445 -97.4174
0.544749 80.482 -97.7715
0.548696 80.519 -98.1270
0.552673 80.556 -98.4837
0.556677 80.594 -98.8414
0.560711 80.631 -99.2000
0.564774 80.669 -99.5594
0.568867 80.708 -99.9195
0.572989 80.746 -100.2801
0.577141 80.785 -100.6411
0.581324 80.824 -101.0023
0.585536 80.864 -101.3637
0.589779 80.903 -101.7251
0.594053 80.943 -102.0864
0.598358 80.984 -102.4474
0.602694 81.024 -102.8081
0.607061 81.065 -103.1683
0.611460 81.106 -103.5280
0.615891 81.148 -103.8869
0.620354 81.190 -104.2450
0.624849 81.232 -104.6022
0.629377 81.274 -104.9584
0.633938 81.317 -105.3135
0.638532 81.360 -105.6674
0.643159 81.403 -106.0199
0.647819 81.447 -106.3710
0.652514 81.491 -106.7207
0.657242 81.535 -107.0688
0.662005 81.579 -107.4152
0.666802 81.624 -107.7599
0.671634 81.670 -108.1028
0.676501 81.715 -108.4438
0.681403 81.761 -108.7829
0.686341 81.807 -109.1200
0.691314 81.853 -109.4551
0.696324 81.900 -109.7881
0.701370 81.947 -110.1191
0.706452 81.993 -110.4482
0.711571 82.040 -110.7754
0.716728 82.085 -111.1013
0.721921 82.129 -111.4261
0.727153 82.170 -111.7509
0.732422 82.208 -112.0766
0.737729 82.243 -112.4046
0.743075 82.274 -112.7362
0.748460 82.303 -113.0723
0.753883 82.329 -113.4137
0.759346 82.354 -113.7607
0.764849 82.378 -114.1137
0.770391 82.401 -114.4726
0.775974 82.423 -114.8373
0.781597 82.445 -115.2078
0.787261 82.466 -115.5839
0.792966 82.487 -115.9655
0.798712 82.506 -116.3523
0.804500 82.526 -116.7442
0.810329 82.544 -117.1409
0.816201 82.562 -117.5422
0.822116 82.580 -117.9479
0.828073 82.596 -118.3578
0.834074 82.612 -118.7716
0.840118 82.627 -119.1891
0.846206 82.641 -119.6100
0.852338 82.655 -120.0341
0.858514 82.667 -120.4611
0.864735 82.679 -120.8906
0.871001 82.690 -121.3225
0.877313 82.700 -121.7564
0.883670 82.709 -122.1920
0.890074 82.717 -122.6291
0.896524 82.724 -123.0672
0.903020 82.730 -123.5062
0.909564 82.735 -123.9455
0.916155 82.739 -124.3850
0.922794 82.741 -124.8242
0.929481 82.743 -125.2629
0.936216 82.743 -125.7006
0.943000 82.742 -126.1370
0.949834 82.739 -126.5716
0.956717 82.736 -127.0042
0.963649 82.731 -127.4343
0.970632 82.724 -127.8615
0.977666 82.716 -128.2853
0.984750 82.707 -128.7055
0.991886 82.696 -129.1214
0.999074 82.683 -129.5328
1.006314 82.669 -129.9390
1.013606 82.653 -130.3397
1.020951 82.635 -130.7344
1.028349 82.615 -131.1225
1.035801 82.594 -131.5036
1.043307 82.571 -131.8772
1.050867 82.546 -132.2428
1.058482 82.518 -132.6001
1.066152 82.489 -132.9489
1.073878 82.458 -133.2890
1.081660 82.424 -133.6211
1.089498 82.388 -133.9458
1.097393 82.350 -134.2650
1.105345 82.310 -134.5805
1.113355 82.267 -134.8948
1.121423 82.221 -135.2097
1.129549 82.173 -135.5269
1.137734 82.123 -135.8473
1.145979 82.070 -136.1716
1.154283 82.014 -136.5002
1.162647 81.956 -136.8330
1.171072 81.895 -137.1702
1.179558 81.831 -137.5116
1.188106 81.765 -137.8571
1.196715 81.695 -138.2064
1.205387 81.624 -138.5593
1.214122 81.549 -138.9154
1.222920 81.472 -139.2743
1.231782 81.391 -139.6355
1.240708 81.308 -139.9987
1.249699 81.222 -140.3631
1.258754 81.134 -140.7280
1.267876 81.042 -141.0927
1.277063 80.948 -141.4562
1.286318 80.850 -141.8176
1.295639 80.750 -142.1757
1.305027 80.647 -142.5293
1.314484 80.541 -142.8768
1.324009 80.431 -143.2167
1.333604 80.319 -143.5472
1.343268 80.204 -143.8661
1.353002 80.086 -144.1712
1.362806 79.965 -144.4601
1.372681 79.841 -144.7298
1.382628 79.714 -144.9774
1.392647 79.584 -145.1993
1.402739 79.451 -145.3920
1.412904 79.315 -145.5515
1.423142 79.174 -145.6737
1.433455 79.030 -145.7548
1.443843 78.881 -145.7910
1.454305 78.726 -145.7791
1.464844 78.563 -145.7169
1.475459 78.389 -145.6027
1.486150 78.205 -145.4349
1.496920 78.006 -145.2114
1.507767 77.794 -144.9289
1.518693 77.568 -144.5829
1.529698 77.328 -144.1677
1.540783 77.075 -143.6762
1.551948 76.810 -143.1002
1.563194 76.535 -142.4301
1.574521 76.250 -141.6546
1.585931 75.958 -140.7611
1.597423 75.660 -139.7350
1.608999 75.358 -138.5601
1.620658 75.053 -137.2179
1.632402 74.748 -135.6882
1.644232 74.445 -133.9487
1.656146 74.146 -131.9759
1.668147 73.853 -129.7457
1.680235 73.569 -127.2345
1.692411 73.297 -124.4219
1.704675 73.040 -121.2930
1.717028 72.799 -117.8426
1.729470 72.579 -114.0796
1.742003 72.384 -110.0304
1.754626 72.215 -105.7427
1.767341 72.078 -101.2841
1.780147 71.976 -96.7388
1.793047 71.913 -92.1984
1.806040 71.892 -87.7516
1.819128 71.918 -83.4734
1.832310 71.992 -79.4195
1.845587 72.116 -75.6247
1.858961 72.291 -72.1080
1.872432 72.517 -68.8781
1.886001 72.790 -65.9356
1.899667 73.110 -63.2755
1.913433 73.471 -60.8873
1.927299 73.871 -58.7571
1.941265 74.305 -56.8683
1.955332 74.771 -55.2030
1.969501 75.262 -53.7430
1.983773 75.776 -52.4707
1.998148 76.307 -51.3692
2.012627 76.852 -50.4233
2.027212 77.405 -49.6187
2.041902 77.962 -48.9430
2.056698 78.518 -48.3849
2.071602 79.070 -47.9347
2.086614 79.611 -47.5836
2.101734 80.139 -47.3241
2.116964 80.648 -47.1497
2.132304 81.136 -47.0545
2.147756 81.599 -47.0333
2.163320 82.036 -47.0811
2.178996 82.446 -47.1931
2.194786 82.831 -47.3643
2.210690 83.192 -47.5894
2.226710 83.533 -47.8628
2.242845 83.857 -48.1792
2.259098 84.165 -48.5335
2.275468 84.461 -48.9210
2.291957 84.745 -49.3376
2.308566 85.018 -49.7796
2.325295 85.280 -50.2439
2.342145 85.534 -50.7275
2.359117 85.778 -51.2281
2.376212 86.015 -51.7436
2.393431 86.245 -52.2723
2.410775 86.469 -52.8127
2.428244 86.687 -53.3639
2.445840 86.901 -53.9248
2.463564 87.111 -54.4952
2.481416 87.318 -55.0749
2.499397 87.523 -55.6644
2.517509 87.725 -56.2645
2.535752 87.925 -56.8769
2.554127 88.123 -57.5037
2.572635 88.318 -58.1471
2.591277 88.509 -58.8093
2.610055 88.695 -59.4911
2.628968 88.876 -60.1922
2.648019 89.050 -60.9112
2.667208 89.219 -61.6456
2.686535 89.382 -62.3928
2.706003 89.540 -63.1500
2.725612 89.692 -63.9140
2.745363 89.840 -64.6823
2.765257 89.983 -65.4521
2.785295 90.122 -66.2210
2.805478 90.258 -66.9871
2.825808 90.390 -67.7485
2.846285 90.519 -68.5042
2.866910 90.646 -69.2538
2.887685 90.770 -69.9980
2.908611 90.891 -70.7384
2.929688 91.010 -71.4781
2.950917 91.126 -72.2207
2.972301 91.238 -72.9695
2.993839 91.346 -73.7266
3.015534 91.449 -74.4926
3.037386 91.549 -75.2668
3.059396 91.645 -76.0475
3.081565 91.736 -76.8324
3.103896 91.824 -77.6188
3.126388 91.908 -78.4038
3.149043 91.989 -79.1845
3.171862 92.067 -79.9580
3.194847 92.142 -80.7220
3.217998 92.214 -81.4743
3.241317 92.284 -82.2139
3.264805 92.351 -82.9406
3.288463 92.415 -83.6558
3.312293 92.477 -84.3620
3.336295 92.535 -85.0624
3.360471 92.590 -85.7592
3.384822 92.641 -86.4540
3.409350 92.689 -87.1470
3.434056 92.733 -87.8371
3.458940 92.774 -88.5229
3.484005 92.813 -89.2021
3.509252 92.849 -89.8722
3.534681 92.883 -90.5306
3.560295 92.915 -91.1745
3.586094 92.945 -91.8014
3.612081 92.974 -92.4094
3.638255 93.000 -92.9974
3.664620 93.026 -93.5651
3.691175 93.049 -94.1134
3.717923 93.070 -94.6438
3.744864 93.089 -95.1576
3.772001 93.106 -95.6560
3.799335 93.121 -96.1398
3.826866 93.134 -96.6092
3.854597 93.147 -97.0642
3.882529 93.158 -97.5044
3.910664 93.169 -97.9292
3.939002 93.181 -98.3377
3.967546 93.193 -98.7288
3.996296 93.206 -99.1013
4.025255 93.219 -99.4539
4.054423 93.233 -99.7858
4.083804 93.248 -100.0965
4.113396 93.263 -100.3865
4.143204 93.279 -100.6572
4.173227 93.296 -100.9105
4.203468 93.314 -101.1489
4.233928 93.332 -101.3749
4.264609 93.353 -101.5912
4.295512 93.376 -101.8001
4.326639 93.400 -102.0032
4.357992 93.428 -102.2014
4.389572 93.458 -102.3947
4.421380 93.492 -102.5824
4.453419 93.528 -102.7638
4.485691 93.567 -102.9390
4.518196 93.609 -103.1092
4.550936 93.653 -103.2770
4.583914 93.700 -103.4454
4.617131 93.748 -103.6180
4.650589 93.799 -103.7983
4.684289 93.852 -103.9895
4.718233 93.906 -104.1940
4.752424 93.963 -104.4131
4.786862 94.021 -104.6469
4.821549 94.081 -104.8951
4.856488 94.143 -105.1568
4.891680 94.207 -105.4321
4.927127 94.272 -105.7210
4.962831 94.337 -106.0244
4.998794 94.403 -106.3433
5.035017 94.469 -106.6789
5.071503 94.535 -107.0324
5.108253 94.599 -107.4049
5.145270 94.663 -107.7971
5.182555 94.726 -108.2091
5.220110 94.788 -108.6400
5.257937 94.849 -109.0884
5.296038 94.908 -109.5523
5.334415 94.966 -110.0297
5.373071 95.022 -110.5186
5.412006 95.076 -111.0176
5.451224 95.128 -111.5258
5.490725 95.177 -112.0432
5.530514 95.223 -112.5699
5.570590 95.266 -113.1060
5.610957 95.307 -113.6506
5.651616 95.345 -114.2018
5.692570 95.380 -114.7568
5.733821 95.413 -115.3125
5.775370 95.443 -115.8662
5.817221 95.470 -116.4154
5.859375 95.495 -116.9591
5.901834 95.517 -117.4968
5.944602 95.537 -118.0286
5.987679 95.553 -118.5540
6.031068 95.568 -119.0721
6.074771 95.581 -119.5810
6.118792 95.592 -120.0789
6.163131 95.602 -120.5635
6.207792 95.611 -121.0334
6.252776 95.619 -121.4875
6.298086 95.627 -121.9257
6.343725 95.634 -122.3483
6.389694 95.640 -122.7561
6.435996 95.647 -123.1499
6.482634 95.654 -123.5303
6.529610 95.662 -123.8976
6.576926 95.671 -124.2520
6.624585 95.682 -124.5937
6.672590 95.694 -124.9230
6.720942 95.708 -125.2412
6.769645 95.724 -125.5506
6.818700 95.742 -125.8537
6.868111 95.762 -126.1532
6.917881 95.784 -126.4514
6.968010 95.809 -126.7499
7.018504 95.835 -127.0497
7.069362 95.865 -127.3520
7.120590 95.896 -127.6581
7.172189 95.929 -127.9700
7.224161 95.964 -128.2899
7.276511 96.000 -128.6198
7.329239 96.037 -128.9612
7.382350 96.075 -129.3148
7.435845 96.113 -129.6808
7.489729 96.153 -130.0589
7.544002 96.192 -130.4489
7.598669 96.231 -130.8505
7.653732 96.269 -131.2635
7.709194 96.307 -131.6878
7.765058 96.343 -132.1229
7.821327 96.378 -132.5676
7.878004 96.411 -133.0203
7.935091 96.444 -133.4789
7.992592 96.474 -133.9415
8.050510 96.502 -134.4062
8.108847 96.529 -134.8720
8.167607 96.553 -135.3376
8.226793 96.576 -135.8014
8.286408 96.597 -136.2617
8.346454 96.617 -136.7165
8.406936 96.635 -137.1640
8.467856 96.652 -137.6030
8.529218 96.668 -138.0329
8.591024 96.683 -138.4532
8.653278 96.698 -138.8636
8.715983 96.712 -139.2637
8.779143 96.726 -139.6534
8.842760 96.740 -140.0327
8.906839 96.755 -140.4020
8.971381 96.771 -140.7623
9.036392 96.787 -141.1149
9.101873 96.804 -141.4612
9.167829 96.822 -141.8023
9.234263 96.841 -142.1395
9.301178 96.862 -142.4738
9.368578 96.883 -142.8067
9.436467 96.905 -143.1398
9.504847 96.928 -143.4745
9.573723 96.951 -143.8118
9.643099 96.974 -144.1525
9.712976 96.997 -144.4969
9.783361 97.018 -144.8454
9.854255 97.038 -145.1983
9.925663 97.054 -145.5556
9.997588 97.068 -145.9170
10.070035 97.080 -146.2818
10.143007 97.088 -146.6494
10.216507 97.094 -147.0186
10.290540 97.097 -147.3886
10.365109 97.098 -147.7585
10.440219 97.097 -148.1275
10.515873 97.095 -148.4945
10.592076 97.091 -148.8585
10.668830 97.086 -149.2188
10.746141 97.081 -149.5749
10.824012 97.074 -149.9266
10.902447 97.067 -150.2736
10.981451 97.060 -150.6160
11.061027 97.052 -150.9539
11.141180 97.045 -151.2878
11.221913 97.037 -151.6183
11.303232 97.029 -151.9461
11.385140 97.022 -152.2720
11.467641 97.014 -152.5966
11.550741 97.007 -152.9206
11.634442 97.000 -153.2447
11.718750 96.993 -153.5695
11.803669 96.986 -153.8954
11.889203 96.980 -154.2227
11.975357 96.973 -154.5513
12.062136 96.967 -154.8813
12.149543 96.960 -155.2124
12.237583 96.953 -155.5443
12.326262 96.946 -155.8767
12.415583 96.938 -156.2090
12.505552 96.930 -156.5409
12.596172 96.921 -156.8720
12.687449 96.912 -157.2021
12.779387 96.903 -157.5311
12.871992 96.893 -157.8590
12.965268 96.883 -158.1860
13.059220 96.874 -158.5124
13.153852 96.865 -158.8388
13.249170 96.856 -159.1657
13.345179 96.847 -159.4937
13.441884 96.839 -159.8235
13.539289 96.831 -160.1556
13.637401 96.824 -160.4905
13.736223 96.816 -160.8285
13.835761 96.809 -161.1696
13.936021 96.801 -161.5139
14.037007 96.793 -161.8609
14.138725 96.784 -162.2103
14.241180 96.775 -162.5613
14.344377 96.766 -162.9133
14.448323 96.756 -163.2655
14.553021 96.745 -163.6172
14.658478 96.734 -163.9677
14.764700 96.723 -164.3167
14.871691 96.712 -164.6638
14.979457 96.702 -165.0090
15.088005 96.691 -165.3524
15.197339 96.681 -165.6945
15.307465 96.672 -166.0359
15.418389 96.663 -166.3771
15.530117 96.655 -166.7189
15.642655 96.648 -167.0619
15.756008 96.640 -167.4067
15.870182 96.633 -167.7536
15.985184 96.626 -168.1027
16.101019 96.619 -168.4539
16.217694 96.612 -168.8070
16.335214 96.605 -169.1614
16.453586 96.598 -169.5164
16.572815 96.591 -169.8714
16.692909 96.583 -170.2255
16.813872 96.576 -170.5783
16.935713 96.569 -170.9293
17.058436 96.563 -171.2781
17.182048 96.556 -171.6246
17.306556 96.550 -171.9691
17.431967 96.545 -172.3116
17.558286 96.539 -172.6527
17.685521 96.533 -172.9926
17.813677 96.528 -173.3317
17.942762 96.523 -173.6702
18.072783 96.517 -174.0083
18.203746 96.512 -174.3458
18.335658 96.506 -174.6827
18.468526 96.500 -175.0185
18.602356 96.493 -175.3530
18.737156 96.487 -175.6858
18.872934 96.480 -176.0166
19.009695 96.473 -176.3454
19.147447 96.467 -176.6721
19.286197 96.460 -176.9969
19.425953 96.453 -177.3200
19.566721 96.446 -177.6418
19.708510 96.439 -177.9625
19.851326 96.432 -178.2826
19.995177 96.424 -178.6021
20.140070 96.416 -178.9211
20.286013 96.407 -179.2396
20.433014 96.398 -179.5576
20.581080 96.389 -179.8750
20.730219 96.379 179.8084
20.880439 96.370 179.4924
21.031747 96.360 179.1766
21.184152 96.350 178.8609
21.337661 96.340 178.5446
21.492282 96.331 178.2270
21.648024 96.322 177.9077
21.804895 96.312 177.5861
21.962902 96.303 177.2622
22.122054 96.293 176.9359
22.282360 96.282 176.6076
22.443827 96.272 176.2778
22.606464 96.261 175.9472
22.770280 96.249 175.6164
22.935283 96.237 175.2859
23.101481 96.225 174.9560
23.268884 96.213 174.6268
23.437500 96.201 174.2979
23.607338 96.189 173.9689
23.778406 96.177 173.6393
23.950714 96.165 173.3084
24.124271 96.153 172.9759
24.299086 96.141 172.6417
24.475167 96.129 172.3059
24.652524 96.117 171.9691
24.831166 96.105 171.6316
25.011103 96.092 171.2942
25.192344 96.079 170.9576
25.374898 96.067 170.6223
25.558775 96.054 170.2887
25.743984 96.041 169.9568
25.930536 96.028 169.6268
26.118439 96.015 169.2986
26.307704 96.002 168.9721
26.498341 95.989 168.6472
26.690359 95.976 168.3240
26.883768 95.963 168.0022
27.078579 95.950 167.6819
27.274801 95.937 167.3629
27.472446 95.923 167.0450
27.671522 95.910 166.7279
27.872042 95.896 166.4114
28.074014 95.882 166.0952
28.277450 95.868 165.7791
28.482360 95.853 165.4630
28.688755 95.838 165.1469
28.896645 95.823 164.8306
29.106042 95.807 164.5142
29.316957 95.791 164.1974
29.529400 95.774 163.8803
29.743382 95.757 163.5627
29.958915 95.740 163.2448
30.176009 95.723 162.9265
30.394677 95.706 162.6080
30.614929 95.688 162.2896
30.836778 95.671 161.9711
31.060234 95.654 161.6523
31.285309 95.637 161.3327
31.512015 95.620 161.0115
31.740364 95.603 160.6876
31.970368 95.587 160.3604
32.202039 95.570 160.0290
32.435388 95.554 159.6934
32.670428 95.538 159.3538
32.907171 95.521 159.0110
33.145630 95.504 158.6660
33.385817 95.486 158.3199
33.627745 95.468 157.9736
33.871425 95.450 157.6279
34.116871 95.432 157.2833
34.364096 95.413 156.9401
34.613113 95.394 156.5982
34.863934 95.376 156.2577
35.116572 95.357 155.9183
35.371041 95.338 155.5800
35.627354 95.319 155.2424
35.885525 95.299 154.9055
36.145566 95.279 154.5691
36.407492 95.259 154.2333
36.671316 95.239 153.8981
36.937051 95.218 153.5638
37.204712 95.196 153.2307
37.474313 95.174 152.8990
37.745867 95.152 152.5687
38.019389 95.129 152.2398
38.294893 95.107 151.9118
38.572394 95.084 151.5843
38.851905 95.060 151.2567
39.133442 95.037 150.9287
39.417019 95.013 150.6003
39.702651 94.989 150.2717
39.990353 94.964 149.9433
40.280140 94.940 149.6152
40.572026 94.915 149.2873
40.866028 94.891 148.9593
41.162160 94.866 148.6302
41.460438 94.841 148.2994
41.760877 94.817 147.9662
42.063494 94.792 147.6309
42.368303 94.767 147.2941
42.675322 94.741 146.9570
42.984565 94.714 146.6209
43.296048 94.687 146.2866
43.609789 94.660 145.9546
43.925804 94.633 145.6248
44.244108 94.605 145.2967
44.564719 94.578 144.9704
44.887654 94.550 144.6459
45.212928 94.522 144.3235
45.540560 94.494 144.0032
45.870565 94.466 143.6848
46.202962 94.438 143.3676
46.537768 94.410 143.0508
46.875000 94.383 142.7337
47.214676 94.355 142.4160
47.556813 94.326 142.0980
47.901429 94.298 141.7802
48.248542 94.269 141.4632
48.598171 94.240 141.1472
48.950334 94.211 140.8322
49.305048 94.181 140.5178
49.662333 94.150 140.2042
50.022206 94.119 139.8921
50.384688 94.088 139.5828
50.749796 94.055 139.2774
51.117550 94.023 138.9766
51.487969 93.991 138.6796
51.861072 93.959 138.3843
52.236879 93.927 138.0886
52.615409 93.896 137.7906
52.996681 93.865 137.4901
53.380717 93.834 137.1880
53.767536 93.803 136.8858
54.157158 93.772 136.5840
54.549603 93.741 136.2819
54.944892 93.712 135.9781
55.343045 93.683 135.6709
55.744084 93.654 135.3594
56.148028 93.625 135.0441
56.554900 93.596 134.7258
56.964720 93.567 134.4054
57.377510 93.537 134.0834
57.793291 93.507 133.7601
58.212085 93.477 133.4360
58.633914 93.446 133.1121
59.058799 93.413 132.7895
59.486764 93.381 132.4686
59.917829 93.347 132.1487
60.352019 93.313 131.8293
60.789354 93.278 131.5099
61.229859 93.242 131.1919
61.673556 93.205 130.8766
62.120468 93.168 130.5653
62.570618 93.131 130.2570
63.024031 93.095 129.9495
63.480729 93.058 129.6401
63.940736 93.022 129.3277
64.404077 92.986 129.0132
64.870776 92.949 128.6989
65.340856 92.912 128.3868
65.814343 92.875 128.0779
66.291261 92.838 127.7715
66.771635 92.801 127.4671
67.255489 92.764 127.1658
67.742850 92.725 126.8699
68.233743 92.687 126.5814
68.728193 92.649 126.2999
69.226226 92.610 126.0231
69.727867 92.573 125.7478
70.233144 92.535 125.4717
70.742083 92.497 125.1939
71.254709 92.458 124.9149
71.771050 92.418 124.6355
72.291132 92.378 124.3571
72.814984 92.337 124.0817
73.342631 92.296 123.8110
73.874102 92.255 123.5460
74.409424 92.215 123.2860
74.948626 92.176 123.0286
75.491734 92.138 122.7698
76.038779 92.101 122.5059
76.589787 92.066 122.2343
77.144788 92.031 121.9542
77.703811 91.996 121.6664
78.266885 91.961 121.3717
78.834039 91.926 121.0712
79.405303 91.891 120.7659
79.980706 91.855 120.4558
80.560280 91.820 120.1405
81.144053 91.783 119.8190
81.732056 91.746 119.4913
82.324320 91.707 119.1602
82.920876 91.666 118.8298
83.521755 91.624 118.5045
84.126988 91.581 118.1869
84.736607 91.536 117.8782
85.350643 91.491 117.5792
85.969129 91.445 117.2911
86.592097 91.399 117.0143
87.219579 91.353 116.7478
87.851608 91.308 116.4896
88.488217 91.263 116.2378
89.129439 91.218 115.9918
89.775308 91.174 115.7512
90.425856 91.130 115.5149
91.081119 91.087 115.2806
91.741131 91.044 115.0462
92.405925 91.002 114.8106
93.075536 90.960 114.5740
93.750000 90.918 114.3370
94.429351 90.875 114.1005
95.113625 90.833 113.8649
95.802858 90.790 113.6299
96.497085 90.748 113.3952
97.196342 90.705 113.1613
97.900667 90.662 112.9291
98.610096 90.619 112.6999
99.324665 90.576 112.4750
100.044413 90.533 112.2554
100.769376 90.490 112.0411
101.499592 90.448 111.8314
102.235100 90.407 111.6253
102.975938 90.366 111.4206
103.722144 90.327 111.2142
104.473757 90.288 111.0034
105.230817 90.250 110.7874
105.993363 90.211 110.5664
106.761435 90.173 110.3405
107.535072 90.134 110.1094
108.314315 90.096 109.8734
109.099206 90.057 109.6331
109.889783 90.018 109.3900
110.686090 89.979 109.1456
111.488167 89.940 108.9015
112.296056 89.900 108.6597
113.109800 89.857 108.4229
113.929440 89.812 108.1948
114.755020 89.764 107.9805
115.586582 89.713 107.7855
116.424170 89.659 107.6143
117.267827 89.603 107.4689
118.117598 89.549 107.3454
118.973527 89.498 107.2325
119.835658 89.454 107.1102
120.704037 89.415 106.9587
121.578708 89.380 106.7716
122.459718 89.347 106.5588
123.347111 89.315 106.3351
124.240935 89.284 106.1121
125.141236 89.253 105.8964
126.048061 89.221 105.6909
126.961458 89.188 105.4951
127.881473 89.154 105.3066
128.808154 89.117 105.1220
129.741551 89.079 104.9384
130.681712 89.039 104.7534
131.628686 89.000 104.5652
132.582521 88.960 104.3738
133.543269 88.922 104.1820
134.510979 88.885 103.9936
135.485701 88.848 103.8126
136.467486 88.812 103.6437
137.456386 88.775 103.4921
138.452451 88.737 103.3593
139.455735 88.700 103.2410
140.466288 88.663 103.1299
141.484165 88.626 103.0195
142.509418 88.589 102.9056
143.542100 88.553 102.7850
144.582265 88.518 102.6541
145.629968 88.486 102.5092
146.685262 88.456 102.3496
147.748204 88.428 102.1808
148.818849 88.400 102.0152
149.897251 88.375 101.8675
150.983469 88.351 101.7507
152.077557 88.330 101.6688
153.179574 88.311 101.6123
154.289576 88.296 101.5642
155.407622 88.283 101.5073
156.533770 88.273 101.4246
157.668078 88.265 101.3020
158.810606 88.259 101.1329
159.961413 88.256 100.9210
161.120559 88.255 100.6771
162.288105 88.254 100.4126
163.464112 88.252 100.1343
164.648640 88.243 99.8490
165.841752 88.224 99.5709
167.043510 88.196 99.3146
168.253976 88.160 99.0831
169.473213 88.120 98.8695
170.701286 88.079 98.6647
171.938258 88.041 98.4625
173.184194 88.006 98.2604
174.439158 87.976 98.0581
175.703216 87.948 97.8563
176.976434 87.922 97.6550
178.258878 87.897 97.4530
179.550615 87.872 97.2482
180.851713 87.847 97.0392
182.162239 87.822 96.8267
183.482262 87.796 96.6128
184.811850 87.772 96.3997
186.151073 87.748 96.1873
187.500000 87.725 95.9733
188.858702 87.702 95.7569
190.227250 87.679 95.5388
191.605715 87.656 95.3212
192.994169 87.632 95.1056
194.392685 87.609 94.8934
195.801334 87.586 94.6854
197.220191 87.563 94.4826
198.649330 87.541 94.2862
200.088825 87.519 94.0970
201.538751 87.498 93.9149
202.999184 87.479 93.7379
204.470200 87.461 93.5620
205.951875 87.444 93.3822
207.444287 87.428 93.1954
208.947514 87.412 93.0009
210.461634 87.396 92.8003
211.986726 87.378 92.5972
213.522869 87.359 92.3958
215.070144 87.338 92.2011
216.628631 87.316 92.0168
218.198411 87.295 91.8447
219.779567 87.274 91.6830
221.372180 87.256 91.5270
222.976334 87.238 91.3711
224.592112 87.222 91.2107
226.219600 87.207 91.0432
227.858880 87.192 90.8683
229.510039 87.177 90.6875
231.173164 87.162 90.5023
232.848340 87.147 90.3133
234.535655 87.132 90.1201
236.235197 87.117 89.9220
237.947054 87.102 89.7186
239.671317 87.085 89.5092
241.408074 87.067 89.2946
243.157416 87.048 89.0791
244.919435 87.028 88.8710
246.694223 87.010 88.6785
248.481871 86.994 88.5050
250.282473 86.980 88.3506
252.096123 86.968 88.2133
253.922915 86.957 88.0891
255.762945 86.949 87.9703
257.616309 86.943 87.8463
259.483103 86.938 87.7075
261.363424 86.935 87.5488
263.257372 86.930 87.3726
265.165043 86.925 87.1861
267.086538 86.918 86.9983
269.021957 86.911 86.8164
270.971401 86.903 86.6441
272.934972 86.896 86.4810
274.912771 86.890 86.3243
276.904902 86.886 86.1710
278.911469 86.883 86.0190
280.932577 86.882 85.8669
282.968330 86.884 85.7123
285.018835 86.887 85.5507
287.084199 86.892 85.3753
289.164530 86.898 85.1801
291.259935 86.903 84.9630
293.370525 86.906 84.7287
295.496408 86.907 84.4868
297.637697 86.905 84.2475
299.794503 86.902 84.0172
301.966937 86.897 83.7980
304.155114 86.891 83.5887
306.359147 86.886 83.3864
308.579152 86.880 83.1873
310.815244 86.875 82.9883
313.067539 86.870 82.7877
315.336156 86.864 82.5863
317.621211 86.858 82.3882
319.922826 86.852 82.1985
322.241118 86.846 82.0204
324.576210 86.841 81.8538
326.928223 86.838 81.6958
329.297280 86.836 81.5421
331.683504 86.836 81.3885
334.087019 86.837 81.2317
336.507952 86.838 81.0692
338.946427 86.839 80.9004
341.402572 86.840 80.7263
343.876516 86.840 80.5495
346.368387 86.840 80.3729
348.878315 86.840 80.1987
351.406431 86.840 80.0280
353.952867 86.840 79.8615
356.517756 86.841 79.6990
359.101230 86.843 79.5395
361.703426 86.845 79.3815
364.324478 86.848 79.2238
366.964523 86.852 79.0656
369.623699 86.856 78.9064
372.302145 86.860 78.7458
375.000000 86.866 78.5836
377.717405 86.872 78.4191
380.454501 86.878 78.2514
383.211431 86.885 78.0793
385.988339 86.891 77.9020
388.785369 86.898 77.7198
391.602668 86.905 77.5343
394.440383 86.911 77.3475
397.298660 86.918 77.1615
400.177650 86.925 76.9768
403.077502 86.932 76.7920
405.998368 86.939 76.6042
408.940400 86.946 76.4106
411.903750 86.952 76.2106
414.888575 86.957 76.0064
417.895028 86.960 75.8024
420.923268 86.962 75.6038
423.973452 86.962 75.4155
427.045738 86.962 75.2407
430.140287 86.963 75.0800
433.257261 86.964 74.9314
436.396822 86.968 74.7917
439.559133 86.973 74.6577
442.744360 86.981 74.5255
445.952668 86.991 74.3894
449.184225 87.003 74.2425
452.439199 87.016 74.0773
455.717760 87.029 73.8902
459.020079 87.041 73.6845
462.346327 87.049 73.4705
465.696680 87.055 73.2600
469.071310 87.059 73.0603
472.470394 87.061 72.8734
475.894109 87.064 72.6971
479.342634 87.067 72.5268
482.816148 87.070 72.3574
486.314833 87.072 72.1868
489.838871 87.073 72.0188
493.388445 87.074 71.8608
496.963741 87.074 71.7171
500.564945 87.076 71.5849
504.192245 87.080 71.4571
507.845830 87.085 71.3271
511.525890 87.090 71.1919
515.232618 87.095 71.0523
518.966206 87.099 70.9116
522.726849 87.102 70.7744
526.514743 87.105 70.6451
530.330086 87.107 70.5256
534.173076 87.111 70.4142
538.043915 87.116 70.3066
541.942803 87.121 70.2006
545.869944 87.127 70.0964
549.825542 87.133 69.9944
553.809805 87.140 69.8932
557.822939 87.148 69.7901
561.865154 87.156 69.6834
565.936660 87.164 69.5738
570.037671 87.171 69.4643
574.168399 87.177 69.3587
578.329060 87.183 69.2589
582.519870 87.188 69.1643
586.741049 87.192 69.0741
590.992817 87.197 68.9901
595.275394 87.201 68.9151
599.589005 87.206 68.8487
603.933874 87.212 68.7869
608.310228 87.218 68.7258
612.718295 87.225 68.6639
617.158304 87.231 68.6036
621.630488 87.236 68.5512
626.135079 87.241 68.5137
630.672311 87.247 68.4939
635.242423 87.254 68.4880
639.845651 87.264 68.4890
644.482237 87.275 68.4938
649.152421 87.288 68.5027
653.856447 87.304 68.5147
658.594560 87.322 68.5236
663.367008 87.342 68.5194
668.174039 87.364 68.4937
673.015903 87.384 68.4467
677.892854 87.403 68.3860
682.805145 87.419 68.3204
687.753032 87.433 68.2571
692.736774 87.445 68.2021
697.756631 87.456 68.1601
702.812863 87.466 68.1334
707.905735 87.476 68.1202
713.035511 87.487 68.1162
718.202461 87.499 68.1177
723.406852 87.511 68.1236
728.648956 87.523 68.1349
733.929047 87.536 68.1529
739.247399 87.548 68.1787
744.604290 87.561 68.2130
750.000000 87.574 68.2558
755.434809 87.588 68.3069
760.909001 87.602 68.3655
766.422861 87.617 68.4309
771.976677 87.633 68.5023
777.570739 87.650 68.5792
783.205337 87.668 68.6613
788.880766 87.687 68.7503
794.597321 87.706 68.8488
800.355301 87.728 68.9591
806.155005 87.752 69.0801
811.996736 87.780 69.2067
817.880799 87.811 69.3304
823.807501 87.846 69.4416
829.777150 87.882 69.5316
835.790057 87.919 69.5981
841.846536 87.954 69.6476
847.946903 87.987 69.6912
854.091476 88.018 69.7373
860.280575 88.048 69.7900
866.514523 88.077 69.8521
872.793644 88.106 69.9265
879.118267 88.135 70.0127
885.488720 88.166 70.1064
891.905336 88.197 70.2040
898.368450 88.230 70.3048
904.878398 88.264 70.4113
911.435520 88.300 70.5245
918.040157 88.337 70.6434
924.692655 88.377 70.7653
931.393359 88.419 70.8867
938.142619 88.463 71.0038
944.940787 88.509 71.1144
951.788218 88.555 71.2192
958.685268 88.603 71.3206
965.632296 88.652 71.4212
972.629666 88.701 71.5235
979.677741 88.752 71.6280
986.776890 88.804 71.7336
993.927482 88.858 71.8408
1001.129891 88.912 71.9532
1008.384491 88.969 72.0741
1015.691660 89.029 72.2026
1023.051781 89.093 72.3337
1030.465236 89.162 72.4594
1037.932411 89.235 72.5677
1045.453698 89.313 72.6465
1053.029486 89.392 72.6897
1060.660172 89.471 72.7004
1068.346153 89.550 72.6868
1076.087829 89.627 72.6580
1083.885605 89.703 72.6201
1091.739887 89.778 72.5746
1099.651084 89.853 72.5207
1107.619609 89.929 72.4581
1115.645878 90.004 72.3876
1123.730308 90.078 72.3101
1131.873321 90.153 72.2265
1140.075341 90.228 72.1372
1148.336797 90.303 72.0420
1156.658119 90.379 71.9412
1165.039741 90.455 71.8358
1173.482099 90.533 71.7271
1181.985634 90.613 71.6145
1190.550789 90.697 71.4915
1199.178011 90.783 71.3467
1207.867749 90.872 71.1686
1216.620457 90.960 70.9514
1225.436590 91.048 70.6985
1234.316609 91.132 70.4184
1243.260976 91.212 70.1197
1252.270157 91.289 69.8104
1261.344623 91.362 69.4949
1270.484846 91.433 69.1751
1279.691303 91.502 68.8526
1288.964474 91.569 68.5294
1298.304842 91.634 68.2057
1307.712894 91.699 67.8795
1317.189120 91.762 67.5474
1326.734016 91.825 67.2076
1336.348077 91.886 66.8610
1346.031806 91.947 66.5107
1355.785708 92.006 66.1613
1365.610290 92.064 65.8169
1375.506065 92.122 65.4829
1385.473549 92.181 65.1652
1395.513261 92.241 64.8656
1405.625726 92.304 64.5793
1415.811469 92.369 64.2948
1426.071023 92.437 63.9983
1436.404921 92.506 63.6808
1446.813703 92.574 63.3424
1457.297912 92.639 62.9893
1467.858093 92.701 62.6284
1478.494798 92.760 62.2649
1489.208581 92.815 61.9027
1500.000000 92.865 61.5452
1510.869618 92.911 61.1958
1521.818002 92.952 60.8574
1532.845723 92.987 60.5328
1543.953355 93.019 60.2238
1555.141477 93.048 59.9307
1566.410674 93.076 59.6494
1577.761531 93.105 59.3695
1589.194642 93.136 59.0773
1600.710601 93.168 58.7638
1612.310010 93.198 58.4284
1623.993473 93.226 58.0764
1635.761599 93.252 57.7156
1647.615002 93.275 57.3520
1659.554299 93.296 56.9904
1671.580114 93.315 56.6340
1683.693072 93.334 56.2834
1695.893807 93.351 55.9370
1708.182952 93.368 55.5928
1720.561150 93.383 55.2509
1733.029045 93.395 54.9146
1745.587288 93.405 54.5887
1758.236533 93.412 54.2793
1770.977440 93.419 53.9916
1783.810673 93.427 53.7245
1796.736900 93.438 53.4686
1809.756796 93.452 53.2095
1822.871040 93.469 52.9363
1836.080315 93.487 52.6450
1849.385310 93.506 52.3372
1862.786718 93.524 52.0164
1876.285239 93.542 51.6872
1889.881575 93.560 51.3550
1903.576436 93.580 51.0250
1917.370535 93.602 50.7021
1931.264593 93.628 50.3894
1945.259332 93.660 50.0862
1959.355483 93.698 49.7841
1973.553781 93.741 49.4699
1987.854965 93.788 49.1331
2002.259781 93.837 48.7694
2016.768981 93.885 48.3808
2031.383320 93.931 47.9715
2046.103561 93.976 47.5464
2060.930471 94.019 47.1093
2075.864823 94.059 46.6612
2090.907395 94.097 46.2018
2106.058972 94.132 45.7326
2121.320344 94.163 45.2580
2136.692305 94.190 44.7859
2152.175658 94.214 44.3246
2167.771210 94.236 43.8775
2183.479774 94.257 43.4392
2199.302169 94.278 42.9993
2215.239219 94.299 42.5496
2231.291755 94.318 42.0868
2247.460615 94.335 41.6120
2263.746641 94.350 41.1297
2280.150683 94.361 40.6472
2296.673595 94.369 40.1729
2313.316238 94.375 39.7138
2330.079481 94.382 39.2716
2346.964198 94.390 38.8392
2363.971268 94.400 38.4041
2381.101578 94.412 37.9563
2398.356022 94.424 37.4908
2415.735498 94.435 37.0075
2433.240913 94.444 36.5093
2450.873180 94.452 35.9989
2468.633217 94.458 35.4775
2486.521951 94.461 34.9467
2504.540314 94.461 34.4108
2522.689246 94.458 33.8769
2540.969692 94.454 33.3520
2559.382606 94.449 32.8362
2577.928947 94.446 32.3208
2596.609683 94.444 31.7933
2615.425787 94.442 31.2432
2634.378241 94.439 30.6642
2653.468031 94.434 30.0560
2672.696154 94.424 29.4238
2692.063613 94.408 28.7762
2711.571415 94.388 28.1212
2731.220579 94.363 27.4611
2751.012130 94.333 26.7937
2770.947098 94.297 26.1176
2791.026522 94.254 25.4358
2811.251451 94.203 24.7561
2831.622938 94.144 24.0893
2852.142045 94.075 23.4463
2872.809842 93.998 22.8384
2893.627406 93.912 22.2786
2914.595823 93.819 21.7817
2935.716186 93.720 21.3600
2956.989596 93.619 21.0167
2978.417161 93.518 20.7462
3000.000000 93.419 20.5392
3021.739237 93.322 20.3868
3043.636005 93.227 20.2841
3065.691446 93.135 20.2312
3087.906710 93.047 20.2302
3110.282955 92.963 20.2787
3132.821347 92.886 20.3667
3155.523062 92.817 20.4801
3178.389283 92.754 20.6053
3201.421202 92.697 20.7325
3224.620020 92.644 20.8557
3247.986946 92.595 20.9719
3271.523198 92.547 21.0829
3295.230004 92.500 21.1970
3319.108599 92.454 21.3253
3343.160228 92.409 21.4742
3367.386145 92.366 21.6432
3391.787613 92.327 21.8275
3416.365904 92.292 22.0233
3441.122300 92.259 22.2318
3466.058091 92.230 22.4596
3491.174576 92.204 22.7134
3516.473066 92.184 22.9932
3541.954880 92.171 23.2914
3567.621345 92.165 23.5966
3593.473800 92.166 23.8973
3619.513592 92.173 24.1829
3645.742080 92.186 24.4456
3672.160630 92.201 24.6843
3698.770620 92.219 24.9048
3725.573436 92.239 25.1136
3752.570477 92.261 25.3130
3779.763150 92.284 25.5001
3807.152872 92.308 25.6726
3834.741071 92.333 25.8339
3862.529185 92.357 25.9929
3890.518664 92.381 26.1585
3918.710966 92.408 26.3327
3947.107561 92.438 26.5100
3975.709929 92.473 26.6810
4004.519563 92.514 26.8347
4033.537962 92.559 26.9619
4062.766641 92.608 27.0600
4092.207123 92.659 27.1338
4121.860942 92.713 27.1883
4151.729646 92.770 27.2235
4181.814790 92.831 27.2349
4212.117944 92.896 27.2180
4242.640687 92.963 27.1724
4273.384610 93.035 27.0985
4304.351317 93.111 26.9911
4335.542421 93.192 26.8367
4366.959549 93.279 26.6169
4398.604338 93.370 26.3111
4430.478438 93.462 25.9027
4462.583511 93.552 25.3852
4494.921231 93.637 24.7617
4527.493283 93.715 24.0393
4560.301365 93.782 23.2255
4593.347189 93.837 22.3301
4626.632476 93.876 21.3698
4660.158962 93.899 20.3674
4693.928395 93.907 19.3451
4727.942535 93.899 18.3199
4762.203156 93.878 17.3023
4796.712043 93.845 16.2963
4831.470996 93.800 15.3046
4866.481826 93.744 14.3336
4901.746360 93.676 13.3922
4937.266434 93.597 12.4880
4973.043902 93.507 11.6259
5009.080628 93.407 10.8134
5045.378492 93.296 10.0634
5081.939384 93.176 9.3904
5118.765212 93.048 8.8051
5155.857894 92.916 8.3104
5193.219366 92.783 7.9006
5230.851574 92.649 7.5660
5268.756481 92.517 7.2983
5306.936062 92.386 7.0902
5345.392309 92.257 6.9327
5384.127225 92.130 6.8169
5423.142830 92.003 6.7397
5462.441159 91.875 6.7043
5502.024259 91.748 6.7156
5541.894195 91.622 6.7751
5582.053045 91.499 6.8778
5622.502902 91.380 7.0135
5663.245876 91.265 7.1721
5704.284090 91.155 7.3447
5745.619684 91.048 7.5219
5787.254813 90.944 7.6964
5829.191647 90.839 7.8685
5871.432373 90.733 8.0463
5913.979192 90.625 8.2422
5956.834323 90.515 8.4668
6000.000000 90.405 8.7258
6043.478473 90.294 9.0225
6087.272010 90.184 9.3585
6131.382892 90.075 9.7332
6175.813420 89.967 10.1442
6220.565910 89.861 10.5925
6265.642695 89.755 11.0850
6311.046124 89.650 11.6317
6356.778566 89.548 12.2411
6402.842404 89.450 12.9171
6449.240040 89.358 13.6599
6495.973891 89.273 14.4659
6543.046396 89.199 15.3277
6590.460007 89.134 16.2364
6638.217197 89.081 17.1865
6686.320456 89.039 18.1771
6734.772290 89.010 19.2085
6783.575226 88.994 20.2783
6832.731809 88.994 21.3806
6882.244600 89.010 22.5046
6932.116181 89.044 23.6337
6982.349153 89.096 24.7486
7032.946133 89.166 25.8323
7083.909760 89.255 26.8719
7135.242690 89.363 27.8567
7186.947600 89.491 28.7733
7239.027185 89.640 29.6051
7291.484160 89.811 30.3288
7344.321260 90.003 30.9151
7397.541239 90.214 31.3328
7451.146872 90.443 31.5551
7505.140954 90.685 31.5604
7559.526299 90.936 31.3294
7614.305743 91.194 30.8440
7669.482141 91.453 30.0862
7725.058371 91.708 29.0378
7781.037328 91.951 27.6853
7837.421932 92.172 26.0283
7894.215122 92.364 24.0836
7951.419859 92.516 21.8845
8009.039125 92.621 19.4775
8067.075924 92.676 16.9193
8125.533282 92.675 14.2700
8184.414245 92.618 11.5916
8243.721885 92.503 8.9486
8303.459292 92.332 6.4087
8363.629581 92.108 4.0383
8424.235888 91.837 1.8980
8485.281374 91.526 0.0361
8546.769221 91.185 -1.5179
8608.702634 90.824 -2.7521
8671.084842 90.450 -3.6659
8733.919097 90.072 -4.2645
8797.208675 89.696 -4.5553
8860.956876 89.328 -4.5482
8925.167022 88.976 -4.2611
8989.842461 88.646 -3.7228
9054.986566 88.342 -2.9705
9120.602731 88.069 -2.0438
9186.694378 87.828 -0.9794
9253.264952 87.621 0.1923
9320.317925 87.449 1.4417
9387.856790 87.314 2.7349
9455.885071 87.216 4.0350
9524.406312 87.154 5.3051
9593.424086 87.129 6.5135
9662.941992 87.137 7.6346
9732.963653 87.178 8.6420
9803.492719 87.251 9.5020
9874.532869 87.353 10.1747
9946.087805 87.477 10.6210
10018.161257 87.616 10.8108
10090.756983 87.763 10.7274
10163.878768 87.907 10.3645
10237.530423 88.041 9.7260
10311.715789 88.155 8.8297
10386.438732 88.238 7.7145
10461.703149 88.284 6.4435
10537.512962 88.288 5.0961
10613.872125 88.251 3.7537
10690.784618 88.179 2.4860
10768.254450 88.080 1.3414
10846.285661 87.963 0.3444
10924.882318 87.838 -0.5068
11004.048518 87.715 -1.2416
11083.788390 87.598 -1.9116
11164.106090 87.491 -2.5778
11245.005805 87.389 -3.2919
11326.491752 87.286 -4.0835
11408.568180 87.175 -4.9601
11491.239368 87.049 -5.9114
11574.509626 86.902 -6.9150
11658.383294 86.729 -7.9348
11742.864745 86.526 -8.9232
11827.958384 86.294 -9.8268
11913.668646 86.033 -10.5955
12000.000000 85.749 -11.1862
12086.956947 85.445 -11.5616
12174.544019 85.128 -11.6896
12262.765784 84.805 -11.5464
12351.626840 84.485 -11.1224
12441.131819 84.177 -10.4221
12531.285389 83.890 -9.4594
12622.092249 83.632 -8.2589
12713.557132 83.414 -6.8646
12805.684808 83.243 -5.3430
12898.480079 83.123 -3.7728
12991.947783 83.056 -2.2289
13086.092792 83.041 -0.7773
13180.920015 83.076 0.5187
13276.434395 83.157 1.5948
13372.640911 83.278 2.3903
13469.544580 83.432 2.8502
13567.150452 83.610 2.9253
13665.463617 83.799 2.5743
13764.489200 83.986 1.7748
13864.232362 84.155 0.5302
13964.698305 84.292 -1.1295
14065.892266 84.382 -3.1501
14167.819519 84.416 -5.4531
14270.485380 84.384 -7.9362
14373.895200 84.282 -10.4839
14478.054370 84.113 -12.9803
14582.968320 83.884 -15.3195
14688.642520 83.606 -17.4121
14795.082478 83.296 -19.1986
14902.293745 82.973 -20.6603
15010.281908 82.658 -21.8216
15119.052599 82.369 -22.7452
15228.611486 82.121 -23.5238
15338.964283 81.920 -24.2643
15450.116741 81.768 -25.0642
15562.074656 81.658 -25.9896
15674.843864 81.582 -27.0657
15788.430244 81.535 -28.2820
15902.839718 81.521 -29.6114
16018.078250 81.554 -31.0426
16134.151848 81.656 -32.6172
16251.066563 81.852 -34.4557
16368.828491 82.160 -36.7606
16487.443769 82.574 -39.7946
16606.918584 83.064 -43.8269
16727.259161 83.576 -49.0687
16848.471777 84.037 -55.6482
16970.562748 84.363 -63.5942
17093.538442 84.462 -72.7460
17217.405268 84.266 -82.6840
17342.169684 83.753 -92.8365
17467.838194 82.943 -102.6954
17594.417350 81.886 -111.9537
17721.913751 80.637 -120.5167
17850.334044 79.246 -128.4431
17979.684923 77.748 -135.8557
18109.973131 76.164 -142.8519
18241.205462 74.495 -149.4465
18373.388756 72.734 -155.5577
18506.529905 70.868 -161.0327
18640.635849 68.889 -165.6893
18775.713581 66.794 -169.3508
18911.770141 64.586 -171.8607
19048.812624 62.269 -173.0770
19186.848172 59.854 -172.8470
19325.883983 57.355 -170.9495
19465.927305 54.798 -166.9562
19606.985439 52.239 -159.9366
19749.065738 49.802 -148.0996
19892.175609 47.750 -130.2466
20036.322514 46.517 -113.9781
