* Measurement data measured by REW V5.30.3
* Source: EXCL: Microphone (Realtek(R) Audio), MICROPHONE (Master Volume), L, volume: 1.000
* Format: 256k Log Swept Sine, 1 sweep at -20.0 dBFS with no timing reference
* Dated: Jan 10, 2024 12:21:13 AM
* REW Settings:
*  C-weighting compensation: Off
*  Target level: 75.0 dB
* Note: EPZ X Tipsy Star One R
* Measurement: R EPZ X Tipsy Star One
* Smoothing: 1/12 octave
* Frequency Step: 96 ppo
* Start Frequency: 0.36621094 Hz
*
* Freq(Hz) SPL(dB) Phase(degrees)
0.366211 78.171 158.1774
0.368865 78.166 158.1477
0.371538 78.159 158.1034
0.374230 78.150 158.0478
0.376942 78.140 157.9839
0.379673 78.130 157.9140
0.382424 78.119 157.8395
0.385196 78.107 157.7612
0.387987 78.096 157.6796
0.390798 78.084 157.5950
0.393630 78.072 157.5076
0.396483 78.060 157.4173
0.399356 78.048 157.3242
0.402250 78.036 157.2283
0.405165 78.023 157.1296
0.408101 78.011 157.0280
0.411058 77.999 156.9234
0.414037 77.986 156.8160
0.417037 77.973 156.7056
0.420059 77.961 156.5922
0.423103 77.948 156.4758
0.426169 77.935 156.3563
0.429257 77.922 156.2337
0.432367 77.909 156.1080
0.435501 77.896 155.9791
0.438656 77.882 155.8470
0.441835 77.869 155.7117
0.445037 77.856 155.5732
0.448262 77.842 155.4313
0.451510 77.828 155.2861
0.454782 77.815 155.1376
0.458077 77.801 154.9857
0.461397 77.787 154.8304
0.464740 77.773 154.6716
0.468108 77.759 154.5094
0.471500 77.744 154.3436
0.474917 77.730 154.1743
0.478358 77.715 154.0014
0.481825 77.701 153.8249
0.485316 77.686 153.6449
0.488833 77.671 153.4611
0.492375 77.656 153.2737
0.495943 77.641 153.0825
0.499537 77.626 152.8877
0.503157 77.611 152.6890
0.506803 77.596 152.4866
0.510475 77.580 152.2804
0.514174 77.565 152.0704
0.517900 77.549 151.8565
0.521653 77.533 151.6387
0.525433 77.517 151.4170
0.529241 77.501 151.1915
0.533076 77.485 150.9620
0.536939 77.469 150.7285
0.540830 77.453 150.4911
0.544749 77.436 150.2497
0.548696 77.419 150.0043
0.552673 77.403 149.7550
0.556677 77.386 149.5016
0.560711 77.369 149.2442
0.564774 77.352 148.9828
0.568867 77.335 148.7173
0.572989 77.317 148.4478
0.577141 77.300 148.1743
0.581324 77.282 147.8967
0.585536 77.264 147.6152
0.589779 77.247 147.3295
0.594053 77.229 147.0399
0.598358 77.210 146.7462
0.602694 77.192 146.4486
0.607061 77.174 146.1469
0.611460 77.155 145.8413
0.615891 77.137 145.5317
0.620354 77.118 145.2181
0.624849 77.099 144.9007
0.629377 77.080 144.5793
0.633938 77.061 144.2540
0.638532 77.041 143.9249
0.643159 77.022 143.5920
0.647819 77.002 143.2554
0.652514 76.983 142.9150
0.657242 76.963 142.5708
0.662005 76.943 142.2231
0.666802 76.923 141.8717
0.671634 76.902 141.5168
0.676501 76.882 141.1583
0.681403 76.861 140.7964
0.686341 76.840 140.4311
0.691314 76.819 140.0624
0.696324 76.798 139.6904
0.701369 76.777 139.3151
0.706452 76.755 138.9364
0.711571 76.734 138.5543
0.716727 76.712 138.1686
0.721921 76.689 137.7789
0.727153 76.666 137.3847
0.732422 76.642 136.9850
0.737729 76.617 136.5788
0.743075 76.591 136.1651
0.748460 76.565 135.7430
0.753883 76.537 135.3116
0.759346 76.508 134.8705
0.764849 76.479 134.4193
0.770391 76.449 133.9577
0.775974 76.417 133.4854
0.781597 76.386 133.0023
0.787261 76.353 132.5083
0.792965 76.320 132.0031
0.798712 76.285 131.4867
0.804499 76.251 130.9589
0.810329 76.215 130.4196
0.816201 76.179 129.8687
0.822116 76.143 129.3062
0.828073 76.105 128.7318
0.834073 76.068 128.1455
0.840118 76.029 127.5472
0.846205 75.990 126.9369
0.852337 75.951 126.3143
0.858514 75.912 125.6796
0.864735 75.872 125.0326
0.871001 75.831 124.3733
0.877313 75.791 123.7016
0.883670 75.750 123.0174
0.890074 75.709 122.3209
0.896523 75.668 121.6120
0.903020 75.627 120.8906
0.909564 75.586 120.1569
0.916155 75.545 119.4107
0.922793 75.504 118.6522
0.929480 75.463 117.8815
0.936216 75.422 117.0985
0.943000 75.382 116.3033
0.949833 75.342 115.4961
0.956716 75.302 114.6770
0.963649 75.263 113.8460
0.970632 75.225 113.0034
0.977666 75.187 112.1492
0.984750 75.150 111.2836
0.991886 75.114 110.4068
0.999074 75.079 109.5189
1.006313 75.045 108.6201
1.013605 75.012 107.7107
1.020950 74.980 106.7908
1.028349 74.950 105.8607
1.035801 74.921 104.9204
1.043306 74.893 103.9703
1.050867 74.867 103.0104
1.058482 74.844 102.0410
1.066152 74.822 101.0619
1.073878 74.801 100.0731
1.081659 74.783 99.0741
1.089498 74.767 98.0644
1.097393 74.753 97.0428
1.105345 74.741 96.0081
1.113355 74.730 94.9590
1.121422 74.721 93.8941
1.129549 74.713 92.8126
1.137734 74.707 91.7137
1.145978 74.702 90.5970
1.154283 74.698 89.4624
1.162647 74.696 88.3098
1.171072 74.696 87.1391
1.179558 74.696 85.9505
1.188106 74.699 84.7442
1.196715 74.703 83.5205
1.205387 74.708 82.2797
1.214122 74.715 81.0222
1.222920 74.724 79.7486
1.231781 74.734 78.4593
1.240708 74.746 77.1551
1.249698 74.760 75.8367
1.258754 74.775 74.5048
1.267875 74.792 73.1604
1.277063 74.812 71.8044
1.286317 74.833 70.4378
1.295638 74.856 69.0618
1.305027 74.881 67.6775
1.314484 74.908 66.2860
1.324009 74.937 64.8888
1.333603 74.968 63.4871
1.343267 75.002 62.0822
1.353001 75.037 60.6755
1.362805 75.075 59.2685
1.372681 75.115 57.8626
1.382628 75.158 56.4591
1.392647 75.203 55.0595
1.402739 75.250 53.6650
1.412904 75.300 52.2770
1.423142 75.353 50.8965
1.433455 75.408 49.5244
1.443842 75.467 48.1615
1.454305 75.529 46.8081
1.464843 75.594 45.4642
1.475458 75.663 44.1294
1.486150 75.737 42.8036
1.496919 75.815 41.4866
1.507766 75.897 40.1786
1.518692 75.984 38.8799
1.529697 76.075 37.5911
1.540782 76.171 36.3126
1.551947 76.271 35.0452
1.563193 76.375 33.7894
1.574521 76.483 32.5456
1.585931 76.595 31.3145
1.597423 76.710 30.0965
1.608998 76.829 28.8917
1.620658 76.950 27.7007
1.632402 77.074 26.5235
1.644231 77.201 25.3604
1.656146 77.330 24.2115
1.668147 77.461 23.0768
1.680235 77.593 21.9563
1.692410 77.727 20.8499
1.704674 77.862 19.7576
1.717027 77.998 18.6793
1.729469 78.134 17.6146
1.742002 78.270 16.5634
1.754625 78.405 15.5253
1.767340 78.540 14.5000
1.780147 78.675 13.4871
1.793046 78.808 12.4859
1.806040 78.939 11.4958
1.819127 79.070 10.5160
1.832309 79.200 9.5457
1.845587 79.330 8.5839
1.858961 79.459 7.6299
1.872431 79.589 6.6834
1.886000 79.720 5.7441
1.899666 79.851 4.8123
1.913432 79.983 3.8880
1.927298 80.116 2.9716
1.941264 80.249 2.0635
1.955331 80.383 1.1640
1.969500 80.518 0.2735
1.983772 80.653 -0.6078
1.998147 80.788 -1.4796
2.012626 80.924 -2.3415
2.027211 81.060 -3.1933
2.041901 81.196 -4.0349
2.056697 81.332 -4.8660
2.071601 81.467 -5.6865
2.086613 81.602 -6.4964
2.101733 81.737 -7.2954
2.116963 81.871 -8.0837
2.132303 82.005 -8.8614
2.147755 82.138 -9.6287
2.163318 82.269 -10.3861
2.178995 82.400 -11.1343
2.194785 82.530 -11.8742
2.210689 82.659 -12.6069
2.226709 82.787 -13.3334
2.242844 82.914 -14.0545
2.259097 83.040 -14.7707
2.275467 83.166 -15.4821
2.291956 83.290 -16.1888
2.308565 83.414 -16.8906
2.325294 83.538 -17.5872
2.342144 83.660 -18.2785
2.359116 83.782 -18.9640
2.376211 83.903 -19.6435
2.393430 84.023 -20.3168
2.410774 84.143 -20.9834
2.428243 84.263 -21.6433
2.445839 84.381 -22.2960
2.463562 84.499 -22.9416
2.481415 84.617 -23.5797
2.499396 84.734 -24.2105
2.517508 84.851 -24.8340
2.535750 84.967 -25.4506
2.554126 85.082 -26.0609
2.572634 85.197 -26.6655
2.591276 85.311 -27.2653
2.610054 85.424 -27.8610
2.628967 85.536 -28.4532
2.648018 85.647 -29.0420
2.667206 85.757 -29.6274
2.686534 85.867 -30.2094
2.706002 85.975 -30.7879
2.725610 86.083 -31.3624
2.745361 86.190 -31.9329
2.765255 86.296 -32.4989
2.785294 86.402 -33.0603
2.805477 86.507 -33.6167
2.825807 86.611 -34.1680
2.846284 86.715 -34.7139
2.866909 86.819 -35.2544
2.887684 86.922 -35.7895
2.908609 87.024 -36.3195
2.929686 87.126 -36.8447
2.950916 87.228 -37.3658
2.972299 87.329 -37.8834
2.993838 87.429 -38.3977
3.015532 87.528 -38.9092
3.037384 87.627 -39.4178
3.059394 87.724 -39.9234
3.081564 87.821 -40.4259
3.103894 87.918 -40.9249
3.126386 88.014 -41.4203
3.149041 88.109 -41.9118
3.171861 88.204 -42.3989
3.194845 88.298 -42.8816
3.217996 88.393 -43.3594
3.241315 88.487 -43.8323
3.264803 88.580 -44.3002
3.288461 88.674 -44.7632
3.312291 88.767 -45.2215
3.336293 88.859 -45.6756
3.360469 88.951 -46.1256
3.384820 89.043 -46.5720
3.409348 89.134 -47.0150
3.434054 89.224 -47.4547
3.458938 89.315 -47.8913
3.484003 89.404 -48.3249
3.509250 89.494 -48.7555
3.534679 89.583 -49.1831
3.560293 89.672 -49.6079
3.586092 89.761 -50.0297
3.612079 89.850 -50.4487
3.638253 89.939 -50.8648
3.664618 90.028 -51.2781
3.691173 90.116 -51.6886
3.717921 90.205 -52.0964
3.744862 90.293 -52.5016
3.771999 90.381 -52.9045
3.799332 90.469 -53.3052
3.826864 90.557 -53.7039
3.854595 90.644 -54.1009
3.882527 90.731 -54.4964
3.910661 90.819 -54.8905
3.938999 90.906 -55.2834
3.967543 90.994 -55.6752
3.996294 91.081 -56.0660
4.025252 91.168 -56.4558
4.054421 91.256 -56.8444
4.083801 91.343 -57.2320
4.113394 91.431 -57.6186
4.143201 91.518 -58.0044
4.173225 91.605 -58.3896
4.203466 91.692 -58.7746
4.233926 91.780 -59.1597
4.264606 91.867 -59.5453
4.295509 91.954 -59.9317
4.326636 92.041 -60.3193
4.357989 92.127 -60.7082
4.389569 92.214 -61.0985
4.421378 92.301 -61.4903
4.453417 92.388 -61.8835
4.485688 92.474 -62.2781
4.518193 92.561 -62.6742
4.550934 92.647 -63.0718
4.583912 92.733 -63.4710
4.617129 92.819 -63.8721
4.650587 92.905 -64.2751
4.684287 92.990 -64.6804
4.718231 93.075 -65.0881
4.752421 93.160 -65.4983
4.786859 93.244 -65.9112
4.821547 93.328 -66.3269
4.856485 93.412 -66.7452
4.891677 93.495 -67.1661
4.927125 93.578 -67.5893
4.962829 93.661 -68.0149
4.998791 93.743 -68.4427
5.035015 93.824 -68.8726
5.071500 93.905 -69.3046
5.108251 93.985 -69.7389
5.145267 94.064 -70.1755
5.182552 94.143 -70.6147
5.220107 94.221 -71.0564
5.257934 94.298 -71.5003
5.296035 94.375 -71.9462
5.334412 94.451 -72.3937
5.373067 94.526 -72.8423
5.412003 94.600 -73.2917
5.451221 94.674 -73.7418
5.490722 94.747 -74.1926
5.530510 94.819 -74.6441
5.570587 94.890 -75.0965
5.610953 94.960 -75.5496
5.651613 95.029 -76.0031
5.692567 95.098 -76.4565
5.733818 95.165 -76.9092
5.775367 95.232 -77.3609
5.817218 95.298 -77.8111
5.859372 95.363 -78.2597
5.901831 95.428 -78.7067
5.944598 95.491 -79.1522
5.987675 95.554 -79.5960
6.031065 95.616 -80.0381
6.074768 95.677 -80.4779
6.118788 95.738 -80.9151
6.163127 95.798 -81.3493
6.207788 95.857 -81.7803
6.252772 95.916 -82.2080
6.298082 95.974 -82.6324
6.343721 96.032 -83.0535
6.389690 96.090 -83.4714
6.435992 96.146 -83.8861
6.482630 96.203 -84.2974
6.529606 96.260 -84.7052
6.576922 96.316 -85.1095
6.624581 96.372 -85.5102
6.672585 96.428 -85.9074
6.720938 96.484 -86.3013
6.769640 96.540 -86.6922
6.818696 96.596 -87.0804
6.868107 96.651 -87.4661
6.917876 96.708 -87.8495
6.968006 96.764 -88.2309
7.018499 96.820 -88.6103
7.069358 96.877 -88.9881
7.120586 96.934 -89.3644
7.172184 96.991 -89.7399
7.224157 97.048 -90.1149
7.276506 97.105 -90.4898
7.329235 97.163 -90.8650
7.382345 97.221 -91.2407
7.435841 97.279 -91.6171
7.489724 97.338 -91.9945
7.543997 97.396 -92.3732
7.598664 97.455 -92.7536
7.653728 97.514 -93.1359
7.709189 97.573 -93.5205
7.765053 97.632 -93.9075
7.821322 97.691 -94.2969
7.877998 97.750 -94.6887
7.935086 97.808 -95.0831
7.992587 97.867 -95.4800
8.050504 97.925 -95.8795
8.108841 97.983 -96.2816
8.167601 98.041 -96.6861
8.226787 98.099 -97.0930
8.286402 98.156 -97.5019
8.346449 98.212 -97.9126
8.406931 98.269 -98.3250
8.467851 98.325 -98.7387
8.529212 98.380 -99.1536
8.591018 98.435 -99.5695
8.653272 98.489 -99.9861
8.715977 98.543 -100.4029
8.779137 98.597 -100.8198
8.842754 98.650 -101.2366
8.906833 98.702 -101.6530
8.971375 98.754 -102.0689
9.036386 98.806 -102.4842
9.101867 98.858 -102.8987
9.167823 98.909 -103.3124
9.234257 98.960 -103.7251
9.301172 99.011 -104.1370
9.368572 99.062 -104.5480
9.436460 99.113 -104.9584
9.504841 99.163 -105.3682
9.573717 99.214 -105.7775
9.643092 99.264 -106.1866
9.712970 99.314 -106.5955
9.783354 99.364 -107.0047
9.854248 99.415 -107.4142
9.925656 99.465 -107.8242
9.997581 99.515 -108.2350
10.070028 99.565 -108.6467
10.143000 99.614 -109.0594
10.216500 99.664 -109.4733
10.290533 99.713 -109.8883
10.365103 99.763 -110.3046
10.440212 99.811 -110.7222
10.515866 99.860 -111.1408
10.592069 99.908 -111.5606
10.668823 99.956 -111.9813
10.746134 100.004 -112.4029
10.824005 100.051 -112.8252
10.902440 100.098 -113.2481
10.981443 100.144 -113.6714
11.061020 100.190 -114.0950
11.141172 100.235 -114.5188
11.221906 100.280 -114.9427
11.303225 100.325 -115.3668
11.385133 100.370 -115.7910
11.467634 100.414 -116.2153
11.550734 100.457 -116.6398
11.634435 100.500 -117.0646
11.718742 100.543 -117.4899
11.803661 100.586 -117.9156
11.889195 100.628 -118.3418
11.975349 100.669 -118.7686
12.062128 100.710 -119.1960
12.149535 100.751 -119.6238
12.237576 100.790 -120.0519
12.326254 100.829 -120.4799
12.415575 100.868 -120.9075
12.505544 100.905 -121.3342
12.596164 100.942 -121.7594
12.687441 100.978 -122.1826
12.779379 101.013 -122.6030
12.871984 101.047 -123.0201
12.965260 101.081 -123.4331
13.059211 101.114 -123.8416
13.153843 101.147 -124.2451
13.249161 101.179 -124.6434
13.345170 101.212 -125.0364
13.441875 101.244 -125.4245
13.539280 101.277 -125.8081
13.637391 101.310 -126.1880
13.736214 101.343 -126.5651
13.835752 101.378 -126.9409
13.936011 101.413 -127.3167
14.036998 101.448 -127.6942
14.138716 101.485 -128.0748
14.241171 101.522 -128.4601
14.344368 101.559 -128.8515
14.448313 101.597 -129.2502
14.553011 101.634 -129.6568
14.658468 101.671 -130.0718
14.764689 101.707 -130.4951
14.871680 101.743 -130.9260
14.979446 101.777 -131.3638
15.087994 101.809 -131.8069
15.197328 101.840 -132.2539
15.307454 101.869 -132.7028
15.418378 101.897 -133.1518
15.530106 101.923 -133.5991
15.642643 101.947 -134.0431
15.755996 101.970 -134.4826
15.870171 101.992 -134.9166
15.985172 102.014 -135.3451
16.101007 102.035 -135.7681
16.217682 102.056 -136.1863
16.335201 102.076 -136.6009
16.453573 102.097 -137.0131
16.572803 102.118 -137.4245
16.692898 102.139 -137.8363
16.813862 102.160 -138.2496
16.935701 102.180 -138.6651
17.058424 102.200 -139.0825
17.182035 102.219 -139.5014
17.306543 102.236 -139.9205
17.431953 102.253 -140.3379
17.558273 102.268 -140.7516
17.685509 102.281 -141.1591
17.813665 102.294 -141.5583
17.942751 102.306 -141.9475
18.072771 102.318 -142.3255
18.203733 102.330 -142.6924
18.335646 102.343 -143.0487
18.468513 102.357 -143.3965
18.602345 102.373 -143.7384
18.737144 102.391 -144.0778
18.872921 102.411 -144.4183
19.009682 102.432 -144.7635
19.147434 102.455 -145.1163
19.286184 102.479 -145.4788
19.425940 102.503 -145.8518
19.566708 102.526 -146.2351
19.708496 102.549 -146.6272
19.851313 102.570 -147.0253
19.995163 102.590 -147.4267
20.140057 102.609 -147.8281
20.285999 102.626 -148.2267
20.433001 102.643 -148.6209
20.581066 102.659 -149.0099
20.730206 102.676 -149.3944
20.880424 102.693 -149.7766
21.031733 102.711 -150.1593
21.184137 102.730 -150.5459
21.337646 102.750 -150.9398
21.492268 102.769 -151.3430
21.648010 102.787 -151.7566
21.804880 102.804 -152.1794
21.962887 102.818 -152.6084
22.122040 102.829 -153.0390
22.282345 102.837 -153.4653
22.443811 102.842 -153.8809
22.606449 102.844 -154.2801
22.770266 102.845 -154.6586
22.935268 102.845 -155.0143
23.101467 102.847 -155.3477
23.268869 102.850 -155.6624
23.437485 102.856 -155.9645
23.607323 102.865 -156.2616
23.778391 102.878 -156.5622
23.950699 102.893 -156.8742
24.124256 102.911 -157.2038
24.299070 102.928 -157.5546
24.475151 102.945 -157.9274
24.652508 102.960 -158.3198
24.831150 102.972 -158.7275
25.011087 102.980 -159.1441
25.192327 102.984 -159.5628
25.374882 102.984 -159.9769
25.558758 102.982 -160.3808
25.743967 102.977 -160.7704
25.930519 102.970 -161.1433
26.118422 102.962 -161.4991
26.307686 102.955 -161.8388
26.498322 102.947 -162.1642
26.690340 102.941 -162.4783
26.883749 102.937 -162.7842
27.078560 102.933 -163.0851
27.274782 102.932 -163.3842
27.472427 102.931 -163.6844
27.671503 102.933 -163.9886
27.872023 102.936 -164.2991
28.073996 102.940 -164.6181
28.277431 102.944 -164.9470
28.482342 102.950 -165.2872
28.688736 102.956 -165.6394
28.896626 102.962 -166.0047
29.106022 102.969 -166.3836
29.316936 102.975 -166.7771
29.529379 102.980 -167.1856
29.743361 102.984 -167.6090
29.958893 102.986 -168.0458
30.175987 102.985 -168.4930
30.394655 102.982 -168.9454
30.614908 102.974 -169.3960
30.836756 102.964 -169.8369
31.060211 102.950 -170.2602
31.285286 102.934 -170.6602
31.511992 102.919 -171.0340
31.740341 102.904 -171.3832
31.970345 102.892 -171.7134
32.202015 102.882 -172.0327
32.435364 102.876 -172.3505
32.670403 102.871 -172.6743
32.907146 102.868 -173.0081
33.145607 102.863 -173.3512
33.385796 102.856 -173.6986
33.627724 102.846 -174.0428
33.871403 102.834 -174.3752
34.116848 102.820 -174.6892
34.364071 102.805 -174.9819
34.613087 102.790 -175.2540
34.863907 102.776 -175.5101
35.116547 102.765 -175.7563
35.371017 102.754 -175.9995
35.627331 102.745 -176.2450
35.885502 102.737 -176.4962
36.145542 102.728 -176.7551
36.407467 102.719 -177.0223
36.671291 102.709 -177.2980
36.937027 102.698 -177.5826
37.204689 102.686 -177.8760
37.474289 102.673 -178.1778
37.745842 102.657 -178.4863
38.019363 102.639 -178.7982
38.294868 102.618 -179.1090
38.572369 102.596 -179.4130
38.851879 102.573 -179.7057
39.133415 102.550 -179.9843
39.416992 102.528 179.7511
39.702625 102.509 179.4963
39.990326 102.494 179.2439
40.280113 102.483 178.9848
40.571999 102.475 178.7106
40.866001 102.469 178.4162
41.162132 102.463 178.1020
41.460411 102.457 177.7742
41.760849 102.449 177.4430
42.063465 102.439 177.1200
42.368275 102.428 176.8138
42.675293 102.419 176.5274
42.984535 102.412 176.2567
43.296021 102.408 175.9919
43.609760 102.407 175.7209
43.925774 102.407 175.4335
44.244080 102.405 175.1254
44.564690 102.398 174.8011
44.887623 102.385 174.4744
45.212898 102.364 174.1667
45.540531 102.335 173.9026
45.870537 102.301 173.7021
46.202934 102.268 173.5730
46.537739 102.241 173.5032
46.874969 102.223 173.4601
47.214645 102.215 173.3980
47.556782 102.215 173.2735
47.901398 102.215 173.0618
48.248512 102.208 172.7669
48.598141 102.187 172.4199
48.950302 102.152 172.0667
49.305016 102.104 171.7507
49.662300 102.050 171.4983
50.022175 101.995 171.3117
50.384655 101.947 171.1722
50.749763 101.906 171.0488
51.117516 101.875 170.9095
51.487934 101.851 170.7283
51.861038 101.831 170.4901
52.236843 101.812 170.1922
52.615372 101.790 169.8451
52.996643 101.763 169.4696
53.380680 101.731 169.0906
53.767498 101.696 168.7286
54.157120 101.661 168.3934
54.549564 101.629 168.0840
54.944855 101.600 167.7935
55.343006 101.574 167.5165
55.744045 101.552 167.2520
56.147991 101.532 167.0009
56.554863 101.514 166.7629
56.964684 101.499 166.5333
57.377472 101.486 166.3044
57.793251 101.472 166.0692
58.212044 101.456 165.8251
58.633873 101.434 165.5762
59.058758 101.406 165.3338
59.486721 101.371 165.1121
59.917786 101.331 164.9197
60.351974 101.290 164.7516
60.789310 101.249 164.5896
61.229816 101.211 164.4103
61.673512 101.175 164.1941
62.120422 101.140 163.9276
62.570572 101.108 163.5997
63.023983 101.076 163.2020
63.480682 101.044 162.7369
63.940689 101.011 162.2217
64.404030 100.978 161.6781
64.870728 100.946 161.1140
65.340805 100.917 160.5239
65.814293 100.882 159.9193
66.291214 100.835 159.3613
66.771591 100.774 158.9531
67.255447 100.710 158.7831
67.742805 100.660 158.8632
68.233696 100.636 159.1167
68.728142 100.639 159.4316
69.226173 100.660 159.7212
69.727814 100.688 159.9421
70.233093 100.712 160.0771
70.742035 100.724 160.1251
71.254662 100.717 160.1073
71.771004 100.688 160.0646
72.291084 100.641 160.0334
72.814934 100.584 160.0206
73.342583 100.524 160.0022
73.874054 100.467 159.9433
74.409378 100.414 159.8170
74.948578 100.366 159.6137
75.491684 100.320 159.3449
76.038727 100.276 159.0437
76.589737 100.235 158.7535
77.144737 100.197 158.5102
77.703758 100.165 158.3302
78.266830 100.138 158.2115
78.833984 100.113 158.1408
79.405251 100.085 158.0992
79.980652 100.051 158.0654
80.560226 100.003 158.0151
81.143997 99.939 157.9203
81.732002 99.856 157.7560
82.324265 99.751 157.5197
82.920822 99.627 157.2426
83.521698 99.497 156.9650
84.126930 99.378 156.6902
84.736549 99.288 156.3805
85.350586 99.231 156.0226
85.969070 99.202 155.6892
86.592041 99.200 155.5161
87.219521 99.228 155.6196
87.851547 99.282 156.0486
88.488159 99.348 156.8055
89.129379 99.403 157.9100
89.775246 99.426 159.4565
90.425797 99.409 161.6123
91.081062 99.364 164.5566
91.741074 99.316 168.4030
92.405869 99.301 173.0422
93.075478 99.350 177.8694
93.749939 99.455 -178.1337
94.429291 99.569 -175.7085
95.113564 99.660 -174.9527
95.802795 99.730 -175.7630
96.497025 99.782 -178.1841
97.196281 99.783 177.8755
97.900604 99.700 172.9716
98.610031 99.540 167.9573
99.324600 99.354 163.5715
100.044350 99.194 160.1940
100.769310 99.084 157.8426
101.499527 99.014 156.2990
102.235031 98.946 155.2922
102.975868 98.850 154.6334
103.722076 98.716 154.2112
104.473686 98.565 153.9249
105.230743 98.431 153.6721
105.993286 98.344 153.3850
106.761360 98.324 153.0701
107.534996 98.366 152.8148
108.314240 98.445 152.7392
109.099129 98.525 152.9321
109.889709 98.574 153.4136
110.686012 98.576 154.0924
111.488091 98.539 154.7142
112.295982 98.508 154.8561
113.109726 98.560 153.9868
113.929367 98.799 151.5967
114.754944 99.312 147.4485
115.586502 100.113 141.8444
116.424088 101.108 135.6042
117.267746 102.137 129.6074
118.117516 103.030 124.3331
118.973442 103.640 120.0062
119.835571 103.864 117.1856
120.703949 103.677 117.0086
121.578621 103.143 120.6129
122.459633 102.395 127.8944
123.347023 101.587 136.7798
124.240845 100.847 144.4915
125.141144 100.239 149.4941
126.047966 99.756 151.8046
126.961365 99.359 152.2112
127.881378 99.025 151.6303
128.808060 98.752 150.7910
129.741455 98.536 150.1308
130.681610 98.352 149.8526
131.628586 98.171 150.0345
132.582428 97.977 150.6188
133.543182 97.774 151.3730
134.510895 97.565 152.0362
135.485611 97.356 152.5285
136.467392 97.164 152.9531
137.456284 97.015 153.4187
138.452347 96.923 153.9478
139.455627 96.882 154.5092
140.466187 96.872 155.0580
141.484070 96.880 155.5952
142.509323 96.909 156.1940
143.542007 96.982 156.9403
144.582169 97.128 157.8320
145.629868 97.351 158.7140
146.685165 97.618 159.4395
147.748108 97.881 160.0414
148.818756 98.101 160.5901
149.897156 98.248 160.9790
150.983368 98.291 160.9535
152.077454 98.205 160.4109
153.179474 98.000 159.5283
154.289474 97.732 158.5343
155.407516 97.474 157.5536
156.533661 97.274 156.6525
157.667969 97.145 155.9186
158.810501 97.065 155.4518
159.961304 97.000 155.3376
161.120453 96.919 155.6330
162.287994 96.801 156.3508
163.464005 96.638 157.4933
164.648529 96.441 159.0258
165.841644 96.237 160.7633
167.043396 96.060 162.3267
168.253860 95.930 163.2270
169.473099 95.848 163.0517
170.701172 95.791 161.7486
171.938141 95.740 159.7817
173.184082 95.697 157.9215
174.439041 95.689 156.8106
175.703094 95.737 156.5835
176.976318 95.828 156.9695
178.258759 95.923 157.6794
179.550491 95.990 158.5155
180.851593 96.012 159.2938
182.162125 95.990 159.8358
183.482147 95.939 160.0371
184.811737 95.882 159.8646
186.150955 95.839 159.3584
187.499878 95.819 158.6859
188.858582 95.822 158.0582
190.227127 95.844 157.5956
191.605591 95.876 157.2975
192.994049 95.913 157.0764
194.392563 95.955 156.8304
195.801208 96.005 156.5108
197.220062 96.059 156.1398
198.649200 96.104 155.7832
200.088699 96.121 155.5256
201.538620 96.088 155.4642
202.999054 96.005 155.6612
204.470062 95.890 156.0632
205.951736 95.768 156.5355
207.444153 95.658 156.9592
208.947372 95.571 157.2805
210.461487 95.506 157.4993
211.986572 95.457 157.6385
213.522720 95.419 157.7210
215.069992 95.385 157.7677
216.628479 95.353 157.8065
218.198257 95.321 157.8756
219.779419 95.290 158.0084
221.372025 95.262 158.2097
222.976181 95.236 158.4568
224.591965 95.213 158.7191
226.219452 95.190 158.9733
227.858734 95.165 159.2073
229.509888 95.137 159.4119
231.173004 95.105 159.5764
232.848175 95.071 159.6962
234.535492 95.038 159.7786
236.235031 95.008 159.8407
237.946884 94.982 159.9023
239.671143 94.958 159.9781
241.407898 94.937 160.0728
243.157242 94.914 160.1809
244.919266 94.890 160.2947
246.694046 94.862 160.4110
248.481689 94.831 160.5319
250.282288 94.797 160.6609
252.095932 94.762 160.8010
253.922729 94.728 160.9545
255.762756 94.695 161.1205
257.616119 94.666 161.2913
259.482910 94.641 161.4557
261.363220 94.618 161.6069
263.257172 94.597 161.7443
265.164856 94.573 161.8721
267.086365 94.546 161.9971
269.021790 94.514 162.1266
270.971222 94.479 162.2658
272.934784 94.443 162.4168
274.912567 94.409 162.5804
276.904694 94.379 162.7577
278.911255 94.352 162.9504
280.932373 94.329 163.1573
282.968140 94.309 163.3704
285.018646 94.290 163.5754
287.084015 94.274 163.7574
289.164337 94.259 163.9094
291.259735 94.243 164.0354
293.370331 94.224 164.1456
295.496216 94.202 164.2502
297.637512 94.177 164.3573
299.794312 94.151 164.4745
301.966736 94.124 164.6093
304.154907 94.097 164.7654
306.358948 94.070 164.9407
308.578949 94.043 165.1274
310.815033 94.017 165.3154
313.067322 93.991 165.4960
315.335938 93.964 165.6662
317.621002 93.936 165.8288
319.922607 93.907 165.9905
322.240906 93.877 166.1577
324.575989 93.849 166.3330
326.928009 93.821 166.5155
329.297058 93.795 166.7021
331.683289 93.771 166.8912
334.086792 93.749 167.0831
336.507721 93.729 167.2791
338.946198 93.709 167.4796
341.402344 93.689 167.6836
343.876282 93.668 167.8910
346.368164 93.647 168.1028
348.878082 93.624 168.3205
351.406189 93.601 168.5440
353.952637 93.578 168.7701
356.517517 93.555 168.9946
359.100983 93.533 169.2169
361.703186 93.511 169.4392
364.324249 93.490 169.6634
366.964294 93.469 169.8888
369.623474 93.448 170.1135
372.301910 93.427 170.3361
374.999756 93.406 170.5564
377.717163 93.386 170.7760
380.454254 93.366 170.9969
383.211182 93.346 171.2216
385.988098 93.326 171.4515
388.785126 93.307 171.6871
391.602417 93.289 171.9281
394.440125 93.271 172.1728
397.298401 93.253 172.4184
400.177399 93.235 172.6638
403.077240 93.219 172.9098
405.998108 93.204 173.1568
408.940125 93.191 173.4039
411.903473 93.178 173.6497
414.888306 93.166 173.8949
417.894745 93.152 174.1425
420.922974 93.137 174.3955
423.973145 93.122 174.6558
427.045441 93.107 174.9230
430.139984 93.094 175.1954
433.256958 93.083 175.4710
436.396515 93.073 175.7485
439.558838 93.064 176.0268
442.744049 93.056 176.3041
445.952362 93.050 176.5761
449.183929 93.044 176.8359
452.438904 93.039 177.0775
455.717468 93.032 177.2977
459.019775 93.024 177.4993
462.346008 93.012 177.6922
465.696350 92.998 177.8892
469.070984 92.983 178.0998
472.470062 92.967 178.3274
475.893768 92.952 178.5701
479.342285 92.938 178.8224
482.815796 92.924 179.0789
486.314484 92.910 179.3376
489.838531 92.895 179.6018
493.388092 92.880 179.8777
496.963379 92.864 -179.8307
500.564575 92.849 -179.5266
504.191864 92.835 -179.2190
507.845459 92.822 -178.9171
511.525513 92.811 -178.6251
515.232239 92.799 -178.3417
518.965820 92.788 -178.0629
522.726440 92.777 -177.7830
526.514343 92.767 -177.4966
530.329712 92.758 -177.2012
534.172729 92.751 -176.8985
538.043579 92.744 -176.5919
541.942444 92.738 -176.2832
545.869568 92.732 -175.9705
549.825134 92.726 -175.6506
553.809387 92.719 -175.3235
557.822510 92.713 -174.9927
561.864746 92.708 -174.6620
565.936279 92.703 -174.3328
570.037292 92.697 -174.0032
574.168030 92.691 -173.6702
578.328674 92.685 -173.3318
582.519470 92.679 -172.9885
586.740662 92.674 -172.6421
590.992432 92.668 -172.2932
595.275024 92.663 -171.9409
599.588623 92.659 -171.5865
603.933472 92.656 -171.2340
608.309814 92.654 -170.8869
612.717896 92.653 -170.5435
617.157898 92.652 -170.1975
621.630066 92.650 -169.8396
626.134644 92.648 -169.4627
630.671875 92.646 -169.0654
635.242004 92.647 -168.6536
639.845215 92.649 -168.2361
644.481812 92.654 -167.8169
649.151978 92.660 -167.3951
653.856018 92.669 -166.9715
658.594116 92.682 -166.5524
663.366577 92.698 -166.1490
668.173584 92.715 -165.7714
673.015442 92.733 -165.4206
677.892395 92.750 -165.0880
682.804688 92.765 -164.7616
687.752563 92.778 -164.4305
692.736328 92.789 -164.0872
697.756165 92.799 -163.7284
702.812378 92.809 -163.3553
707.905273 92.819 -162.9728
713.035034 92.831 -162.5861
718.201965 92.844 -162.1981
723.406372 92.857 -161.8088
728.648499 92.870 -161.4165
733.928589 92.884 -161.0200
739.246948 92.897 -160.6194
744.603821 92.912 -160.2158
749.999512 92.929 -159.8092
755.434326 92.946 -159.3984
760.908508 92.966 -158.9818
766.422363 92.987 -158.5589
771.976196 93.010 -158.1296
777.570251 93.035 -157.6944
783.204834 93.060 -157.2540
788.880249 93.085 -156.8085
794.596802 93.111 -156.3574
800.354797 93.139 -155.8990
806.154480 93.170 -155.4337
811.996216 93.205 -154.9657
817.880249 93.243 -154.5039
823.806946 93.285 -154.0590
829.776611 93.329 -153.6395
835.789490 93.374 -153.2470
841.845947 93.417 -152.8744
847.946289 93.458 -152.5100
854.090881 93.498 -152.1450
860.279968 93.536 -151.7756
866.513916 93.573 -151.3996
872.793030 93.610 -151.0145
879.117676 93.649 -150.6210
885.488098 93.688 -150.2248
891.904724 93.729 -149.8315
898.367859 93.770 -149.4423
904.877808 93.813 -149.0545
911.434937 93.858 -148.6654
918.039551 93.904 -148.2743
924.692017 93.952 -147.8815
931.392700 94.001 -147.4887
938.141968 94.052 -147.0992
944.940125 94.103 -146.7152
951.787537 94.155 -146.3360
958.684570 94.206 -145.9601
965.631592 94.258 -145.5856
972.628967 94.310 -145.2104
979.677063 94.363 -144.8318
986.776184 94.417 -144.4482
993.926758 94.473 -144.0561
1001.129150 94.530 -143.6510
1008.383728 94.590 -143.2290
1015.690918 94.653 -142.7908
1023.051025 94.723 -142.3425
1030.464478 94.799 -141.8949
1037.931641 94.882 -141.4647
1045.452881 94.970 -141.0708
1053.028687 95.062 -140.7254
1060.659424 95.155 -140.4299
1068.345459 95.247 -140.1788
1076.087158 95.337 -139.9625
1083.884888 95.424 -139.7718
1091.739136 95.508 -139.6004
1099.650269 95.590 -139.4431
1107.618774 95.669 -139.2955
1115.645020 95.746 -139.1539
1123.729492 95.820 -139.0150
1131.872559 95.893 -138.8762
1140.074585 95.964 -138.7361
1148.336060 96.035 -138.5941
1156.657349 96.106 -138.4488
1165.038940 96.176 -138.2977
1173.481323 96.247 -138.1389
1181.984863 96.319 -137.9727
1190.550049 96.394 -137.8048
1199.177246 96.472 -137.6453
1207.866943 96.553 -137.5060
1216.619629 96.634 -137.3931
1225.435791 96.713 -137.3047
1234.315796 96.790 -137.2342
1243.260132 96.864 -137.1742
1252.269287 96.935 -137.1174
1261.343750 97.003 -137.0589
1270.484009 97.070 -136.9964
1279.690430 97.136 -136.9283
1288.963623 97.201 -136.8542
1298.303955 97.266 -136.7756
1307.712036 97.332 -136.6950
1317.188232 97.399 -136.6152
1326.733154 97.465 -136.5382
1336.347168 97.531 -136.4630
1346.030884 97.596 -136.3869
1355.784790 97.660 -136.3061
1365.609375 97.723 -136.2166
1375.505127 97.785 -136.1132
1385.472656 97.847 -135.9909
1395.512329 97.911 -135.8492
1405.624756 97.978 -135.6944
1415.810547 98.051 -135.5389
1426.070068 98.128 -135.3970
1436.403931 98.207 -135.2774
1446.812744 98.288 -135.1802
1457.296997 98.368 -135.1003
1467.857178 98.447 -135.0322
1478.493896 98.525 -134.9716
1489.207642 98.602 -134.9150
1499.999023 98.679 -134.8589
1510.868652 98.754 -134.7998
1521.817017 98.830 -134.7348
1532.844727 98.906 -134.6618
1543.952393 98.983 -134.5797
1555.140503 99.063 -134.4883
1566.409668 99.146 -134.3913
1577.760498 99.233 -134.2988
1589.193604 99.323 -134.2243
1600.709595 99.416 -134.1772
1612.308960 99.510 -134.1588
1623.992432 99.602 -134.1644
1635.760498 99.694 -134.1869
1647.613892 99.784 -134.2208
1659.553223 99.873 -134.2625
1671.578979 99.961 -134.3092
1683.691895 100.047 -134.3593
1695.892578 100.134 -134.4142
1708.181763 100.220 -134.4753
1720.559937 100.306 -134.5424
1733.027832 100.390 -134.6125
1745.586060 100.475 -134.6811
1758.235352 100.558 -134.7420
1770.976196 100.642 -134.7899
1783.809448 100.729 -134.8254
1796.735718 100.818 -134.8575
1809.755615 100.912 -134.9000
1822.869873 101.008 -134.9638
1836.079102 101.105 -135.0523
1849.384033 101.202 -135.1633
1862.785400 101.297 -135.2919
1876.283936 101.390 -135.4320
1889.880249 101.481 -135.5761
1903.575073 101.571 -135.7157
1917.369141 101.658 -135.8417
1931.263184 101.747 -135.9468
1945.257935 101.837 -136.0289
1959.354126 101.931 -136.0946
1973.552368 102.031 -136.1568
1987.853516 102.134 -136.2267
2002.258301 102.242 -136.3099
2016.767456 102.355 -136.4080
2031.381836 102.472 -136.5233
2046.102051 102.593 -136.6600
2060.928955 102.720 -136.8251
2075.863281 102.852 -137.0288
2090.905762 102.988 -137.2817
2106.057373 103.126 -137.5909
2121.318848 103.264 -137.9572
2136.690918 103.401 -138.3758
2152.174316 103.536 -138.8385
2167.769775 103.669 -139.3403
2183.478271 103.799 -139.8818
2199.300537 103.926 -140.4660
2215.237549 104.049 -141.0917
2231.290039 104.167 -141.7531
2247.458984 104.280 -142.4415
2263.745117 104.387 -143.1472
2280.149170 104.490 -143.8617
2296.672119 104.590 -144.5798
2313.314697 104.689 -145.3016
2330.077881 104.789 -146.0346
2346.962646 104.890 -146.7945
2363.969727 104.991 -147.5999
2381.100098 105.090 -148.4634
2398.354492 105.183 -149.3876
2415.733887 105.267 -150.3657
2433.239258 105.342 -151.3847
2450.871582 105.405 -152.4294
2468.631592 105.457 -153.4848
2486.520264 105.497 -154.5366
2504.538574 105.526 -155.5700
2522.687500 105.546 -156.5700
2540.968018 105.559 -157.5251
2559.380859 105.568 -158.4337
2577.927246 105.577 -159.3055
2596.607910 105.585 -160.1563
2615.424072 105.594 -161.0011
2634.376465 105.602 -161.8510
2653.466309 105.607 -162.7103
2672.694336 105.607 -163.5760
2692.061768 105.602 -164.4395
2711.569580 105.592 -165.2914
2731.218750 105.577 -166.1274
2751.010254 105.558 -166.9481
2770.945312 105.535 -167.7550
2791.024658 105.508 -168.5476
2811.249512 105.476 -169.3223
2831.621094 105.439 -170.0747
2852.140137 105.398 -170.8016
2872.807861 105.352 -171.5000
2893.625488 105.302 -172.1648
2914.593994 105.248 -172.7871
2935.714355 105.191 -173.3595
2956.987793 105.135 -173.8816
2978.415283 105.079 -174.3602
2999.998047 105.025 -174.8048
3021.737305 104.973 -175.2226
3043.634033 104.920 -175.6152
3065.689453 104.868 -175.9779
3087.904785 104.815 -176.3020
3110.281006 104.765 -176.5820
3132.819336 104.718 -176.8202
3155.520996 104.676 -177.0248
3178.387207 104.641 -177.2071
3201.419189 104.612 -177.3780
3224.617920 104.588 -177.5478
3247.984863 104.570 -177.7257
3271.520996 104.556 -177.9169
3295.227783 104.545 -178.1205
3319.106445 104.535 -178.3313
3343.157959 104.527 -178.5463
3367.383789 104.520 -178.7663
3391.785156 104.515 -178.9929
3416.363525 104.510 -179.2253
3441.119873 104.506 -179.4576
3466.055664 104.501 -179.6793
3491.172119 104.497 -179.8809
3516.470703 104.497 179.9396
3541.952393 104.502 179.7753
3567.618896 104.515 179.6136
3593.471436 104.535 179.4399
3619.511230 104.561 179.2396
3645.739746 104.591 179.0020
3672.158203 104.625 178.7250
3698.768066 104.659 178.4153
3725.570801 104.694 178.0815
3752.567871 104.731 177.7274
3779.760498 104.770 177.3510
3807.150146 104.812 176.9484
3834.738281 104.856 176.5181
3862.526367 104.903 176.0612
3890.515869 104.953 175.5767
3918.708252 105.009 175.0561
3947.104736 105.071 174.4842
3975.707031 105.138 173.8431
4004.516602 105.208 173.1150
4033.534912 105.280 172.2858
4062.763672 105.349 171.3498
4092.204102 105.413 170.3098
4121.857910 105.468 169.1723
4151.726562 105.513 167.9424
4181.811523 105.547 166.6243
4212.114746 105.565 165.2260
4242.637695 105.567 163.7629
4273.381836 105.550 162.2548
4304.348633 105.515 160.7197
4335.539551 105.462 159.1707
4366.956543 105.391 157.6165
4398.601074 105.304 156.0628
4430.475098 105.200 154.5151
4462.580078 105.077 152.9836
4494.917969 104.936 151.4831
4527.490234 104.778 150.0276
4560.298340 104.603 148.6267
4593.344238 104.411 147.2878
4626.629395 104.204 146.0213
4660.155762 103.981 144.8423
4693.925293 103.745 143.7645
4727.939453 103.498 142.7970
4762.200195 103.243 141.9419
4796.708984 102.982 141.1946
4831.467773 102.718 140.5484
4866.478516 102.449 139.9993
4901.743164 102.178 139.5463
4937.263184 101.905 139.1869
4973.040527 101.630 138.9171
5009.077148 101.354 138.7353
5045.375000 101.076 138.6468
5081.936035 100.797 138.6603
5118.761719 100.519 138.7827
5155.854492 100.243 139.0149
5193.215820 99.973 139.3487
5230.848145 99.709 139.7713
5268.752930 99.452 140.2717
5306.932617 99.203 140.8408
5345.388672 98.962 141.4690
5384.123535 98.728 142.1486
5423.139160 98.500 142.8788
5462.437500 98.278 143.6663
5502.020508 98.060 144.5203
5541.890625 97.848 145.4470
5582.049316 97.645 146.4442
5622.499023 97.450 147.5032
5663.242188 97.266 148.6149
5704.280273 97.091 149.7709
5745.615723 96.928 150.9620
5787.250977 96.774 152.1799
5829.187988 96.630 153.4226
5871.428711 96.493 154.6953
5913.975586 96.364 156.0062
5956.830566 96.244 157.3612
5999.996094 96.134 158.7615
6043.474609 96.037 160.2056
6087.268066 95.953 161.6883
6131.378906 95.881 163.1975
6175.809570 95.822 164.7195
6220.562012 95.775 166.2464
6265.638672 95.739 167.7780
6311.041992 95.715 169.3189
6356.774414 95.703 170.8731
6402.838379 95.706 172.4417
6449.235840 95.724 174.0227
6495.969727 95.759 175.6112
6543.041992 95.812 177.1974
6590.455566 95.884 178.7698
6638.212891 95.973 -179.6801
6686.315918 96.080 -178.1572
6734.767578 96.207 -176.6645
6783.570312 96.353 -175.2074
6832.727051 96.522 -173.7952
6882.239746 96.715 -172.4424
6932.111328 96.933 -171.1708
6982.344238 97.179 -170.0058
7032.941406 97.451 -168.9720
7083.904785 97.751 -168.0923
7135.237793 98.079 -167.3924
7186.942871 98.435 -166.9045
7239.022461 98.819 -166.6688
7291.479492 99.230 -166.7345
7344.316406 99.662 -167.1586
7397.536133 100.108 -167.9978
7451.141602 100.559 -169.3004
7505.135742 101.001 -171.1016
7559.520996 101.422 -173.4217
7614.300293 101.804 -176.2621
7669.476562 102.133 -179.6015
7725.052734 102.392 176.6051
7781.031738 102.564 172.4310
7837.416504 102.635 167.9803
7894.209473 102.595 163.3846
7951.414062 102.441 158.7906
8009.033203 102.172 154.3477
8067.069824 101.798 150.1932
8125.527344 101.331 146.4389
8184.408203 100.787 143.1650
8243.715820 100.182 140.4215
8303.453125 99.533 138.2326
8363.623047 98.856 136.6020
8424.229492 98.164 135.5177
8485.275391 97.470 134.9537
8546.763672 96.786 134.8687
8608.697266 96.121 135.2094
8671.079102 95.482 135.9200
8733.913086 94.871 136.9498
8797.202148 94.291 138.2573
8860.950195 93.743 139.8111
8925.160156 93.228 141.5826
8989.835938 92.746 143.5414
9054.980469 92.298 145.6566
9120.596680 91.882 147.9017
9186.688477 91.498 150.2582
9253.258789 91.144 152.7156
9320.311523 90.818 155.2647
9387.850586 90.522 157.8907
9455.878906 90.254 160.5755
9524.400391 90.014 163.3021
9593.417969 89.802 166.0603
9662.935547 89.615 168.8494
9732.957031 89.454 171.6727
9803.486328 89.319 174.5298
9874.526367 89.211 177.4140
9946.081055 89.130 -179.6845
10018.154297 89.075 -176.7726
10090.750000 89.047 -173.8500
10163.872070 89.047 -170.9162
10237.523438 89.077 -167.9758
10311.708984 89.140 -165.0383
10386.431641 89.238 -162.1151
10461.696289 89.374 -159.2157
10537.505859 89.552 -156.3527
10613.865234 89.777 -153.5499
10690.777344 90.053 -150.8466
10768.247070 90.385 -148.2952
10846.278320 90.776 -145.9551
10924.875000 91.228 -143.8945
11004.041016 91.740 -142.1980
11083.781250 92.311 -140.9684
11164.098633 92.933 -140.3203
11244.998047 93.591 -140.3667
11326.484375 94.265 -141.2070
11408.560547 94.929 -142.9162
11491.231445 95.554 -145.5352
11574.501953 96.105 -149.0555
11658.375977 96.546 -153.4022
11742.857422 96.844 -158.4257
11827.951172 96.973 -163.9063
11913.661133 96.917 -169.5726
11999.992188 96.673 -175.1321
12086.949219 96.251 179.6962
12174.536133 95.669 175.1530
12262.757812 94.956 171.4216
12351.619141 94.146 168.6178
12441.124023 93.274 166.7914
12531.277344 92.373 165.9367
12622.083984 91.472 166.0060
12713.548828 90.600 166.9175
12805.676758 89.777 168.5626
12898.471680 89.020 170.8172
12991.939453 88.340 173.5572
13086.083984 87.742 176.6670
13180.911133 87.230 -179.9608
13276.425781 86.800 -176.4260
13372.631836 86.450 -172.8139
13469.535156 86.172 -169.1908
13567.140625 85.961 -165.6072
13665.454102 85.809 -162.1014
13764.479492 85.711 -158.6961
13864.222656 85.662 -155.3949
13964.688477 85.659 -152.1920
14065.882812 85.703 -149.0840
14167.809570 85.794 -146.0732
14270.475586 85.936 -143.1684
14373.885742 86.135 -140.3921
14478.044922 86.398 -137.7881
14582.958984 86.729 -135.4235
14688.632812 87.135 -133.3874
14795.072266 87.616 -131.7949
14902.283203 88.169 -130.7858
15010.271484 88.781 -130.5096
15119.041992 89.430 -131.1066
15228.600586 90.088 -132.6913
15338.953125 90.718 -135.3327
15450.105469 91.278 -139.0336
15562.063477 91.725 -143.7163
15674.833008 92.018 -149.2166
15788.418945 92.125 -155.2855
15902.828125 92.026 -161.6086
16018.066406 91.717 -167.8437
16134.139648 91.211 -173.6721
16251.054688 90.535 -178.8382
16368.816406 89.724 176.8311
16487.431641 88.816 173.4221
16606.906250 87.850 170.9389
16727.246094 86.866 169.3141
16848.458984 85.893 168.4256
16970.550781 84.960 168.1115
17093.527344 84.081 168.1873
17217.394531 83.267 168.4691
17342.158203 82.518 168.7912
17467.826172 81.827 169.0148
17594.404297 81.181 169.0360
17721.900391 80.563 168.7950
17850.320312 79.951 168.2833
17979.671875 79.319 167.5538
18109.960938 78.638 166.7245
18241.193359 77.882 165.9512
18373.376953 77.038 165.3788
18506.517578 76.107 165.1314
18640.623047 75.098 165.3195
18775.701172 74.025 166.0404
18911.757812 72.902 167.3763
19048.800781 71.744 169.3876
19186.835938 70.568 172.1075
19325.871094 69.394 175.5313
19465.914062 68.248 179.5894
19606.972656 67.170 -175.9180
19749.052734 66.224 -171.4170
19892.162109 65.499 -167.6143
20036.308594 65.100 -165.3841
