* Measurement data measured by REW V5.30.9
* Source: EXCL: Microphone (USB Sound Device        ), no input selected, L, volume: no control
* Format: 256k Log Swept Sine, 1 sweep at -9.0 dBFS with no timing reference
* Dated: Mar 24, 2024 3:57:12 PM
* REW Settings:
*  C-weighting compensation: Off
*  Target level: 75.0 dB
* Note: EPZ Q1 Pro R
* Measurement: R EPZ Q1 Pro
* Smoothing: 1/12 octave
* Frequency Step: 96 ppo
* Start Frequency: 0.36621094 Hz
*
* Freq(Hz) SPL(dB) Phase(degrees)
0.366211 89.766 158.4159
0.368865 89.760 158.3932
0.371538 89.750 158.3593
0.374230 89.739 158.3165
0.376942 89.725 158.2673
0.379673 89.711 158.2131
0.382424 89.696 158.1551
0.385196 89.681 158.0939
0.387987 89.665 158.0299
0.390798 89.649 157.9632
0.393630 89.633 157.8940
0.396483 89.617 157.8224
0.399356 89.601 157.7482
0.402250 89.585 157.6716
0.405165 89.568 157.5924
0.408101 89.552 157.5107
0.411058 89.535 157.4264
0.414037 89.518 157.3395
0.417037 89.501 157.2501
0.420059 89.484 157.1580
0.423103 89.467 157.0632
0.426169 89.450 156.9657
0.429257 89.432 156.8656
0.432367 89.415 156.7626
0.435501 89.397 156.6570
0.438656 89.379 156.5485
0.441835 89.361 156.4373
0.445037 89.343 156.3232
0.448262 89.325 156.2062
0.451510 89.307 156.0864
0.454782 89.288 155.9637
0.458077 89.270 155.8380
0.461397 89.251 155.7094
0.464740 89.232 155.5779
0.468108 89.213 155.4433
0.471500 89.194 155.3058
0.474917 89.175 155.1653
0.478358 89.155 155.0217
0.481825 89.136 154.8751
0.485316 89.116 154.7254
0.488833 89.096 154.5727
0.492375 89.076 154.4169
0.495943 89.056 154.2579
0.499537 89.036 154.0959
0.503157 89.015 153.9307
0.506803 88.995 153.7624
0.510475 88.974 153.5910
0.514174 88.953 153.4165
0.517900 88.932 153.2388
0.521653 88.911 153.0580
0.525433 88.890 152.8741
0.529241 88.868 152.6870
0.533076 88.847 152.4968
0.536939 88.825 152.3035
0.540830 88.803 152.1071
0.544749 88.781 151.9076
0.548696 88.759 151.7050
0.552673 88.736 151.4994
0.556677 88.714 151.2908
0.560711 88.691 151.0791
0.564774 88.668 150.8644
0.568867 88.645 150.6469
0.572989 88.621 150.4263
0.577141 88.598 150.2029
0.581324 88.574 149.9767
0.585536 88.551 149.7477
0.589779 88.527 149.5160
0.594053 88.503 149.2816
0.598358 88.478 149.0445
0.602694 88.454 148.8049
0.607061 88.429 148.5628
0.611460 88.404 148.3183
0.615891 88.379 148.0715
0.620354 88.354 147.8224
0.624849 88.329 147.5712
0.629377 88.303 147.3179
0.633938 88.278 147.0627
0.638532 88.252 146.8057
0.643159 88.226 146.5469
0.647819 88.199 146.2866
0.652514 88.173 146.0248
0.657242 88.146 145.7617
0.662005 88.119 145.4974
0.666802 88.092 145.2321
0.671634 88.065 144.9660
0.676501 88.038 144.6993
0.681403 88.010 144.4321
0.686341 87.982 144.1646
0.691314 87.954 143.8970
0.696324 87.925 143.6296
0.701369 87.897 143.3624
0.706452 87.868 143.0957
0.711571 87.838 142.8295
0.716727 87.807 142.5637
0.721921 87.775 142.2981
0.727153 87.742 142.0323
0.732422 87.706 141.7653
0.737729 87.667 141.4963
0.743075 87.626 141.2241
0.748460 87.584 140.9478
0.753883 87.540 140.6665
0.759346 87.494 140.3798
0.764849 87.448 140.0873
0.770391 87.401 139.7888
0.775974 87.354 139.4840
0.781597 87.306 139.1727
0.787261 87.257 138.8550
0.792965 87.208 138.5306
0.798712 87.158 138.1995
0.804499 87.107 137.8616
0.810329 87.056 137.5168
0.816201 87.004 137.1651
0.822116 86.951 136.8062
0.828073 86.898 136.4403
0.834073 86.843 136.0671
0.840118 86.788 135.6867
0.846205 86.732 135.2990
0.852337 86.675 134.9038
0.858514 86.617 134.5013
0.864735 86.558 134.0912
0.871001 86.498 133.6737
0.877313 86.437 133.2486
0.883670 86.375 132.8160
0.890074 86.311 132.3759
0.896523 86.246 131.9282
0.903020 86.180 131.4730
0.909564 86.113 131.0103
0.916155 86.044 130.5401
0.922793 85.974 130.0627
0.929480 85.902 129.5779
0.936216 85.828 129.0859
0.943000 85.753 128.5869
0.949833 85.676 128.0810
0.956716 85.598 127.5684
0.963649 85.517 127.0492
0.970632 85.435 126.5238
0.977666 85.350 125.9923
0.984750 85.264 125.4550
0.991886 85.175 124.9124
0.999074 85.085 124.3647
1.006313 84.991 123.8123
1.013605 84.896 123.2558
1.020950 84.798 122.6956
1.028349 84.697 122.1322
1.035801 84.594 121.5662
1.043306 84.488 120.9982
1.050867 84.379 120.4290
1.058482 84.267 119.8592
1.066152 84.152 119.2893
1.073878 84.033 118.7200
1.081659 83.911 118.1517
1.089498 83.785 117.5843
1.097393 83.654 117.0175
1.105345 83.517 116.4506
1.113355 83.376 115.8824
1.121422 83.228 115.3118
1.129549 83.073 114.7376
1.137734 82.912 114.1588
1.145978 82.744 113.5743
1.154283 82.570 112.9832
1.162647 82.390 112.3846
1.171072 82.203 111.7775
1.179558 82.011 111.1610
1.188106 81.813 110.5340
1.196715 81.610 109.8955
1.205387 81.402 109.2442
1.214122 81.190 108.5789
1.222920 80.973 107.8983
1.231781 80.752 107.2009
1.240708 80.528 106.4852
1.249698 80.301 105.7494
1.258754 80.072 104.9917
1.267875 79.840 104.2102
1.277063 79.606 103.4028
1.286317 79.372 102.5671
1.295638 79.137 101.7007
1.305027 78.902 100.8009
1.314484 78.667 99.8649
1.324009 78.434 98.8895
1.333603 78.202 97.8713
1.343267 77.973 96.8069
1.353001 77.747 95.6924
1.362805 77.525 94.5237
1.372681 77.307 93.2966
1.382628 77.095 92.0064
1.392647 76.890 90.6484
1.402739 76.691 89.2177
1.412904 76.500 87.7093
1.423142 76.318 86.1180
1.433455 76.145 84.4383
1.443842 75.981 82.6646
1.454305 75.828 80.7905
1.464843 75.683 78.8086
1.475458 75.548 76.7094
1.486150 75.421 74.4820
1.496919 75.301 72.1133
1.507766 75.188 69.5887
1.518692 75.082 66.8925
1.529697 74.981 64.0085
1.540782 74.887 60.9202
1.551947 74.799 57.6123
1.563193 74.717 54.0715
1.574521 74.642 50.2878
1.585931 74.573 46.2571
1.597423 74.510 41.9825
1.608998 74.454 37.4771
1.620658 74.405 32.7657
1.632402 74.363 27.8854
1.644231 74.328 22.8848
1.656146 74.300 17.8226
1.668147 74.279 12.7622
1.680235 74.266 7.7683
1.692410 74.261 2.9006
1.704674 74.263 -1.7899
1.717027 74.274 -6.2638
1.729469 74.292 -10.4939
1.742002 74.319 -14.4652
1.754625 74.355 -18.1732
1.767340 74.399 -21.6217
1.780147 74.453 -24.8214
1.793046 74.517 -27.7878
1.806040 74.592 -30.5403
1.819127 74.680 -33.1013
1.832309 74.781 -35.4947
1.845587 74.898 -37.7445
1.858961 75.033 -39.8724
1.872431 75.185 -41.8960
1.886000 75.355 -43.8287
1.899666 75.543 -45.6801
1.913432 75.747 -47.4575
1.927298 75.967 -49.1659
1.941264 76.200 -50.8091
1.955331 76.446 -52.3902
1.969500 76.703 -53.9112
1.983772 76.968 -55.3741
1.998147 77.241 -56.7803
2.012626 77.520 -58.1308
2.027211 77.801 -59.4265
2.041901 78.084 -60.6681
2.056697 78.366 -61.8562
2.071601 78.646 -62.9910
2.086613 78.920 -64.0731
2.101733 79.188 -65.1028
2.116963 79.447 -66.0806
2.132303 79.694 -67.0074
2.147755 79.930 -67.8848
2.163318 80.151 -68.7153
2.178995 80.358 -69.5030
2.194785 80.551 -70.2531
2.210689 80.731 -70.9724
2.226709 80.898 -71.6676
2.242844 81.054 -72.3441
2.259097 81.201 -73.0059
2.275467 81.339 -73.6551
2.291956 81.468 -74.2929
2.308565 81.590 -74.9193
2.325294 81.705 -75.5338
2.342144 81.814 -76.1355
2.359116 81.917 -76.7231
2.376211 82.014 -77.2952
2.393430 82.107 -77.8503
2.410774 82.196 -78.3864
2.428243 82.282 -78.9020
2.445839 82.365 -79.3949
2.463562 82.445 -79.8633
2.481415 82.525 -80.3054
2.499396 82.603 -80.7194
2.517508 82.680 -81.1043
2.535750 82.757 -81.4594
2.554126 82.833 -81.7850
2.572634 82.907 -82.0824
2.591276 82.979 -82.3535
2.610054 83.048 -82.6004
2.628967 83.114 -82.8251
2.648018 83.176 -83.0292
2.667206 83.234 -83.2139
2.686534 83.290 -83.3799
2.706002 83.343 -83.5280
2.725610 83.393 -83.6585
2.745361 83.441 -83.7719
2.765255 83.489 -83.8682
2.785294 83.535 -83.9478
2.805477 83.581 -84.0107
2.825807 83.628 -84.0568
2.846284 83.676 -84.0860
2.866909 83.725 -84.0980
2.887684 83.776 -84.0922
2.908609 83.829 -84.0677
2.929686 83.883 -84.0234
2.950916 83.939 -83.9582
2.972299 83.997 -83.8713
2.993838 84.055 -83.7628
3.015532 84.114 -83.6336
3.037384 84.173 -83.4852
3.059394 84.234 -83.3198
3.081564 84.295 -83.1398
3.103894 84.357 -82.9480
3.126386 84.421 -82.7473
3.149041 84.486 -82.5406
3.171861 84.554 -82.3306
3.194845 84.623 -82.1202
3.217996 84.695 -81.9113
3.241315 84.769 -81.7057
3.264803 84.847 -81.5037
3.288461 84.928 -81.3051
3.312291 85.012 -81.1084
3.336293 85.099 -80.9120
3.360469 85.190 -80.7150
3.384820 85.284 -80.5178
3.409348 85.380 -80.3218
3.434054 85.480 -80.1292
3.458938 85.581 -79.9430
3.484003 85.684 -79.7663
3.509250 85.789 -79.6024
3.534679 85.895 -79.4545
3.560293 86.001 -79.3257
3.586092 86.108 -79.2184
3.612079 86.216 -79.1346
3.638253 86.323 -79.0753
3.664618 86.431 -79.0404
3.691173 86.540 -79.0290
3.717921 86.649 -79.0398
3.744862 86.758 -79.0712
3.771999 86.869 -79.1221
3.799332 86.979 -79.1916
3.826864 87.090 -79.2789
3.854595 87.200 -79.3837
3.882527 87.309 -79.5056
3.910661 87.417 -79.6445
3.938999 87.524 -79.8005
3.967543 87.628 -79.9739
3.996294 87.730 -80.1650
4.025252 87.830 -80.3745
4.054421 87.928 -80.6026
4.083801 88.023 -80.8494
4.113394 88.116 -81.1143
4.143201 88.207 -81.3960
4.173225 88.295 -81.6927
4.203466 88.381 -82.0023
4.233926 88.465 -82.3226
4.264606 88.546 -82.6516
4.295509 88.625 -82.9876
4.326636 88.701 -83.3293
4.357989 88.773 -83.6763
4.389569 88.843 -84.0288
4.421378 88.910 -84.3876
4.453417 88.973 -84.7534
4.485688 89.033 -85.1264
4.518193 89.090 -85.5057
4.550934 89.145 -85.8898
4.583912 89.196 -86.2763
4.617129 89.245 -86.6628
4.650587 89.291 -87.0468
4.684287 89.335 -87.4260
4.718231 89.377 -87.7987
4.752421 89.416 -88.1643
4.786859 89.453 -88.5228
4.821547 89.488 -88.8748
4.856485 89.520 -89.2208
4.891677 89.550 -89.5610
4.927125 89.578 -89.8951
4.962829 89.605 -90.2223
4.998791 89.630 -90.5415
5.035015 89.654 -90.8516
5.071500 89.678 -91.1514
5.108251 89.702 -91.4400
5.145267 89.725 -91.7167
5.182552 89.748 -91.9816
5.220107 89.770 -92.2353
5.257934 89.792 -92.4786
5.296035 89.815 -92.7130
5.334412 89.838 -92.9398
5.373067 89.861 -93.1603
5.412003 89.886 -93.3756
5.451221 89.912 -93.5865
5.490722 89.939 -93.7930
5.530510 89.968 -93.9953
5.570587 89.999 -94.1937
5.610953 90.031 -94.3892
5.651613 90.065 -94.5833
5.692567 90.101 -94.7785
5.733818 90.138 -94.9770
5.775367 90.177 -95.1814
5.817218 90.218 -95.3936
5.859372 90.260 -95.6146
5.901831 90.304 -95.8450
5.944598 90.350 -96.0850
5.987675 90.397 -96.3352
6.031065 90.446 -96.5963
6.074768 90.496 -96.8695
6.118788 90.547 -97.1561
6.163127 90.598 -97.4576
6.207788 90.650 -97.7749
6.252772 90.701 -98.1087
6.298082 90.754 -98.4589
6.343721 90.806 -98.8249
6.389690 90.858 -99.2059
6.435992 90.910 -99.6011
6.482630 90.961 -100.0095
6.529606 91.011 -100.4304
6.576922 91.060 -100.8635
6.624581 91.108 -101.3085
6.672585 91.155 -101.7650
6.720938 91.200 -102.2320
6.769640 91.245 -102.7079
6.818696 91.287 -103.1907
6.868107 91.329 -103.6785
6.917876 91.369 -104.1696
6.968006 91.408 -104.6629
7.018499 91.445 -105.1578
7.069358 91.481 -105.6535
7.120586 91.516 -106.1490
7.172184 91.549 -106.6430
7.224157 91.582 -107.1338
7.276506 91.614 -107.6198
7.329235 91.646 -108.0999
7.382345 91.677 -108.5736
7.435841 91.708 -109.0406
7.489724 91.739 -109.5010
7.543997 91.770 -109.9545
7.598664 91.802 -110.4011
7.653728 91.834 -110.8406
7.709189 91.867 -111.2730
7.765053 91.902 -111.6983
7.821322 91.937 -112.1171
7.877998 91.973 -112.5304
7.935086 92.011 -112.9392
7.992587 92.050 -113.3446
8.050504 92.091 -113.7476
8.108841 92.133 -114.1488
8.167601 92.177 -114.5488
8.226787 92.223 -114.9485
8.286402 92.270 -115.3489
8.346449 92.318 -115.7512
8.406931 92.367 -116.1562
8.467851 92.417 -116.5646
8.529212 92.468 -116.9765
8.591018 92.520 -117.3922
8.653272 92.572 -117.8115
8.715977 92.625 -118.2346
8.779137 92.678 -118.6614
8.842754 92.731 -119.0917
8.906833 92.783 -119.5250
8.971375 92.836 -119.9607
9.036386 92.888 -120.3977
9.101867 92.939 -120.8351
9.167823 92.989 -121.2721
9.234257 93.039 -121.7080
9.301172 93.088 -122.1418
9.368572 93.137 -122.5728
9.436460 93.184 -122.9997
9.504841 93.231 -123.4217
9.573717 93.277 -123.8381
9.643092 93.322 -124.2483
9.712970 93.367 -124.6521
9.783354 93.411 -125.0489
9.854248 93.455 -125.4386
9.925656 93.499 -125.8209
9.997581 93.542 -126.1959
10.070028 93.585 -126.5639
10.143000 93.628 -126.9252
10.216500 93.671 -127.2803
10.290533 93.713 -127.6296
10.365103 93.756 -127.9736
10.440212 93.798 -128.3128
10.515866 93.840 -128.6479
10.592069 93.882 -128.9794
10.668823 93.924 -129.3079
10.746134 93.966 -129.6339
10.824005 94.007 -129.9576
10.902440 94.048 -130.2794
10.981443 94.088 -130.5997
11.061020 94.127 -130.9186
11.141172 94.166 -131.2361
11.221906 94.204 -131.5525
11.303225 94.241 -131.8675
11.385133 94.277 -132.1814
11.467634 94.313 -132.4939
11.550734 94.347 -132.8052
11.634435 94.381 -133.1152
11.718742 94.413 -133.4240
11.803661 94.445 -133.7316
11.889195 94.476 -134.0383
11.975349 94.506 -134.3441
12.062128 94.534 -134.6493
12.149535 94.563 -134.9543
12.237576 94.590 -135.2592
12.326254 94.616 -135.5645
12.415575 94.641 -135.8704
12.505544 94.666 -136.1772
12.596164 94.690 -136.4853
12.687441 94.712 -136.7947
12.779379 94.734 -137.1056
12.871984 94.755 -137.4183
12.965260 94.775 -137.7326
13.059211 94.794 -138.0487
13.153843 94.811 -138.3664
13.249161 94.829 -138.6857
13.345170 94.845 -139.0067
13.441875 94.860 -139.3291
13.539280 94.875 -139.6532
13.637391 94.889 -139.9787
13.736214 94.902 -140.3061
13.835752 94.915 -140.6353
13.936011 94.928 -140.9667
14.036998 94.940 -141.3006
14.138716 94.952 -141.6374
14.241171 94.964 -141.9775
14.344368 94.976 -142.3212
14.448313 94.988 -142.6689
14.553011 95.000 -143.0210
14.658468 95.011 -143.3775
14.764689 95.023 -143.7386
14.871680 95.034 -144.1042
14.979446 95.045 -144.4742
15.087994 95.056 -144.8483
15.197328 95.067 -145.2261
15.307454 95.078 -145.6072
15.418378 95.089 -145.9910
15.530106 95.100 -146.3770
15.642643 95.111 -146.7647
15.755996 95.121 -147.1535
15.870171 95.132 -147.5432
15.985172 95.144 -147.9333
16.101007 95.155 -148.3235
16.217682 95.167 -148.7138
16.335201 95.179 -149.1039
16.453573 95.192 -149.4936
16.572803 95.205 -149.8831
16.692898 95.218 -150.2720
16.813862 95.232 -150.6601
16.935701 95.246 -151.0474
17.058424 95.261 -151.4333
17.182035 95.275 -151.8176
17.306543 95.290 -152.1996
17.431953 95.305 -152.5791
17.558273 95.319 -152.9554
17.685509 95.334 -153.3282
17.813665 95.349 -153.6969
17.942751 95.363 -154.0612
18.072771 95.378 -154.4210
18.203733 95.393 -154.7761
18.335646 95.407 -155.1263
18.468513 95.421 -155.4719
18.602345 95.436 -155.8128
18.737144 95.449 -156.1491
18.872921 95.463 -156.4810
19.009682 95.476 -156.8086
19.147434 95.489 -157.1319
19.286184 95.501 -157.4512
19.425940 95.512 -157.7664
19.566708 95.523 -158.0776
19.708496 95.533 -158.3850
19.851313 95.542 -158.6889
19.995163 95.550 -158.9893
20.140057 95.558 -159.2868
20.285999 95.565 -159.5817
20.433001 95.571 -159.8743
20.581066 95.576 -160.1653
20.730206 95.581 -160.4549
20.880424 95.584 -160.7437
21.031733 95.587 -161.0320
21.184137 95.588 -161.3201
21.337646 95.589 -161.6083
21.492268 95.589 -161.8971
21.648010 95.589 -162.1865
21.804880 95.587 -162.4770
21.962887 95.585 -162.7690
22.122040 95.582 -163.0628
22.282345 95.579 -163.3589
22.443811 95.576 -163.6576
22.606449 95.571 -163.9594
22.770266 95.567 -164.2646
22.935268 95.562 -164.5731
23.101467 95.557 -164.8851
23.268869 95.551 -165.2004
23.437485 95.546 -165.5188
23.607323 95.540 -165.8398
23.778391 95.534 -166.1632
23.950699 95.528 -166.4884
24.124256 95.522 -166.8152
24.299070 95.516 -167.1431
24.475151 95.511 -167.4720
24.652508 95.505 -167.8014
24.831150 95.500 -168.1311
25.011087 95.496 -168.4607
25.192327 95.491 -168.7896
25.374882 95.487 -169.1174
25.558758 95.483 -169.4435
25.743967 95.479 -169.7673
25.930519 95.476 -170.0883
26.118422 95.472 -170.4061
26.307686 95.469 -170.7202
26.498322 95.466 -171.0304
26.690340 95.463 -171.3366
26.883749 95.460 -171.6386
27.078560 95.457 -171.9363
27.274782 95.454 -172.2298
27.472427 95.450 -172.5189
27.671503 95.446 -172.8035
27.872023 95.442 -173.0839
28.073996 95.438 -173.3600
28.277431 95.432 -173.6321
28.482342 95.427 -173.9004
28.688736 95.420 -174.1653
28.896626 95.413 -174.4272
29.106022 95.405 -174.6866
29.316936 95.397 -174.9436
29.529379 95.388 -175.1989
29.743361 95.378 -175.4528
29.958893 95.367 -175.7058
30.175987 95.356 -175.9583
30.394655 95.344 -176.2108
30.614908 95.331 -176.4640
30.836756 95.318 -176.7182
31.060211 95.305 -176.9739
31.285286 95.291 -177.2314
31.511992 95.277 -177.4907
31.740341 95.262 -177.7518
31.970345 95.247 -178.0148
32.202015 95.232 -178.2795
32.435364 95.217 -178.5458
32.670403 95.203 -178.8136
32.907146 95.188 -179.0829
33.145607 95.173 -179.3533
33.385796 95.158 -179.6248
33.627724 95.144 -179.8967
33.871403 95.129 179.8314
34.116848 95.115 179.5602
34.364071 95.100 179.2904
34.613087 95.086 179.0223
34.863907 95.072 178.7566
35.116547 95.057 178.4935
35.371017 95.043 178.2331
35.627331 95.028 177.9757
35.885502 95.014 177.7215
36.145542 94.999 177.4706
36.407467 94.983 177.2233
36.671291 94.967 176.9801
36.937027 94.951 176.7411
37.204689 94.934 176.5066
37.474289 94.916 176.2764
37.745842 94.899 176.0502
38.019363 94.880 175.8275
38.294868 94.862 175.6072
38.572369 94.843 175.3887
38.851879 94.823 175.1711
39.133415 94.804 174.9539
39.416992 94.784 174.7371
39.702625 94.763 174.5207
39.990326 94.742 174.3051
40.280113 94.720 174.0905
40.571999 94.699 173.8770
40.866001 94.677 173.6643
41.162132 94.655 173.4522
41.460411 94.633 173.2404
41.760849 94.611 173.0286
42.063465 94.589 172.8172
42.368275 94.567 172.6066
42.675293 94.545 172.3974
42.984535 94.522 172.1903
43.296021 94.500 171.9858
43.609760 94.477 171.7841
43.925774 94.455 171.5851
44.244080 94.432 171.3887
44.564690 94.409 171.1949
44.887623 94.387 171.0035
45.212898 94.364 170.8145
45.540531 94.341 170.6274
45.870537 94.317 170.4420
46.202934 94.294 170.2574
46.537739 94.270 170.0732
46.874969 94.246 169.8895
47.214645 94.222 169.7064
47.556782 94.197 169.5249
47.901398 94.172 169.3457
48.248512 94.146 169.1694
48.598141 94.120 168.9959
48.950302 94.094 168.8250
49.305016 94.068 168.6561
49.662300 94.041 168.4890
50.022175 94.015 168.3235
50.384655 93.989 168.1599
50.749763 93.962 167.9984
51.117516 93.935 167.8395
51.487934 93.908 167.6831
51.861038 93.880 167.5291
52.236843 93.853 167.3773
52.615372 93.825 167.2276
52.996643 93.797 167.0806
53.380680 93.769 166.9370
53.767498 93.741 166.7979
54.157120 93.713 166.6638
54.549564 93.685 166.5341
54.944855 93.658 166.4073
55.343006 93.632 166.2806
55.744045 93.606 166.1518
56.147991 93.582 166.0191
56.554863 93.557 165.8821
56.964684 93.533 165.7411
57.377472 93.509 165.5969
57.793251 93.484 165.4503
58.212044 93.458 165.3019
58.633873 93.432 165.1532
59.058758 93.404 165.0062
59.486721 93.376 164.8633
59.917786 93.346 164.7263
60.351974 93.316 164.5962
60.789310 93.286 164.4731
61.229816 93.255 164.3560
61.673512 93.224 164.2440
62.120422 93.192 164.1354
62.570572 93.161 164.0284
63.023983 93.130 163.9210
63.480682 93.098 163.8119
63.940689 93.066 163.7009
64.404030 93.034 163.5880
64.870728 93.001 163.4735
65.340805 92.967 163.3575
65.814293 92.933 163.2421
66.291214 92.897 163.1316
66.771591 92.861 163.0322
67.255447 92.825 162.9474
67.742805 92.792 162.8752
68.233696 92.761 162.8076
68.728142 92.734 162.7333
69.226173 92.709 162.6425
69.727814 92.685 162.5308
70.233093 92.658 162.4025
70.742035 92.628 162.2708
71.254662 92.595 162.1537
71.771004 92.559 162.0665
72.291084 92.524 162.0143
72.814934 92.490 161.9906
73.342583 92.459 161.9832
73.874054 92.430 161.9821
74.409378 92.401 161.9840
74.948578 92.373 161.9901
75.491684 92.344 162.0014
76.038727 92.316 162.0172
76.589737 92.287 162.0339
77.144737 92.259 162.0475
77.703758 92.231 162.0546
78.266830 92.203 162.0535
78.833984 92.176 162.0437
79.405251 92.148 162.0248
79.980652 92.122 161.9962
80.560226 92.096 161.9567
81.143997 92.071 161.9055
81.732002 92.046 161.8428
82.324265 92.021 161.7711
82.920822 91.995 161.6940
83.521698 91.969 161.6161
84.126930 91.941 161.5413
84.736549 91.911 161.4724
85.350586 91.880 161.4125
85.969070 91.847 161.3645
86.592041 91.812 161.3309
87.219521 91.777 161.3127
87.851547 91.741 161.3091
88.488159 91.707 161.3166
89.129379 91.674 161.3275
89.775246 91.643 161.3318
90.425797 91.612 161.3219
91.081062 91.582 161.2977
91.741074 91.551 161.2653
92.405869 91.520 161.2318
93.075478 91.487 161.2016
93.749939 91.455 161.1768
94.429291 91.424 161.1580
95.113564 91.392 161.1450
95.802795 91.362 161.1371
96.497025 91.331 161.1342
97.196281 91.300 161.1366
97.900604 91.269 161.1443
98.610031 91.237 161.1573
99.324600 91.205 161.1753
100.044350 91.172 161.1970
100.769310 91.140 161.2213
101.499527 91.107 161.2485
102.235031 91.075 161.2795
102.975868 91.043 161.3157
103.722076 91.013 161.3567
104.473686 90.985 161.4014
105.230743 90.958 161.4476
105.993286 90.933 161.4932
106.761360 90.909 161.5358
107.534996 90.886 161.5734
108.314240 90.862 161.6036
109.099129 90.838 161.6240
109.889709 90.814 161.6320
110.686012 90.789 161.6254
111.488091 90.764 161.6044
112.295982 90.739 161.5734
113.109726 90.713 161.5427
113.929367 90.687 161.5253
114.754944 90.661 161.5321
115.586502 90.638 161.5681
116.424088 90.616 161.6309
117.267746 90.596 161.7109
118.117516 90.576 161.7934
118.973442 90.556 161.8614
119.835571 90.531 161.9046
120.703949 90.500 161.9286
121.578621 90.464 161.9493
122.459633 90.424 161.9769
123.347023 90.385 162.0124
124.240845 90.346 162.0546
125.141144 90.310 162.1043
126.047966 90.274 162.1649
126.961365 90.239 162.2397
127.881378 90.204 162.3284
128.808060 90.168 162.4270
129.741455 90.130 162.5299
130.681610 90.092 162.6307
131.628586 90.054 162.7226
132.582428 90.018 162.7993
133.543182 89.986 162.8545
134.510895 89.957 162.8827
135.485611 89.932 162.8832
136.467392 89.907 162.8669
137.456284 89.881 162.8526
138.452347 89.854 162.8555
139.455627 89.826 162.8822
140.466187 89.796 162.9330
141.484070 89.767 163.0035
142.509323 89.736 163.0871
143.542007 89.706 163.1783
144.582169 89.675 163.2742
145.629868 89.645 163.3723
146.685165 89.614 163.4706
147.748108 89.582 163.5683
148.818756 89.549 163.6664
149.897156 89.515 163.7673
150.983368 89.480 163.8744
152.077454 89.446 163.9902
153.179474 89.412 164.1161
154.289474 89.380 164.2527
155.407516 89.350 164.3991
156.533661 89.322 164.5526
157.667969 89.296 164.7081
158.810501 89.271 164.8606
159.961304 89.246 165.0067
161.120453 89.222 165.1454
162.287994 89.199 165.2778
163.464005 89.174 165.4063
164.648529 89.150 165.5342
165.841644 89.125 165.6644
167.043396 89.100 165.7991
168.253860 89.076 165.9397
169.473099 89.051 166.0859
170.701172 89.028 166.2361
171.938141 89.006 166.3871
173.184082 88.985 166.5356
174.439041 88.965 166.6789
175.703094 88.946 166.8154
176.976318 88.927 166.9454
178.258759 88.907 167.0696
179.550491 88.887 167.1893
180.851593 88.867 167.3056
182.162125 88.845 167.4193
183.482147 88.824 167.5313
184.811737 88.801 167.6425
186.150955 88.779 167.7542
187.499878 88.756 167.8676
188.858582 88.732 167.9839
190.227127 88.708 168.1039
191.605591 88.683 168.2279
192.994049 88.658 168.3561
194.392563 88.633 168.4892
195.801208 88.607 168.6285
197.220062 88.580 168.7753
198.649200 88.554 168.9308
200.088699 88.528 169.0949
201.538620 88.503 169.2657
202.999054 88.480 169.4395
204.470062 88.458 169.6115
205.951736 88.437 169.7779
207.444153 88.417 169.9365
208.947372 88.398 170.0879
210.461487 88.377 170.2348
211.986572 88.355 170.3809
213.522720 88.332 170.5303
215.069992 88.308 170.6871
216.628479 88.283 170.8546
218.198257 88.258 171.0346
219.779419 88.234 171.2255
221.372025 88.212 171.4225
222.976181 88.192 171.6202
224.591965 88.173 171.8146
226.219452 88.155 172.0043
227.858734 88.137 172.1893
229.509888 88.120 172.3707
231.173004 88.102 172.5498
232.848175 88.085 172.7274
234.535492 88.068 172.9037
236.235031 88.050 173.0785
237.946884 88.032 173.2512
239.671143 88.014 173.4218
241.407898 87.995 173.5917
243.157242 87.976 173.7634
244.919266 87.955 173.9399
246.694046 87.934 174.1241
248.481689 87.911 174.3191
250.282288 87.889 174.5274
252.095932 87.868 174.7502
253.922729 87.848 174.9856
255.762756 87.831 175.2275
257.616119 87.817 175.4663
259.482910 87.806 175.6927
261.363220 87.795 175.9017
263.257172 87.784 176.0952
265.164856 87.771 176.2802
267.086365 87.757 176.4647
269.021790 87.741 176.6562
270.971222 87.725 176.8585
272.934784 87.710 177.0721
274.912567 87.695 177.2944
276.904694 87.681 177.5226
278.911255 87.669 177.7540
280.932373 87.658 177.9866
282.968140 87.650 178.2171
285.018646 87.643 178.4406
287.084015 87.638 178.6503
289.164337 87.633 178.8402
291.259735 87.628 179.0087
293.370331 87.621 179.1606
295.496216 87.611 179.3055
297.637512 87.598 179.4534
299.794312 87.584 179.6111
301.966736 87.569 179.7806
304.154907 87.553 179.9609
306.358948 87.538 -179.8513
308.578949 87.523 -179.6591
310.815033 87.508 -179.4652
313.067322 87.493 -179.2711
315.335938 87.477 -179.0759
317.621002 87.461 -178.8759
319.922607 87.444 -178.6669
322.240906 87.427 -178.4466
324.575989 87.411 -178.2163
326.928009 87.396 -177.9794
329.297058 87.382 -177.7403
331.683289 87.370 -177.5026
334.086792 87.359 -177.2688
336.507721 87.348 -177.0402
338.946198 87.338 -176.8166
341.402344 87.327 -176.5960
343.876282 87.316 -176.3755
346.368164 87.304 -176.1525
348.878082 87.292 -175.9255
351.406189 87.280 -175.6946
353.952637 87.269 -175.4604
356.517517 87.257 -175.2234
359.100983 87.246 -174.9845
361.703186 87.235 -174.7441
364.324249 87.224 -174.5023
366.964294 87.213 -174.2592
369.623474 87.203 -174.0144
372.301910 87.192 -173.7677
374.999756 87.181 -173.5190
377.717163 87.171 -173.2684
380.454254 87.161 -173.0161
383.211182 87.152 -172.7620
385.988098 87.143 -172.5059
388.785126 87.134 -172.2478
391.602417 87.126 -171.9873
394.440125 87.118 -171.7248
397.298401 87.110 -171.4607
400.177399 87.103 -171.1959
403.077240 87.096 -170.9319
405.998108 87.090 -170.6704
408.940125 87.083 -170.4117
411.903473 87.077 -170.1540
414.888306 87.069 -169.8938
417.894745 87.062 -169.6270
420.922974 87.054 -169.3510
423.973145 87.047 -169.0653
427.045441 87.041 -168.7715
430.139984 87.037 -168.4739
433.256958 87.035 -168.1773
436.396515 87.034 -167.8851
439.558838 87.034 -167.5978
442.744049 87.035 -167.3152
445.952362 87.037 -167.0388
449.183929 87.040 -166.7728
452.438904 87.044 -166.5229
455.717468 87.047 -166.2919
459.019775 87.048 -166.0762
462.346008 87.045 -165.8654
465.696350 87.040 -165.6479
469.070984 87.032 -165.4160
472.470062 87.024 -165.1680
475.893768 87.017 -164.9068
479.342285 87.010 -164.6378
482.815796 87.004 -164.3671
486.314484 86.997 -164.0965
489.838531 86.991 -163.8218
493.388092 86.984 -163.5356
496.963379 86.977 -163.2342
500.564575 86.972 -162.9222
504.191864 86.969 -162.6081
507.845459 86.968 -162.2997
511.525513 86.967 -162.0004
515.232239 86.966 -161.7089
518.965820 86.965 -161.4208
522.726440 86.962 -161.1310
526.514343 86.959 -160.8346
530.329712 86.956 -160.5294
534.172729 86.954 -160.2171
538.043579 86.952 -159.9017
541.942444 86.952 -159.5854
545.869568 86.952 -159.2673
549.825134 86.952 -158.9465
553.809387 86.953 -158.6245
557.822510 86.955 -158.3045
561.864746 86.957 -157.9883
565.936279 86.958 -157.6757
570.037292 86.959 -157.3635
574.168030 86.959 -157.0483
578.328674 86.959 -156.7282
582.519470 86.958 -156.4037
586.740662 86.958 -156.0751
590.992432 86.957 -155.7401
595.275024 86.957 -155.3959
599.588623 86.957 -155.0429
603.933472 86.959 -154.6850
608.309814 86.962 -154.3264
612.717896 86.964 -153.9687
617.157898 86.967 -153.6097
621.630066 86.969 -153.2440
626.134644 86.971 -152.8654
630.671875 86.974 -152.4716
635.242004 86.979 -152.0666
639.845215 86.986 -151.6564
644.481812 86.995 -151.2429
649.151978 87.006 -150.8255
653.856018 87.020 -150.4059
658.594116 87.037 -149.9908
663.366577 87.056 -149.5906
668.173584 87.077 -149.2131
673.015442 87.097 -148.8577
677.892395 87.115 -148.5167
682.804688 87.132 -148.1812
687.752563 87.146 -147.8441
692.736328 87.158 -147.4999
697.756165 87.170 -147.1440
702.812378 87.181 -146.7749
707.905273 87.194 -146.3950
713.035034 87.207 -146.0090
718.201965 87.221 -145.6205
723.406372 87.236 -145.2300
728.648499 87.251 -144.8365
733.928589 87.266 -144.4388
739.246948 87.282 -144.0359
744.603821 87.299 -143.6276
749.999512 87.316 -143.2135
755.434326 87.335 -142.7935
760.908508 87.354 -142.3673
766.422363 87.375 -141.9355
771.976196 87.397 -141.4994
777.570251 87.421 -141.0607
783.204834 87.445 -140.6202
788.880249 87.471 -140.1768
794.596802 87.497 -139.7271
800.354797 87.526 -139.2685
806.154480 87.557 -138.8021
811.996216 87.591 -138.3338
817.880249 87.630 -137.8726
823.806946 87.671 -137.4277
829.776611 87.715 -137.0074
835.789490 87.759 -136.6139
841.845947 87.801 -136.2404
847.946289 87.842 -135.8767
854.090881 87.881 -135.5148
860.279968 87.919 -135.1508
866.513916 87.956 -134.7815
872.793030 87.992 -134.4035
879.117676 88.030 -134.0167
885.488098 88.069 -133.6255
891.904724 88.109 -133.2336
898.367859 88.151 -132.8412
904.877808 88.193 -132.4462
911.434937 88.236 -132.0477
918.039551 88.281 -131.6476
924.692017 88.328 -131.2485
931.392700 88.376 -130.8540
938.141968 88.426 -130.4679
944.940125 88.477 -130.0918
951.787537 88.529 -129.7245
958.684570 88.580 -129.3633
965.631592 88.632 -129.0053
972.628967 88.684 -128.6482
979.677063 88.736 -128.2912
986.776184 88.789 -127.9352
993.926758 88.842 -127.5786
1001.129150 88.896 -127.2169
1008.383728 88.951 -126.8460
1015.690918 89.009 -126.4675
1023.051025 89.071 -126.0868
1030.464478 89.136 -125.7126
1037.931641 89.206 -125.3567
1045.452881 89.278 -125.0312
1053.028687 89.351 -124.7414
1060.659424 89.423 -124.4833
1068.345459 89.493 -124.2482
1076.087158 89.561 -124.0263
1083.884888 89.627 -123.8111
1091.739136 89.692 -123.6005
1099.650269 89.756 -123.3943
1107.618774 89.819 -123.1917
1115.645020 89.881 -122.9917
1123.729492 89.942 -122.7929
1131.872559 90.003 -122.5942
1140.074585 90.064 -122.3946
1148.336060 90.124 -122.1933
1156.657349 90.185 -121.9895
1165.038940 90.245 -121.7821
1173.481323 90.307 -121.5697
1181.984863 90.370 -121.3533
1190.550049 90.436 -121.1391
1199.177246 90.504 -120.9381
1207.866943 90.574 -120.7622
1216.619629 90.644 -120.6172
1225.435791 90.713 -120.4995
1234.315796 90.778 -120.4004
1243.260132 90.840 -120.3105
1252.269287 90.899 -120.2215
1261.343750 90.957 -120.1287
1270.484009 91.012 -120.0306
1279.690430 91.066 -119.9255
1288.963623 91.120 -119.8115
1298.303955 91.173 -119.6886
1307.712036 91.227 -119.5592
1317.188232 91.281 -119.4273
1326.733154 91.335 -119.2959
1336.347168 91.389 -119.1657
1346.030884 91.443 -119.0355
1355.784790 91.496 -118.9024
1365.609375 91.548 -118.7634
1375.505127 91.600 -118.6140
1385.472656 91.652 -118.4489
1395.512329 91.707 -118.2664
1405.624756 91.764 -118.0716
1415.810547 91.826 -117.8767
1426.070068 91.891 -117.6968
1436.403931 91.958 -117.5418
1446.812744 92.026 -117.4123
1457.296997 92.093 -117.3025
1467.857178 92.158 -117.2055
1478.493896 92.222 -117.1159
1489.207642 92.285 -117.0295
1499.999023 92.346 -116.9426
1510.868652 92.407 -116.8521
1521.817017 92.468 -116.7552
1532.844727 92.528 -116.6497
1543.952393 92.590 -116.5339
1555.140503 92.653 -116.4075
1566.409668 92.719 -116.2751
1577.760498 92.790 -116.1478
1589.193604 92.864 -116.0399
1600.709595 92.939 -115.9607
1612.308960 93.015 -115.9109
1623.992432 93.090 -115.8852
1635.760498 93.162 -115.8765
1647.613892 93.233 -115.8787
1659.553223 93.303 -115.8873
1671.578979 93.371 -115.8990
1683.691895 93.439 -115.9134
1695.892578 93.506 -115.9321
1708.181763 93.572 -115.9572
1720.559937 93.638 -115.9884
1733.027832 93.702 -116.0227
1745.586060 93.765 -116.0548
1758.235352 93.827 -116.0784
1770.976196 93.890 -116.0885
1783.809448 93.954 -116.0863
1796.735718 94.022 -116.0811
1809.755615 94.093 -116.0871
1822.869873 94.167 -116.1152
1836.079102 94.241 -116.1691
1849.384033 94.316 -116.2477
1862.785400 94.389 -116.3476
1876.283936 94.460 -116.4645
1889.880249 94.530 -116.5929
1903.575073 94.598 -116.7272
1917.369141 94.665 -116.8624
1931.263184 94.732 -116.9954
1945.257935 94.800 -117.1275
1959.354126 94.871 -117.2673
1973.552368 94.944 -117.4282
1987.853516 95.017 -117.6206
2002.258301 95.090 -117.8482
2016.767456 95.161 -118.1087
2031.381836 95.229 -118.3973
2046.102051 95.294 -118.7081
2060.928955 95.355 -119.0364
2075.863281 95.412 -119.3799
2090.905762 95.465 -119.7374
2106.057373 95.514 -120.1065
2121.318848 95.558 -120.4810
2136.690918 95.597 -120.8522
2152.174316 95.632 -121.2107
2167.769775 95.664 -121.5524
2183.478271 95.694 -121.8819
2199.300537 95.724 -122.2088
2215.237549 95.752 -122.5404
2231.290039 95.777 -122.8787
2247.458984 95.798 -123.2209
2263.745117 95.814 -123.5599
2280.149170 95.824 -123.8847
2296.672119 95.828 -124.1829
2313.314697 95.829 -124.4423
2330.077881 95.827 -124.6554
2346.962646 95.824 -124.8229
2363.969727 95.822 -124.9499
2381.100098 95.821 -125.0405
2398.354492 95.821 -125.0938
2415.733887 95.822 -125.1057
2433.239258 95.826 -125.0711
2450.871582 95.834 -124.9874
2468.631592 95.849 -124.8574
2486.520264 95.873 -124.6880
2504.538574 95.907 -124.4889
2522.687500 95.952 -124.2723
2540.968018 96.012 -124.0552
2559.380859 96.087 -123.8643
2577.927246 96.177 -123.7347
2596.607910 96.279 -123.7010
2615.424072 96.388 -123.7881
2634.376465 96.499 -124.0076
2653.466309 96.607 -124.3565
2672.694336 96.707 -124.8195
2692.061768 96.797 -125.3730
2711.569580 96.875 -125.9921
2731.218750 96.942 -126.6577
2751.010254 96.997 -127.3569
2770.945312 97.041 -128.0792
2791.024658 97.073 -128.8133
2811.249512 97.095 -129.5469
2831.621094 97.105 -130.2681
2852.140137 97.105 -130.9666
2872.807861 97.095 -131.6329
2893.625488 97.076 -132.2559
2914.593994 97.049 -132.8219
2935.714355 97.017 -133.3197
2956.987793 96.982 -133.7462
2978.415283 96.947 -134.1060
2999.998047 96.914 -134.4078
3021.737305 96.882 -134.6599
3043.634033 96.853 -134.8679
3065.689453 96.828 -135.0344
3087.904785 96.807 -135.1612
3110.281006 96.792 -135.2557
3132.819336 96.785 -135.3335
3155.520996 96.786 -135.4147
3178.387207 96.793 -135.5181
3201.419189 96.806 -135.6580
3224.617920 96.820 -135.8430
3247.984863 96.834 -136.0760
3271.520996 96.845 -136.3529
3295.227783 96.850 -136.6606
3319.106445 96.849 -136.9809
3343.157959 96.842 -137.2975
3367.383789 96.829 -137.5988
3391.785156 96.810 -137.8759
3416.363525 96.786 -138.1190
3441.119873 96.758 -138.3148
3466.055664 96.727 -138.4470
3491.172119 96.695 -138.5022
3516.470703 96.668 -138.4780
3541.952393 96.648 -138.3837
3567.618896 96.638 -138.2377
3593.471436 96.639 -138.0626
3619.511230 96.652 -137.8821
3645.739746 96.676 -137.7174
3672.158203 96.708 -137.5820
3698.768066 96.748 -137.4799
3725.570801 96.793 -137.4116
3752.567871 96.845 -137.3797
3779.760498 96.901 -137.3891
3807.150146 96.961 -137.4438
3834.738281 97.023 -137.5420
3862.526367 97.087 -137.6763
3890.515869 97.153 -137.8402
3918.708252 97.223 -138.0335
3947.104736 97.296 -138.2629
3975.707031 97.374 -138.5394
4004.516602 97.456 -138.8756
4033.534912 97.540 -139.2829
4062.763672 97.623 -139.7657
4092.204102 97.705 -140.3210
4121.857910 97.784 -140.9438
4151.726562 97.860 -141.6320
4181.811523 97.931 -142.3855
4212.114746 97.997 -143.2026
4242.637695 98.056 -144.0755
4273.381836 98.108 -144.9940
4304.348633 98.154 -145.9510
4335.539551 98.194 -146.9457
4366.956543 98.229 -147.9822
4398.601074 98.258 -149.0678
4430.475098 98.279 -150.2083
4462.580078 98.291 -151.4022
4494.917969 98.291 -152.6408
4527.490234 98.279 -153.9132
4560.298340 98.254 -155.2096
4593.344238 98.215 -156.5199
4626.629395 98.161 -157.8296
4660.155762 98.092 -159.1199
4693.925293 98.010 -160.3735
4727.939453 97.915 -161.5793
4762.200195 97.811 -162.7338
4796.708984 97.699 -163.8404
4831.467773 97.578 -164.9047
4866.478516 97.450 -165.9284
4901.743164 97.313 -166.9095
4937.263184 97.168 -167.8456
4973.040527 97.013 -168.7347
5009.077148 96.850 -169.5708
5045.375000 96.676 -170.3413
5081.936035 96.493 -171.0306
5118.761719 96.302 -171.6255
5155.854492 96.106 -172.1195
5193.215820 95.907 -172.5146
5230.848145 95.706 -172.8174
5268.752930 95.506 -173.0339
5306.932617 95.306 -173.1691
5345.388672 95.107 -173.2296
5384.123535 94.910 -173.2219
5423.139160 94.714 -173.1469
5462.437500 94.518 -172.9988
5502.020508 94.323 -172.7691
5541.890625 94.131 -172.4522
5582.049316 93.943 -172.0497
5622.499023 93.762 -171.5691
5663.242188 93.588 -171.0189
5704.280273 93.423 -170.4081
5745.615723 93.266 -169.7478
5787.250977 93.118 -169.0480
5829.187988 92.977 -168.3127
5871.428711 92.842 -167.5386
5913.975586 92.715 -166.7190
5956.830566 92.595 -165.8498
5999.996094 92.484 -164.9328
6043.474609 92.384 -163.9735
6087.268066 92.294 -162.9796
6131.378906 92.216 -161.9611
6175.809570 92.149 -160.9291
6220.562012 92.093 -159.8901
6265.638672 92.047 -158.8443
6311.041992 92.009 -157.7870
6356.774414 91.982 -156.7136
6402.838379 91.965 -155.6226
6449.235840 91.960 -154.5147
6495.969727 91.967 -153.3921
6543.041992 91.988 -152.2601
6590.455566 92.023 -151.1248
6638.212891 92.074 -149.9910
6686.315918 92.140 -148.8621
6734.767578 92.224 -147.7432
6783.570312 92.327 -146.6438
6832.727051 92.450 -145.5763
6882.239746 92.594 -144.5560
6932.111328 92.760 -143.6019
6982.344238 92.949 -142.7342
7032.941406 93.158 -141.9705
7083.904785 93.390 -141.3247
7135.237793 93.643 -140.8117
7186.942871 93.919 -140.4507
7239.022461 94.218 -140.2677
7291.479492 94.540 -140.2975
7344.316406 94.884 -140.5839
7397.536133 95.247 -141.1740
7451.141602 95.624 -142.1129
7505.135742 96.007 -143.4410
7559.520996 96.390 -145.1954
7614.300293 96.762 -147.4074
7669.476562 97.112 -150.0994
7725.052734 97.426 -153.2816
7781.031738 97.689 -156.9431
7837.416504 97.884 -161.0423
7894.209473 97.997 -165.5008
7951.414062 98.013 -170.2062
8009.033203 97.925 -175.0181
8067.069824 97.731 -179.7810
8125.527344 97.433 175.6578
8184.408203 97.040 171.4334
8243.715820 96.561 167.6555
8303.453125 96.012 164.4044
8363.623047 95.408 161.7310
8424.229492 94.766 159.6579
8485.275391 94.101 158.1811
8546.763672 93.430 157.2709
8608.697266 92.765 156.8784
8671.079102 92.116 156.9471
8733.913086 91.490 157.4226
8797.202148 90.891 158.2604
8860.950195 90.322 159.4280
8925.160156 89.785 160.8995
8989.835938 89.281 162.6506
9054.980469 88.812 164.6624
9120.596680 88.380 166.9257
9186.688477 87.985 169.4453
9253.258789 87.631 172.2410
9320.311523 87.324 175.3380
9387.850586 87.074 178.7547
9455.878906 86.895 -177.5066
9524.400391 86.804 -173.4692
9593.417969 86.818 -169.1927
9662.935547 86.957 -164.7878
9732.957031 87.232 -160.4331
9803.486328 87.647 -156.3701
9874.526367 88.190 -152.8665
9946.081055 88.836 -150.1576
10018.154297 89.551 -148.3985
10090.750000 90.300 -147.6492
10163.872070 91.051 -147.8904
10237.523438 91.779 -149.0509
10311.708984 92.465 -151.0325
10386.431641 93.098 -153.7292
10461.696289 93.671 -157.0427
10537.505859 94.182 -160.8947
10613.865234 94.628 -165.2329
10690.777344 95.005 -170.0256
10768.247070 95.303 -175.2462
10846.278320 95.512 179.1458
10924.875000 95.617 173.2196
11004.041016 95.607 167.0783
11083.781250 95.472 160.8563
11164.098633 95.206 154.7101
11244.998047 94.811 148.8076
11326.484375 94.291 143.3103
11408.560547 93.661 138.3577
11491.231445 92.938 134.0515
11574.501953 92.142 130.4515
11658.375977 91.294 127.5810
11742.857422 90.416 125.4337
11827.951172 89.525 123.9805
11913.661133 88.640 123.1707
11999.992188 87.775 122.9373
12086.949219 86.942 123.2068
12174.536133 86.147 123.9094
12262.757812 85.396 124.9815
12351.619141 84.693 126.3628
12441.124023 84.038 127.9967
12531.277344 83.431 129.8358
12622.083984 82.872 131.8444
12713.548828 82.359 133.9936
12805.676758 81.890 136.2551
12898.471680 81.466 138.6024
12991.939453 81.084 141.0159
13086.083984 80.743 143.4813
13180.911133 80.444 145.9832
13276.425781 80.187 148.5024
13372.631836 79.971 151.0209
13469.535156 79.796 153.5245
13567.140625 79.663 155.9979
13665.454102 79.574 158.4208
13764.479492 79.528 160.7704
13864.222656 79.526 163.0253
13964.688477 79.571 165.1608
14065.882812 79.663 167.1431
14167.809570 79.806 168.9297
14270.475586 79.998 170.4741
14373.885742 80.240 171.7227
14478.044922 80.531 172.6124
14582.958984 80.864 173.0755
14688.632812 81.234 173.0471
14795.072266 81.629 172.4677
14902.283203 82.036 171.2852
15010.271484 82.440 169.4648
15119.041992 82.821 166.9969
15228.600586 83.161 163.9009
15338.953125 83.442 160.2263
15450.105469 83.645 156.0530
15562.063477 83.759 151.4878
15674.833008 83.774 146.6535
15788.418945 83.689 141.6764
15902.828125 83.507 136.6736
16018.066406 83.234 131.7428
16134.139648 82.883 126.9527
16251.054688 82.464 122.3404
16368.816406 81.989 117.9174
16487.431641 81.465 113.6787
16606.906250 80.896 109.6118
16727.246094 80.284 105.7074
16848.458984 79.628 101.9692
16970.550781 78.924 98.4158
17093.527344 78.171 95.0788
17217.394531 77.366 92.0013
17342.158203 76.510 89.2331
17467.826172 75.605 86.8250
17594.404297 74.654 84.8255
17721.900391 73.663 83.2774
17850.320312 72.639 82.2128
17979.671875 71.591 81.6489
18109.960938 70.530 81.5881
18241.193359 69.465 82.0169
18373.376953 68.404 82.9070
18506.517578 67.356 84.2201
18640.623047 66.327 85.9127
18775.701172 65.319 87.9398
18911.757812 64.335 90.2635
19048.800781 63.376 92.8578
19186.835938 62.445 95.7048
19325.871094 61.548 98.7783
19465.914062 60.700 102.0173
19606.972656 59.924 105.2931
19749.052734 59.264 108.3635
19892.162109 58.774 110.8429
20036.308594 58.511 112.2604
