* Measurement data measured by REW V5.31
* Source: EXCL: Microphone (USB Sound Device        ), MICROPHONE (Master Volume), L, volume: 0.390
* Format: 256k Log Swept Sine, 1 sweep at -10.0 dBFS with no timing reference
* Dated: Sep 13, 2024 12:26:54 AM
* REW Settings:
*  C-weighting compensation: Off
*  Target level: 75.0 dB
* Note: FIIO FD15 Red
* Measurement: L FIIO FD15 Red
* Smoothing: 1/12 octave
* Frequency Step: 96 ppo
* Start Frequency: 0.36621094 Hz
*
* Freq(Hz)	SPL(dB)	Phase(degrees)
0.366211	77.971	-172.3918
0.368865	77.974	-172.4001
0.371538	77.978	-172.4125
0.374230	77.983	-172.4279
0.376942	77.988	-172.4453
0.379673	77.994	-172.4641
0.382424	78.000	-172.4837
0.385196	78.006	-172.5041
0.387987	78.012	-172.5249
0.390798	78.019	-172.5462
0.393630	78.025	-172.5679
0.396483	78.032	-172.5899
0.399356	78.038	-172.6122
0.402250	78.045	-172.6349
0.405165	78.051	-172.6580
0.408101	78.058	-172.6814
0.411058	78.065	-172.7051
0.414037	78.072	-172.7293
0.417037	78.079	-172.7538
0.420059	78.085	-172.7787
0.423103	78.092	-172.8041
0.426169	78.099	-172.8298
0.429257	78.106	-172.8560
0.432368	78.114	-172.8826
0.435501	78.121	-172.9096
0.438656	78.128	-172.9370
0.441835	78.135	-172.9650
0.445037	78.142	-172.9934
0.448262	78.150	-173.0223
0.451510	78.157	-173.0516
0.454782	78.165	-173.0815
0.458077	78.172	-173.1119
0.461397	78.180	-173.1428
0.464740	78.187	-173.1743
0.468108	78.195	-173.2063
0.471500	78.203	-173.2389
0.474917	78.211	-173.2721
0.478358	78.219	-173.3058
0.481825	78.226	-173.3402
0.485316	78.234	-173.3752
0.488833	78.243	-173.4108
0.492375	78.251	-173.4471
0.495943	78.259	-173.4841
0.499537	78.267	-173.5218
0.503157	78.275	-173.5601
0.506803	78.284	-173.5992
0.510475	78.292	-173.6391
0.514175	78.300	-173.6797
0.517900	78.309	-173.7210
0.521653	78.317	-173.7632
0.525434	78.326	-173.8062
0.529241	78.335	-173.8501
0.533076	78.344	-173.8948
0.536939	78.352	-173.9404
0.540830	78.361	-173.9869
0.544749	78.370	-174.0343
0.548696	78.379	-174.0828
0.552673	78.388	-174.1322
0.556677	78.397	-174.1826
0.560711	78.407	-174.2340
0.564774	78.416	-174.2866
0.568867	78.425	-174.3402
0.572989	78.435	-174.3950
0.577141	78.444	-174.4509
0.581324	78.454	-174.5080
0.585536	78.463	-174.5663
0.589779	78.473	-174.6260
0.594053	78.483	-174.6869
0.598358	78.493	-174.7491
0.602694	78.503	-174.8128
0.607061	78.513	-174.8778
0.611460	78.523	-174.9443
0.615891	78.533	-175.0123
0.620354	78.543	-175.0819
0.624849	78.553	-175.1531
0.629377	78.563	-175.2259
0.633938	78.574	-175.3004
0.638532	78.584	-175.3766
0.643159	78.595	-175.4547
0.647819	78.606	-175.5346
0.652514	78.616	-175.6165
0.657242	78.627	-175.7003
0.662005	78.638	-175.7862
0.666802	78.649	-175.8742
0.671634	78.660	-175.9643
0.676501	78.671	-176.0568
0.681403	78.682	-176.1515
0.686341	78.694	-176.2487
0.691314	78.705	-176.3484
0.696324	78.716	-176.4507
0.701370	78.727	-176.5557
0.706452	78.739	-176.6635
0.711571	78.750	-176.7742
0.716728	78.760	-176.8881
0.721921	78.770	-177.0052
0.727153	78.778	-177.1258
0.732422	78.785	-177.2501
0.737729	78.791	-177.3785
0.743075	78.794	-177.5112
0.748460	78.797	-177.6483
0.753883	78.798	-177.7901
0.759346	78.799	-177.9366
0.764849	78.799	-178.0879
0.770391	78.799	-178.2440
0.775974	78.799	-178.4049
0.781597	78.799	-178.5706
0.787261	78.798	-178.7411
0.792966	78.797	-178.9164
0.798712	78.796	-179.0965
0.804500	78.794	-179.2813
0.810329	78.792	-179.4708
0.816201	78.790	-179.6650
0.822116	78.788	-179.8638
0.828073	78.785	179.9327
0.834074	78.782	179.7247
0.840118	78.778	179.5121
0.846206	78.774	179.2949
0.852338	78.770	179.0733
0.858514	78.765	178.8473
0.864735	78.760	178.6168
0.871001	78.754	178.3820
0.877313	78.747	178.1429
0.883670	78.740	177.8994
0.890074	78.733	177.6518
0.896524	78.724	177.4000
0.903020	78.715	177.1441
0.909564	78.705	176.8841
0.916155	78.695	176.6201
0.922794	78.683	176.3521
0.929481	78.671	176.0801
0.936216	78.658	175.8044
0.943000	78.644	175.5247
0.949834	78.629	175.2414
0.956717	78.613	174.9543
0.963649	78.596	174.6635
0.970632	78.578	174.3692
0.977666	78.559	174.0712
0.984750	78.538	173.7698
0.991886	78.517	173.4649
0.999074	78.494	173.1566
1.006314	78.469	172.8448
1.013606	78.443	172.5298
1.020951	78.416	172.2114
1.028349	78.387	171.8898
1.035801	78.357	171.5648
1.043307	78.325	171.2366
1.050867	78.291	170.9050
1.058482	78.256	170.5699
1.066152	78.219	170.2312
1.073878	78.179	169.8883
1.081660	78.138	169.5406
1.089498	78.095	169.1870
1.097393	78.049	168.8260
1.105345	78.001	168.4559
1.113355	77.951	168.0746
1.121423	77.899	167.6807
1.129549	77.844	167.2727
1.137734	77.787	166.8496
1.145979	77.727	166.4109
1.154283	77.665	165.9559
1.162647	77.601	165.4844
1.171072	77.534	164.9960
1.179558	77.465	164.4905
1.188106	77.394	163.9678
1.196715	77.320	163.4275
1.205387	77.244	162.8696
1.214122	77.165	162.2938
1.222920	77.085	161.7000
1.231782	77.002	161.0879
1.240708	76.917	160.4575
1.249699	76.830	159.8086
1.258754	76.741	159.1411
1.267876	76.650	158.4548
1.277063	76.556	157.7496
1.286318	76.461	157.0255
1.295639	76.364	156.2823
1.305027	76.265	155.5201
1.314484	76.165	154.7387
1.324009	76.062	153.9382
1.333604	75.958	153.1185
1.343268	75.853	152.2798
1.353002	75.746	151.4219
1.362806	75.637	150.5450
1.372681	75.528	149.6490
1.382628	75.417	148.7342
1.392647	75.304	147.8004
1.402739	75.191	146.8475
1.412904	75.076	145.8753
1.423142	74.960	144.8828
1.433455	74.842	143.8688
1.443843	74.723	142.8307
1.454305	74.600	141.7647
1.464844	74.474	140.6649
1.475459	74.342	139.5241
1.486150	74.204	138.3342
1.496920	74.058	137.0869
1.507767	73.904	135.7748
1.518693	73.742	134.3911
1.529698	73.572	132.9289
1.540783	73.394	131.3820
1.551948	73.210	129.7438
1.563194	73.020	128.0080
1.574521	72.826	126.1677
1.585931	72.627	124.2160
1.597423	72.426	122.1459
1.608999	72.223	119.9501
1.620658	72.019	117.6216
1.632402	71.816	115.1537
1.644232	71.616	112.5402
1.656146	71.419	109.7758
1.668147	71.227	106.8564
1.680235	71.042	103.7799
1.692411	70.865	100.5462
1.704675	70.698	97.1579
1.717028	70.543	93.6206
1.729470	70.401	89.9436
1.742003	70.276	86.1396
1.754626	70.168	82.2243
1.767341	70.080	78.2165
1.780147	70.015	74.1366
1.793047	69.974	70.0054
1.806040	69.960	65.8430
1.819128	69.974	61.6674
1.832310	70.019	57.4948
1.845587	70.094	53.3406
1.858961	70.202	49.2221
1.872432	70.340	45.1594
1.886001	70.509	41.1749
1.899667	70.706	37.2914
1.913433	70.931	33.5296
1.927299	71.180	29.9068
1.941265	71.453	26.4359
1.955332	71.746	23.1251
1.969501	72.058	19.9783
1.983773	72.386	16.9957
1.998148	72.727	14.1744
2.012627	73.079	11.5090
2.027212	73.439	8.9924
2.041902	73.804	6.6166
2.056698	74.171	4.3725
2.071602	74.539	2.2510
2.086614	74.903	0.2426
2.101734	75.261	-1.6619
2.116964	75.611	-3.4718
2.132304	75.950	-5.1964
2.147756	76.276	-6.8448
2.163320	76.588	-8.4265
2.178996	76.886	-9.9511
2.194786	77.171	-11.4282
2.210690	77.445	-12.8669
2.226710	77.709	-14.2744
2.242845	77.966	-15.6559
2.259098	78.217	-17.0142
2.275468	78.463	-18.3501
2.291957	78.705	-19.6635
2.308566	78.943	-20.9537
2.325295	79.177	-22.2197
2.342145	79.408	-23.4604
2.359117	79.635	-24.6748
2.376212	79.858	-25.8622
2.393431	80.077	-27.0219
2.410775	80.293	-28.1533
2.428244	80.504	-29.2563
2.445840	80.712	-30.3309
2.463564	80.916	-31.3774
2.481416	81.117	-32.3965
2.499397	81.313	-33.3895
2.517509	81.505	-34.3585
2.535752	81.693	-35.3066
2.554127	81.876	-36.2382
2.572635	82.053	-37.1580
2.591277	82.226	-38.0710
2.610055	82.393	-38.9813
2.628968	82.554	-39.8908
2.648019	82.709	-40.8000
2.667208	82.859	-41.7083
2.686535	83.004	-42.6140
2.706003	83.143	-43.5150
2.725612	83.278	-44.4091
2.745363	83.408	-45.2936
2.765257	83.534	-46.1661
2.785295	83.656	-47.0244
2.805478	83.775	-47.8660
2.825808	83.890	-48.6888
2.846285	84.003	-49.4916
2.866910	84.113	-50.2732
2.887685	84.221	-51.0338
2.908611	84.326	-51.7748
2.929688	84.429	-52.4989
2.950917	84.528	-53.2097
2.972301	84.623	-53.9110
2.993839	84.714	-54.6055
3.015534	84.802	-55.2945
3.037386	84.885	-55.9784
3.059396	84.965	-56.6565
3.081565	85.040	-57.3271
3.103896	85.113	-57.9884
3.126388	85.182	-58.6382
3.149043	85.248	-59.2739
3.171862	85.313	-59.8930
3.194847	85.374	-60.4932
3.217998	85.435	-61.0722
3.241317	85.493	-61.6283
3.264805	85.549	-62.1606
3.288463	85.604	-62.6693
3.312293	85.657	-63.1554
3.336295	85.707	-63.6207
3.360471	85.755	-64.0671
3.384822	85.800	-64.4958
3.409350	85.842	-64.9080
3.434056	85.882	-65.3038
3.458940	85.920	-65.6830
3.484005	85.956	-66.0453
3.509252	85.992	-66.3899
3.534681	86.027	-66.7158
3.560295	86.062	-67.0220
3.586094	86.097	-67.3070
3.612081	86.133	-67.5698
3.638255	86.170	-67.8088
3.664620	86.208	-68.0231
3.691175	86.246	-68.2120
3.717923	86.284	-68.3754
3.744864	86.323	-68.5140
3.772001	86.362	-68.6296
3.799335	86.402	-68.7240
3.826866	86.442	-68.7997
3.854597	86.484	-68.8593
3.882529	86.527	-68.9053
3.910664	86.573	-68.9403
3.939002	86.620	-68.9662
3.967546	86.671	-68.9846
3.996296	86.725	-68.9960
4.025255	86.782	-69.0000
4.054423	86.842	-68.9957
4.083804	86.906	-68.9824
4.113396	86.973	-68.9601
4.143204	87.044	-68.9304
4.173227	87.117	-68.8959
4.203468	87.193	-68.8602
4.233928	87.271	-68.8271
4.264609	87.352	-68.8007
4.295512	87.435	-68.7845
4.326639	87.520	-68.7819
4.357992	87.607	-68.7946
4.389572	87.697	-68.8237
4.421380	87.789	-68.8687
4.453419	87.883	-68.9287
4.485691	87.979	-69.0031
4.518196	88.078	-69.0917
4.550936	88.178	-69.1950
4.583914	88.280	-69.3141
4.617131	88.382	-69.4503
4.650589	88.484	-69.6050
4.684289	88.586	-69.7797
4.718233	88.687	-69.9756
4.752424	88.787	-70.1936
4.786862	88.887	-70.4337
4.821549	88.986	-70.6954
4.856488	89.083	-70.9778
4.891680	89.180	-71.2789
4.927127	89.275	-71.5972
4.962831	89.370	-71.9305
4.998794	89.462	-72.2772
5.035017	89.552	-72.6359
5.071503	89.640	-73.0060
5.108253	89.725	-73.3871
5.145270	89.807	-73.7796
5.182555	89.886	-74.1837
5.220110	89.963	-74.5989
5.257937	90.037	-75.0237
5.296038	90.108	-75.4560
5.334415	90.177	-75.8928
5.373071	90.243	-76.3313
5.412006	90.306	-76.7689
5.451224	90.367	-77.2037
5.490725	90.426	-77.6348
5.530514	90.481	-78.0621
5.570590	90.534	-78.4858
5.610957	90.584	-78.9058
5.651616	90.632	-79.3210
5.692570	90.678	-79.7301
5.733821	90.722	-80.1310
5.775370	90.765	-80.5219
5.817221	90.807	-80.9009
5.859375	90.848	-81.2671
5.901834	90.887	-81.6199
5.944602	90.926	-81.9597
5.987679	90.965	-82.2871
6.031068	91.003	-82.6027
6.074771	91.041	-82.9072
6.118792	91.079	-83.2012
6.163131	91.119	-83.4846
6.207792	91.159	-83.7577
6.252776	91.201	-84.0205
6.298086	91.244	-84.2733
6.343725	91.289	-84.5173
6.389694	91.335	-84.7543
6.435996	91.382	-84.9867
6.482634	91.432	-85.2168
6.529610	91.483	-85.4469
6.576926	91.537	-85.6785
6.624585	91.593	-85.9127
6.672590	91.650	-86.1501
6.720942	91.710	-86.3917
6.769645	91.771	-86.6391
6.818700	91.834	-86.8940
6.868111	91.899	-87.1584
6.917881	91.964	-87.4340
6.968010	92.031	-87.7219
7.018504	92.098	-88.0227
7.069362	92.166	-88.3362
7.120590	92.234	-88.6622
7.172189	92.302	-89.0005
7.224161	92.370	-89.3507
7.276511	92.438	-89.7128
7.329239	92.504	-90.0867
7.382350	92.570	-90.4720
7.435845	92.635	-90.8679
7.489729	92.699	-91.2729
7.544002	92.761	-91.6854
7.598669	92.822	-92.1035
7.653732	92.881	-92.5255
7.709194	92.939	-92.9504
7.765058	92.995	-93.3771
7.821327	93.049	-93.8046
7.878004	93.102	-94.2314
7.935091	93.154	-94.6559
7.992592	93.204	-95.0762
8.050510	93.253	-95.4909
8.108847	93.302	-95.8992
8.167607	93.349	-96.3005
8.226793	93.396	-96.6947
8.286408	93.443	-97.0813
8.346454	93.489	-97.4600
8.406936	93.536	-97.8305
8.467856	93.582	-98.1929
8.529218	93.630	-98.5475
8.591024	93.678	-98.8950
8.653278	93.726	-99.2366
8.715983	93.776	-99.5734
8.779143	93.827	-99.9063
8.842760	93.879	-100.2364
8.906839	93.931	-100.5645
8.971381	93.985	-100.8917
9.036392	94.040	-101.2193
9.101873	94.096	-101.5486
9.167829	94.152	-101.8807
9.234263	94.209	-102.2162
9.301178	94.267	-102.5555
9.368578	94.325	-102.8989
9.436467	94.383	-103.2468
9.504847	94.440	-103.5991
9.573723	94.497	-103.9558
9.643099	94.553	-104.3166
9.712976	94.608	-104.6808
9.783361	94.660	-105.0477
9.854255	94.710	-105.4162
9.925663	94.757	-105.7856
9.997588	94.800	-106.1552
10.070035	94.840	-106.5240
10.143007	94.878	-106.8910
10.216507	94.913	-107.2552
10.290540	94.945	-107.6160
10.365109	94.976	-107.9728
10.440219	95.005	-108.3251
10.515873	95.033	-108.6729
10.592076	95.061	-109.0157
10.668830	95.088	-109.3539
10.746141	95.114	-109.6874
10.824012	95.141	-110.0168
10.902447	95.167	-110.3427
10.981451	95.193	-110.6655
11.061027	95.220	-110.9861
11.141180	95.246	-111.3049
11.221913	95.272	-111.6227
11.303232	95.298	-111.9400
11.385140	95.325	-112.2576
11.467641	95.350	-112.5756
11.550741	95.376	-112.8945
11.634442	95.402	-113.2144
11.718750	95.427	-113.5351
11.803669	95.452	-113.8568
11.889203	95.477	-114.1791
11.975357	95.502	-114.5018
12.062136	95.526	-114.8244
12.149543	95.550	-115.1466
12.237583	95.573	-115.4680
12.326262	95.596	-115.7885
12.415583	95.619	-116.1075
12.505552	95.641	-116.4252
12.596172	95.662	-116.7414
12.687449	95.683	-117.0563
12.779387	95.703	-117.3701
12.871992	95.723	-117.6832
12.965268	95.743	-117.9960
13.059220	95.763	-118.3090
13.153852	95.783	-118.6226
13.249170	95.803	-118.9374
13.345179	95.823	-119.2538
13.441884	95.843	-119.5721
13.539289	95.863	-119.8926
13.637401	95.882	-120.2152
13.736223	95.901	-120.5402
13.835761	95.920	-120.8671
13.936021	95.939	-121.1958
14.037007	95.956	-121.5260
14.138725	95.974	-121.8573
14.241180	95.990	-122.1894
14.344377	96.006	-122.5219
14.448323	96.022	-122.8546
14.553021	96.037	-123.1873
14.658478	96.052	-123.5200
14.764700	96.066	-123.8528
14.871691	96.081	-124.1860
14.979457	96.096	-124.5199
15.088005	96.111	-124.8548
15.197339	96.126	-125.1911
15.307465	96.141	-125.5292
15.418389	96.157	-125.8694
15.530117	96.172	-126.2118
15.642655	96.187	-126.5565
15.756008	96.202	-126.9033
15.870182	96.217	-127.2520
15.985184	96.231	-127.6021
16.101019	96.245	-127.9532
16.217694	96.259	-128.3047
16.335214	96.272	-128.6560
16.453586	96.286	-129.0068
16.572815	96.299	-129.3564
16.692909	96.313	-129.7048
16.813872	96.326	-130.0518
16.935713	96.341	-130.3972
17.058436	96.355	-130.7415
17.182048	96.370	-131.0846
17.306556	96.386	-131.4270
17.431967	96.402	-131.7689
17.558286	96.417	-132.1105
17.685521	96.433	-132.4519
17.813677	96.449	-132.7930
17.942762	96.464	-133.1339
18.072783	96.480	-133.4739
18.203746	96.495	-133.8130
18.335658	96.510	-134.1505
18.468526	96.524	-134.4860
18.602356	96.539	-134.8193
18.737156	96.553	-135.1499
18.872934	96.568	-135.4777
19.009695	96.582	-135.8029
19.147447	96.597	-136.1253
19.286197	96.611	-136.4453
19.425953	96.626	-136.7632
19.566721	96.640	-137.0794
19.708510	96.655	-137.3940
19.851326	96.669	-137.7075
19.995177	96.682	-138.0198
20.140070	96.695	-138.3311
20.286013	96.708	-138.6414
20.433014	96.720	-138.9505
20.581080	96.732	-139.2585
20.730219	96.743	-139.5655
20.880439	96.754	-139.8713
21.031747	96.765	-140.1760
21.184152	96.775	-140.4799
21.337661	96.785	-140.7831
21.492282	96.795	-141.0859
21.648024	96.805	-141.3884
21.804895	96.814	-141.6908
21.962902	96.823	-141.9931
22.122054	96.831	-142.2955
22.282360	96.839	-142.5979
22.443827	96.847	-142.9004
22.606464	96.854	-143.2029
22.770280	96.860	-143.5057
22.935283	96.867	-143.8087
23.101481	96.873	-144.1122
23.268884	96.879	-144.4165
23.437500	96.884	-144.7217
23.607338	96.889	-145.0280
23.778406	96.894	-145.3354
23.950714	96.898	-145.6440
24.124271	96.902	-145.9536
24.299086	96.906	-146.2639
24.475167	96.909	-146.5746
24.652524	96.912	-146.8855
24.831166	96.915	-147.1962
25.011103	96.918	-147.5064
25.192344	96.920	-147.8160
25.374898	96.923	-148.1249
25.558775	96.926	-148.4331
25.743984	96.929	-148.7404
25.930536	96.931	-149.0469
26.118439	96.934	-149.3524
26.307704	96.937	-149.6569
26.498341	96.940	-149.9602
26.690359	96.943	-150.2626
26.883768	96.946	-150.5637
27.078579	96.948	-150.8636
27.274801	96.951	-151.1624
27.472446	96.954	-151.4597
27.671522	96.956	-151.7555
27.872042	96.958	-152.0494
28.074014	96.959	-152.3411
28.277450	96.960	-152.6304
28.482360	96.961	-152.9169
28.688755	96.962	-153.2008
28.896645	96.962	-153.4821
29.106042	96.962	-153.7612
29.316957	96.963	-154.0386
29.529400	96.962	-154.3149
29.743382	96.962	-154.5905
29.958915	96.962	-154.8657
30.176009	96.962	-155.1407
30.394677	96.961	-155.4159
30.614929	96.960	-155.6909
30.836778	96.959	-155.9659
31.060234	96.957	-156.2411
31.285309	96.956	-156.5164
31.512015	96.954	-156.7922
31.740364	96.952	-157.0686
31.970368	96.949	-157.3458
32.202039	96.947	-157.6239
32.435388	96.944	-157.9026
32.670428	96.941	-158.1818
32.907171	96.938	-158.4611
33.145630	96.934	-158.7404
33.385817	96.931	-159.0197
33.627745	96.927	-159.2991
33.871425	96.924	-159.5785
34.116871	96.920	-159.8582
34.364096	96.917	-160.1382
34.613113	96.913	-160.4182
34.863934	96.909	-160.6982
35.116572	96.905	-160.9777
35.371041	96.901	-161.2563
35.627354	96.897	-161.5336
35.885525	96.892	-161.8094
36.145566	96.887	-162.0833
36.407492	96.881	-162.3550
36.671316	96.876	-162.6243
36.937051	96.870	-162.8910
37.204712	96.864	-163.1551
37.474313	96.857	-163.4167
37.745867	96.851	-163.6759
38.019389	96.844	-163.9330
38.294893	96.838	-164.1882
38.572394	96.831	-164.4420
38.851905	96.824	-164.6946
39.133442	96.817	-164.9460
39.417019	96.809	-165.1968
39.702651	96.802	-165.4467
39.990353	96.794	-165.6960
40.280140	96.786	-165.9447
40.572026	96.778	-166.1929
40.866028	96.770	-166.4407
41.162160	96.762	-166.6882
41.460438	96.753	-166.9354
41.760877	96.745	-167.1824
42.063494	96.736	-167.4290
42.368303	96.727	-167.6747
42.675322	96.718	-167.9196
42.984565	96.708	-168.1635
43.296048	96.698	-168.4064
43.609789	96.689	-168.6483
43.925804	96.679	-168.8893
44.244108	96.669	-169.1294
44.564719	96.658	-169.3683
44.887654	96.648	-169.6056
45.212928	96.637	-169.8412
45.540560	96.626	-170.0751
45.870565	96.615	-170.3076
46.202962	96.604	-170.5392
46.537768	96.593	-170.7703
46.875000	96.582	-171.0005
47.214676	96.570	-171.2299
47.556813	96.559	-171.4578
47.901429	96.547	-171.6837
48.248542	96.535	-171.9078
48.598171	96.523	-172.1302
48.950334	96.512	-172.3517
49.305048	96.500	-172.5726
49.662333	96.488	-172.7928
50.022206	96.476	-173.0120
50.384688	96.464	-173.2295
50.749796	96.451	-173.4448
51.117550	96.439	-173.6577
51.487969	96.426	-173.8685
51.861072	96.414	-174.0775
52.236879	96.401	-174.2850
52.615409	96.389	-174.4909
52.996681	96.376	-174.6949
53.380717	96.364	-174.8967
53.767536	96.351	-175.0959
54.157158	96.339	-175.2931
54.549603	96.328	-175.4887
54.944892	96.317	-175.6838
55.343045	96.306	-175.8796
55.744084	96.295	-176.0771
56.148028	96.285	-176.2772
56.554900	96.275	-176.4800
56.964720	96.265	-176.6859
57.377510	96.254	-176.8949
57.793291	96.243	-177.1068
58.212085	96.232	-177.3210
58.633914	96.220	-177.5363
59.058799	96.206	-177.7508
59.486764	96.192	-177.9628
59.917829	96.177	-178.1714
60.352019	96.162	-178.3765
60.789354	96.146	-178.5789
61.229859	96.130	-178.7793
61.673556	96.114	-178.9780
62.120468	96.097	-179.1749
62.570618	96.081	-179.3696
63.024031	96.064	-179.5623
63.480729	96.047	-179.7529
63.940736	96.029	-179.9418
64.404077	96.012	179.8708
64.870776	95.995	179.6854
65.340856	95.978	179.5018
65.814343	95.960	179.3203
66.291261	95.943	179.1406
66.771635	95.926	178.9628
67.255489	95.908	178.7866
67.742850	95.890	178.6122
68.233743	95.872	178.4399
68.728193	95.854	178.2697
69.226226	95.835	178.1013
69.727867	95.817	177.9345
70.233144	95.798	177.7688
70.742083	95.780	177.6035
71.254709	95.761	177.4386
71.771050	95.741	177.2741
72.291132	95.722	177.1108
72.814984	95.702	176.9495
73.342631	95.682	176.7908
73.874102	95.663	176.6351
74.409424	95.643	176.4822
74.948626	95.624	176.3318
75.491734	95.605	176.1840
76.038779	95.586	176.0391
76.589787	95.568	175.8967
77.144788	95.551	175.7561
77.703811	95.534	175.6156
78.266885	95.517	175.4731
78.834039	95.501	175.3268
79.405303	95.486	175.1749
79.980706	95.470	175.0165
80.560280	95.454	174.8510
81.144053	95.438	174.6785
81.732056	95.421	174.4998
82.324320	95.402	174.3165
82.920876	95.383	174.1314
83.521755	95.361	173.9476
84.126988	95.339	173.7683
84.736607	95.315	173.5964
85.350643	95.291	173.4341
85.969129	95.266	173.2823
86.592097	95.241	173.1400
87.219579	95.216	173.0042
87.851608	95.191	172.8724
88.488217	95.165	172.7445
89.129439	95.138	172.6222
89.775308	95.112	172.5072
90.425856	95.085	172.3992
91.081119	95.059	172.2954
91.741131	95.034	172.1921
92.405925	95.009	172.0862
93.075536	94.985	171.9766
93.750000	94.960	171.8641
94.429351	94.936	171.7511
95.113625	94.911	171.6398
95.802858	94.886	171.5323
96.497085	94.861	171.4298
97.196342	94.835	171.3324
97.900667	94.810	171.2397
98.610096	94.785	171.1517
99.324665	94.759	171.0692
100.044413	94.732	170.9933
100.769376	94.706	170.9246
101.499592	94.679	170.8632
102.235100	94.652	170.8092
102.975938	94.625	170.7623
103.722144	94.599	170.7219
104.473757	94.574	170.6865
105.230817	94.550	170.6538
105.993363	94.528	170.6206
106.761435	94.506	170.5851
107.535072	94.485	170.5465
108.314315	94.464	170.5054
109.099206	94.443	170.4626
109.889783	94.421	170.4191
110.686090	94.397	170.3764
111.488167	94.373	170.3367
112.296056	94.346	170.3029
113.109800	94.318	170.2791
113.929440	94.289	170.2701
114.755020	94.259	170.2791
115.586582	94.231	170.3062
116.424170	94.204	170.3497
117.267827	94.182	170.4071
118.117598	94.164	170.4728
118.973527	94.153	170.5352
119.835658	94.148	170.5764
120.704037	94.147	170.5807
121.578708	94.148	170.5428
122.459718	94.147	170.4681
123.347111	94.143	170.3671
124.240935	94.136	170.2504
125.141236	94.124	170.1269
126.048061	94.109	170.0039
126.961458	94.090	169.8861
127.881473	94.070	169.7762
128.808154	94.048	169.6753
129.741551	94.025	169.5828
130.681712	94.002	169.4976
131.628686	93.978	169.4189
132.582521	93.954	169.3461
133.543269	93.930	169.2788
134.510979	93.904	169.2172
135.485701	93.878	169.1620
136.467486	93.851	169.1135
137.456386	93.824	169.0718
138.452451	93.798	169.0363
139.455735	93.771	169.0056
140.466288	93.745	168.9783
141.484165	93.719	168.9528
142.509418	93.693	168.9279
143.542100	93.668	168.9036
144.582265	93.642	168.8810
145.629968	93.616	168.8619
146.685262	93.590	168.8483
147.748204	93.563	168.8411
148.818849	93.536	168.8409
149.897251	93.507	168.8484
150.983469	93.478	168.8644
152.077557	93.448	168.8903
153.179574	93.417	168.9258
154.289576	93.387	168.9690
155.407622	93.359	169.0161
156.533770	93.332	169.0635
157.668078	93.306	169.1083
158.810606	93.282	169.1476
159.961413	93.258	169.1798
161.120559	93.235	169.2046
162.288105	93.211	169.2234
163.464112	93.186	169.2387
164.648640	93.160	169.2534
165.841752	93.133	169.2704
167.043510	93.104	169.2933
168.253976	93.075	169.3253
169.473213	93.045	169.3688
170.701286	93.015	169.4245
171.938258	92.985	169.4907
173.184194	92.957	169.5647
174.439158	92.931	169.6432
175.703216	92.906	169.7239
176.976434	92.883	169.8050
178.258878	92.860	169.8852
179.550615	92.839	169.9631
180.851713	92.818	170.0374
182.162239	92.798	170.1076
183.482262	92.778	170.1736
184.811850	92.757	170.2355
186.151073	92.736	170.2936
187.500000	92.714	170.3487
188.858702	92.692	170.4026
190.227250	92.670	170.4578
191.605715	92.647	170.5172
192.994169	92.624	170.5830
194.392685	92.601	170.6571
195.801334	92.578	170.7407
197.220191	92.555	170.8341
198.649330	92.533	170.9376
200.088825	92.512	171.0502
201.538751	92.492	171.1694
202.999184	92.475	171.2904
204.470200	92.460	171.4072
205.951875	92.446	171.5140
207.444287	92.433	171.6072
208.947514	92.419	171.6866
210.461634	92.404	171.7552
211.986726	92.387	171.8187
213.522869	92.367	171.8838
215.070144	92.345	171.9576
216.628631	92.322	172.0450
218.198411	92.298	172.1482
219.779567	92.274	172.2650
221.372180	92.252	172.3905
222.976334	92.231	172.5188
224.592112	92.211	172.6458
226.219600	92.192	172.7699
227.858880	92.174	172.8915
229.510039	92.155	173.0117
231.173164	92.137	173.1321
232.848340	92.118	173.2538
234.535655	92.099	173.3763
236.235197	92.080	173.4978
237.947054	92.061	173.6158
239.671317	92.042	173.7297
241.408074	92.022	173.8418
243.157416	92.001	173.9553
244.919435	91.980	174.0734
246.694223	91.959	174.1987
248.481871	91.937	174.3339
250.282473	91.916	174.4816
252.096123	91.896	174.6428
253.922915	91.879	174.8158
255.762945	91.863	174.9945
257.616309	91.850	175.1698
259.483103	91.839	175.3326
261.363424	91.828	175.4788
263.257372	91.816	175.6106
265.165043	91.803	175.7351
267.086538	91.788	175.8605
269.021957	91.772	175.9934
270.971401	91.755	176.1375
272.934972	91.739	176.2934
274.912771	91.724	176.4595
276.904902	91.709	176.6334
278.911469	91.697	176.8131
280.932577	91.686	176.9962
282.968330	91.678	177.1790
285.018835	91.671	177.3552
287.084199	91.667	177.5178
289.164530	91.663	177.6608
291.259935	91.659	177.7828
293.370525	91.652	177.8895
295.496408	91.643	177.9907
297.637697	91.630	178.0958
299.794503	91.616	178.2111
301.966937	91.601	178.3386
304.155114	91.585	178.4772
306.359147	91.569	178.6239
308.579152	91.554	178.7751
310.815244	91.538	178.9272
313.067539	91.523	179.0786
315.336156	91.508	179.2306
317.621211	91.492	179.3873
319.922826	91.475	179.5537
322.241118	91.459	179.7322
324.576210	91.443	179.9216
326.928223	91.429	-179.8815
329.297280	91.416	-179.6809
331.683504	91.403	-179.4805
334.087019	91.392	-179.2829
336.507952	91.381	-179.0896
338.946427	91.370	-178.9009
341.402572	91.359	-178.7154
343.876516	91.347	-178.5306
346.368387	91.334	-178.3440
348.878315	91.321	-178.1538
351.406431	91.308	-177.9595
353.952867	91.296	-177.7612
356.517756	91.283	-177.5596
359.101230	91.271	-177.3555
361.703426	91.259	-177.1503
364.324478	91.247	-176.9445
366.964523	91.236	-176.7384
369.623699	91.224	-176.5313
372.302145	91.213	-176.3224
375.000000	91.202	-176.1107
377.717405	91.192	-175.8962
380.454501	91.182	-175.6790
383.211431	91.172	-175.4595
385.988339	91.163	-175.2382
388.785369	91.154	-175.0151
391.602668	91.145	-174.7903
394.440383	91.136	-174.5640
397.298660	91.128	-174.3364
400.177650	91.121	-174.1081
403.077502	91.114	-173.8804
405.998368	91.107	-173.6548
408.940400	91.101	-173.4318
411.903750	91.094	-173.2097
414.888575	91.086	-172.9853
417.895028	91.079	-172.7547
420.923268	91.071	-172.5154
423.973452	91.064	-172.2667
427.045738	91.058	-172.0101
430.140287	91.054	-171.7496
433.257261	91.052	-171.4900
436.396822	91.051	-171.2342
439.559133	91.051	-170.9825
442.744360	91.052	-170.7348
445.952668	91.055	-170.4930
449.184225	91.059	-170.2619
452.439199	91.063	-170.0474
455.717760	91.066	-169.8525
459.020079	91.068	-169.6738
462.346327	91.066	-169.5009
465.696680	91.061	-169.3223
469.071310	91.054	-169.1307
472.470394	91.047	-168.9248
475.894109	91.039	-168.7067
479.342634	91.033	-168.4812
482.816148	91.027	-168.2534
486.314833	91.020	-168.0255
489.838871	91.013	-167.7936
493.388445	91.005	-167.5504
496.963741	90.997	-167.2921
500.564945	90.991	-167.0220
504.192245	90.986	-166.7479
507.845830	90.983	-166.4768
511.525890	90.981	-166.2119
515.232618	90.979	-165.9520
518.966206	90.976	-165.6934
522.726849	90.972	-165.4313
526.514743	90.968	-165.1617
530.330086	90.965	-164.8825
534.173076	90.962	-164.5963
538.043915	90.961	-164.3075
541.942803	90.960	-164.0186
545.869944	90.961	-163.7286
549.825542	90.962	-163.4366
553.809805	90.964	-163.1442
557.822939	90.967	-162.8541
561.865154	90.970	-162.5686
565.936660	90.973	-162.2875
570.037671	90.976	-162.0078
574.168399	90.978	-161.7259
578.329060	90.980	-161.4398
582.519870	90.982	-161.1497
586.741049	90.983	-160.8557
590.992817	90.985	-160.5554
595.275394	90.987	-160.2463
599.589005	90.990	-159.9294
603.933874	90.994	-159.6093
608.310228	90.999	-159.2900
612.718295	91.004	-158.9733
617.158304	91.009	-158.6565
621.630488	91.014	-158.3334
626.135079	91.018	-157.9976
630.672311	91.024	-157.6470
635.242423	91.032	-157.2859
639.845651	91.041	-156.9206
644.482237	91.053	-156.5533
649.152421	91.067	-156.1835
653.856447	91.083	-155.8129
658.594560	91.102	-155.4482
663.367008	91.124	-155.0996
668.174039	91.147	-154.7748
673.015903	91.169	-154.4733
677.892854	91.189	-154.1871
682.805145	91.207	-153.9071
687.753032	91.223	-153.6266
692.736774	91.237	-153.3403
697.756631	91.250	-153.0439
702.812863	91.262	-152.7358
707.905735	91.275	-152.4178
713.035511	91.290	-152.0939
718.202461	91.305	-151.7672
723.406852	91.321	-151.4387
728.648956	91.337	-151.1074
733.929047	91.353	-150.7726
739.247399	91.369	-150.4337
744.604290	91.386	-150.0909
750.000000	91.404	-149.7441
755.434809	91.421	-149.3931
760.909001	91.440	-149.0375
766.422861	91.459	-148.6776
771.976677	91.480	-148.3140
777.570739	91.501	-147.9477
783.205337	91.524	-147.5792
788.880766	91.547	-147.2073
794.597321	91.571	-146.8291
800.355301	91.597	-146.4423
806.155005	91.626	-146.0481
811.996736	91.657	-145.6526
817.880799	91.693	-145.2647
823.807501	91.731	-144.8940
829.777150	91.771	-144.5488
835.790057	91.811	-144.2307
841.846536	91.849	-143.9332
847.946903	91.885	-143.6455
854.091476	91.919	-143.3597
860.280575	91.951	-143.0720
866.514523	91.983	-142.7794
872.793644	92.014	-142.4786
879.118267	92.045	-142.1695
885.488720	92.078	-141.8560
891.905336	92.111	-141.5417
898.368450	92.145	-141.2272
904.878398	92.179	-140.9101
911.435520	92.215	-140.5892
918.040157	92.252	-140.2661
924.692655	92.290	-139.9437
931.393359	92.330	-139.6254
938.142619	92.372	-139.3148
944.940787	92.414	-139.0139
951.788218	92.457	-138.7214
958.685268	92.500	-138.4350
965.632296	92.543	-138.1517
972.629666	92.586	-137.8691
979.677741	92.630	-137.5862
986.776890	92.675	-137.3036
993.927482	92.720	-137.0196
1001.129891	92.766	-136.7300
1008.384491	92.813	-136.4312
1015.691660	92.862	-136.1243
1023.051781	92.914	-135.8146
1030.465236	92.971	-135.5100
1037.932411	93.031	-135.2217
1045.453698	93.093	-134.9614
1053.029486	93.157	-134.7346
1060.660172	93.219	-134.5376
1068.346153	93.280	-134.3623
1076.087829	93.339	-134.2000
1083.885605	93.396	-134.0443
1091.739887	93.452	-133.8934
1099.651084	93.507	-133.7468
1107.619609	93.562	-133.6038
1115.645878	93.617	-133.4633
1123.730308	93.670	-133.3239
1131.873321	93.724	-133.1850
1140.075341	93.777	-133.0463
1148.336797	93.831	-132.9079
1156.658119	93.884	-132.7698
1165.039741	93.939	-132.6318
1173.482099	93.994	-132.4933
1181.985634	94.052	-132.3561
1190.550789	94.112	-132.2278
1199.178011	94.176	-132.1206
1207.867749	94.241	-132.0475
1216.620457	94.305	-132.0146
1225.436590	94.366	-132.0181
1234.316609	94.422	-132.0468
1243.260976	94.471	-132.0859
1252.270157	94.514	-132.1187
1261.344623	94.552	-132.1292
1270.484846	94.587	-132.1060
1279.691303	94.620	-132.0424
1288.964474	94.655	-131.9392
1298.304842	94.694	-131.8051
1307.712894	94.737	-131.6542
1317.189120	94.784	-131.5019
1326.734016	94.835	-131.3597
1336.348077	94.889	-131.2327
1346.031806	94.945	-131.1205
1355.785708	95.002	-131.0191
1365.610290	95.060	-130.9230
1375.506065	95.119	-130.8254
1385.473549	95.180	-130.7193
1395.513261	95.243	-130.6014
1405.625726	95.310	-130.4757
1415.811469	95.381	-130.3524
1426.071023	95.455	-130.2452
1436.404921	95.531	-130.1627
1446.813703	95.607	-130.1052
1457.297912	95.681	-130.0676
1467.858093	95.754	-130.0440
1478.494798	95.824	-130.0304
1489.208581	95.891	-130.0232
1500.000000	95.956	-130.0189
1510.869618	96.016	-130.0139
1521.818002	96.073	-130.0055
1532.845723	96.126	-129.9911
1543.953355	96.175	-129.9695
1555.141477	96.223	-129.9401
1566.410674	96.271	-129.9072
1577.761531	96.321	-129.8810
1589.194642	96.372	-129.8751
1600.710601	96.424	-129.8984
1612.310010	96.476	-129.9523
1623.993473	96.526	-130.0322
1635.761599	96.573	-130.1315
1647.615002	96.619	-130.2449
1659.554299	96.663	-130.3674
1671.580114	96.706	-130.4952
1683.693072	96.748	-130.6272
1695.893807	96.790	-130.7649
1708.182952	96.831	-130.9106
1720.561150	96.870	-131.0646
1733.029045	96.907	-131.2239
1745.587288	96.941	-131.3839
1758.236533	96.973	-131.5380
1770.977440	97.004	-131.6812
1783.810673	97.036	-131.8140
1796.736900	97.070	-131.9447
1809.756796	97.108	-132.0869
1822.871040	97.147	-132.2513
1836.080315	97.187	-132.4424
1849.385310	97.226	-132.6596
1862.786718	97.265	-132.9003
1876.285239	97.303	-133.1602
1889.881575	97.341	-133.4342
1903.576436	97.379	-133.7164
1917.370535	97.420	-134.0015
1931.264593	97.464	-134.2858
1945.259332	97.512	-134.5703
1959.355483	97.566	-134.8632
1973.553781	97.624	-135.1770
1987.854965	97.683	-135.5225
2002.259781	97.743	-135.9036
2016.768981	97.801	-136.3191
2031.383320	97.857	-136.7645
2046.103561	97.908	-137.2344
2060.930471	97.957	-137.7240
2075.864823	98.002	-138.2307
2090.907395	98.043	-138.7532
2106.058972	98.080	-139.2892
2121.320344	98.112	-139.8335
2136.692305	98.139	-140.3779
2152.175658	98.161	-140.9140
2167.771210	98.181	-141.4385
2183.479774	98.199	-141.9564
2199.302169	98.215	-142.4776
2215.239219	98.231	-143.0107
2231.291755	98.244	-143.5597
2247.460615	98.254	-144.1246
2263.746641	98.259	-144.7019
2280.150683	98.261	-145.2846
2296.673595	98.258	-145.8643
2313.316238	98.253	-146.4330
2330.079481	98.245	-146.9882
2346.964198	98.237	-147.5351
2363.971268	98.229	-148.0839
2381.101578	98.220	-148.6432
2398.356022	98.209	-149.2170
2415.735498	98.194	-149.8048
2433.240913	98.175	-150.4030
2450.873180	98.152	-151.0071
2468.633217	98.124	-151.6135
2486.521951	98.092	-152.2178
2504.540314	98.054	-152.8131
2522.689246	98.010	-153.3891
2540.969692	97.962	-153.9358
2559.382606	97.912	-154.4491
2577.928947	97.860	-154.9335
2596.609683	97.809	-155.3973
2615.425787	97.756	-155.8475
2634.378241	97.702	-156.2877
2653.468031	97.645	-156.7163
2672.696154	97.585	-157.1274
2692.063613	97.522	-157.5126
2711.571415	97.458	-157.8654
2731.220579	97.395	-158.1871
2751.012130	97.332	-158.4856
2770.947098	97.270	-158.7704
2791.026522	97.208	-159.0484
2811.251451	97.147	-159.3225
2831.622938	97.084	-159.5930
2852.142045	97.019	-159.8590
2872.809842	96.952	-160.1179
2893.627406	96.881	-160.3633
2914.595823	96.808	-160.5847
2935.716186	96.731	-160.7726
2956.989596	96.654	-160.9241
2978.417161	96.576	-161.0430
3000.000000	96.500	-161.1355
3021.739237	96.424	-161.2064
3043.636005	96.348	-161.2557
3065.691446	96.271	-161.2782
3087.906710	96.194	-161.2659
3110.282955	96.119	-161.2149
3132.821347	96.046	-161.1289
3155.523062	95.977	-161.0168
3178.389283	95.912	-160.8885
3201.421202	95.849	-160.7516
3224.620020	95.790	-160.6116
3247.986946	95.731	-160.4720
3271.523198	95.673	-160.3320
3295.230004	95.615	-160.1844
3319.108599	95.556	-160.0190
3343.160228	95.498	-159.8292
3367.386145	95.441	-159.6151
3391.787613	95.387	-159.3810
3416.365904	95.335	-159.1304
3441.122300	95.286	-158.8622
3466.058091	95.238	-158.5692
3491.174576	95.193	-158.2440
3516.473066	95.152	-157.8853
3541.954880	95.116	-157.4989
3567.621345	95.087	-157.0952
3593.473800	95.064	-156.6848
3619.513592	95.046	-156.2777
3645.742080	95.032	-155.8811
3672.160630	95.021	-155.4954
3698.770620	95.012	-155.1140
3725.573436	95.004	-154.7294
3752.570477	94.998	-154.3391
3779.763150	94.995	-153.9454
3807.152872	94.994	-153.5507
3834.741071	94.994	-153.1525
3862.529185	94.994	-152.7426
3890.518664	94.997	-152.3135
3918.710966	95.003	-151.8641
3947.107561	95.016	-151.4009
3975.709929	95.035	-150.9347
4004.519563	95.062	-150.4789
4033.537962	95.096	-150.0459
4062.766641	95.136	-149.6423
4092.207123	95.181	-149.2673
4121.860942	95.230	-148.9196
4151.729646	95.285	-148.6014
4181.814790	95.344	-148.3191
4212.117944	95.407	-148.0770
4242.640687	95.472	-147.8734
4273.384610	95.539	-147.7032
4304.351317	95.610	-147.5646
4335.542421	95.684	-147.4617
4366.959549	95.762	-147.4045
4398.604338	95.845	-147.4061
4430.478438	95.930	-147.4792
4462.583511	96.016	-147.6299
4494.921231	96.103	-147.8584
4527.493283	96.188	-148.1636
4560.301365	96.271	-148.5471
4593.347189	96.350	-149.0096
4626.632476	96.423	-149.5468
4660.158962	96.490	-150.1487
4693.928395	96.551	-150.8061
4727.942535	96.606	-151.5144
4762.203156	96.655	-152.2749
4796.712043	96.698	-153.0938
4831.470996	96.734	-153.9767
4866.481826	96.761	-154.9235
4901.746360	96.778	-155.9286
4937.266434	96.782	-156.9852
4973.043902	96.772	-158.0856
5009.080628	96.747	-159.2175
5045.378492	96.704	-160.3618
5081.939384	96.644	-161.4957
5118.765212	96.566	-162.5988
5155.857894	96.474	-163.6563
5193.219366	96.367	-164.6613
5230.851574	96.249	-165.6104
5268.756481	96.118	-166.4991
5306.936062	95.976	-167.3228
5345.392309	95.824	-168.0780
5384.127225	95.661	-168.7625
5423.142830	95.487	-169.3694
5462.441159	95.303	-169.8868
5502.024259	95.108	-170.3016
5541.894195	94.907	-170.6039
5582.053045	94.701	-170.7919
5622.502902	94.493	-170.8696
5663.245876	94.285	-170.8429
5704.284090	94.079	-170.7182
5745.619684	93.875	-170.5043
5787.254813	93.674	-170.2091
5829.191647	93.476	-169.8353
5871.432373	93.281	-169.3789
5913.979192	93.089	-168.8331
5956.834323	92.902	-168.1937
6000.000000	92.723	-167.4629
6043.478473	92.552	-166.6471
6087.272010	92.392	-165.7549
6131.382892	92.243	-164.7983
6175.813420	92.106	-163.7906
6220.565910	91.980	-162.7408
6265.642695	91.865	-161.6508
6311.046124	91.760	-160.5172
6356.778566	91.666	-159.3367
6402.842404	91.584	-158.1091
6449.240040	91.514	-156.8372
6495.973891	91.459	-155.5265
6543.046396	91.419	-154.1855
6590.460007	91.395	-152.8235
6638.217197	91.386	-151.4450
6686.320456	91.392	-150.0497
6734.772290	91.415	-148.6354
6783.575226	91.456	-147.2020
6832.731809	91.516	-145.7534
6882.244600	91.596	-144.2977
6932.116181	91.699	-142.8491
6982.349153	91.824	-141.4245
7032.946133	91.974	-140.0389
7083.909760	92.150	-138.7041
7135.242690	92.354	-137.4319
7186.947600	92.589	-136.2393
7239.027185	92.859	-135.1510
7291.484160	93.166	-134.2034
7344.321260	93.513	-133.4457
7397.541239	93.900	-132.9355
7451.146872	94.326	-132.7352
7505.140954	94.788	-132.9117
7559.526299	95.281	-133.5385
7614.305743	95.796	-134.6948
7669.482141	96.322	-136.4616
7725.058371	96.842	-138.9149
7781.037328	97.334	-142.1106
7837.421932	97.771	-146.0674
7894.215122	98.127	-150.7502
7951.419859	98.378	-156.0614
8009.039125	98.502	-161.8378
8067.075924	98.491	-167.8629
8125.533282	98.342	-173.8989
8184.414245	98.066	-179.7272
8243.721885	97.675	174.8239
8303.459292	97.185	169.8759
8363.629581	96.611	165.5139
8424.235888	95.966	161.7983
8485.281374	95.267	158.7651
8546.769221	94.533	156.4202
8608.702634	93.779	154.7400
8671.084842	93.021	153.6791
8733.919097	92.274	153.1799
8797.208675	91.547	153.1823
8860.956876	90.848	153.6276
8925.167022	90.184	154.4575
8989.842461	89.560	155.6116
9054.986566	88.978	157.0308
9120.602731	88.439	158.6635
9186.694378	87.942	160.4705
9253.264952	87.485	162.4255
9320.317925	87.068	164.5097
9387.856790	86.690	166.7034
9455.885071	86.351	168.9845
9524.406312	86.050	171.3324
9593.424086	85.785	173.7330
9662.941992	85.557	176.1819
9732.963653	85.366	178.6780
9803.492719	85.211	-178.7842
9874.532869	85.094	-176.2162
9946.087805	85.015	-173.6315
10018.161257	84.974	-171.0385
10090.756983	84.972	-168.4387
10163.878768	85.010	-165.8345
10237.530423	85.091	-163.2358
10311.715789	85.220	-160.6609
10386.438732	85.398	-158.1310
10461.703149	85.631	-155.6653
10537.512962	85.925	-153.2871
10613.872125	86.286	-151.0345
10690.784618	86.723	-148.9680
10768.254450	87.240	-147.1698
10846.285661	87.843	-145.7401
10924.882318	88.531	-144.7983
11004.048518	89.299	-144.4875
11083.788390	90.133	-144.9697
11164.106090	91.008	-146.4097
11245.005805	91.892	-148.9506
11326.491752	92.743	-152.6921
11408.568180	93.513	-157.6735
11491.239368	94.153	-163.8529
11574.509626	94.615	-171.0839
11658.383294	94.857	-179.0928
11742.864745	94.851	172.5156
11827.958384	94.592	164.2094
11913.668646	94.092	156.4426
12000.000000	93.385	149.5762
12086.956947	92.510	143.8434
12174.544019	91.514	139.3568
12262.765784	90.443	136.1316
12351.626840	89.341	134.1083
12441.131819	88.247	133.1736
12531.285389	87.195	133.1822
12622.092249	86.211	133.9765
12713.557132	85.312	135.3994
12805.684808	84.510	137.3016
12898.480079	83.808	139.5521
12991.947783	83.203	142.0472
13086.092792	82.694	144.7103
13180.920015	82.275	147.4831
13276.434395	81.942	150.3174
13372.640911	81.694	153.1727
13469.544580	81.530	156.0110
13567.150452	81.453	158.7841
13665.463617	81.466	161.4244
13764.489200	81.572	163.8488
13864.232362	81.773	165.9644
13964.698305	82.070	167.6667
14065.892266	82.461	168.8330
14167.819519	82.939	169.3245
14270.485380	83.489	168.9988
14373.895200	84.086	167.7245
14478.054370	84.698	165.3970
14582.968320	85.283	161.9614
14688.642520	85.796	157.4331
14795.082478	86.193	151.9106
14902.293745	86.433	145.5826
15010.281908	86.483	138.7257
15119.052599	86.327	131.6826
15228.611486	85.967	124.8144
15338.964283	85.422	118.4462
15450.116741	84.726	112.8273
15562.074656	83.921	108.1121
15674.843864	83.055	104.3567
15788.430244	82.177	101.5217
15902.839718	81.337	99.4803
16018.078250	80.575	98.0312
16134.151848	79.923	96.9175
16251.066563	79.398	95.8560
16368.828491	78.997	94.5789
16487.443769	78.700	92.8705
16606.918584	78.478	90.5878
16727.259161	78.298	87.6598
16848.471777	78.132	84.0652
16970.562748	77.955	79.7965
17093.538442	77.740	74.8472
17217.405268	77.450	69.2469
17342.169684	77.039	63.1233
17467.838194	76.465	56.7339
17594.417350	75.699	50.4324
17721.913751	74.736	44.5894
17850.334044	73.591	39.5171
17979.684923	72.291	35.4379
18109.973131	70.869	32.4827
18241.205462	69.362	30.7008
18373.388756	67.806	30.0723
18506.529905	66.235	30.5226
18640.635849	64.683	31.9301
18775.713581	63.179	34.1345
18911.770141	61.746	36.9557
19048.812624	60.403	40.2104
19186.848172	59.166	43.7217
19325.883983	58.048	47.3224
19465.927305	57.064	50.8392
19606.985439	56.240	54.0777
19749.065738	55.603	56.8179
19892.175609	55.176	58.8285
20036.322514	54.965	59.8994
