* Measurement data measured by REW V5.30 beta 5
* Source: EXCL: Microphone (Realtek(R) Audio), MICROPHONE (Master Volume), L, volume: 0.250
* Format: 256k Log Swept Sine, 1 sweep at -13.0 dBFS with no timing reference
* Dated: Dec 15, 2023 12:08:25 AM
* REW Settings:
*  C-weighting compensation: Off
*  Target level: 75.0 dB
* Note: 
* Measurement: R Fir Audio Neon 4
* Smoothing: 1/24 octave
* Frequency Step: 96 ppo
* Start Frequency: 0.36621094 Hz
*
* Freq(Hz) SPL(dB) Phase(degrees)
0.366211 64.958 -3.2184
0.368865 64.980 -3.1909
0.371538 65.012 -3.1507
0.374230 65.047 -3.1046
0.376942 65.084 -3.0556
0.379673 65.122 -3.0047
0.382424 65.160 -2.9522
0.385196 65.199 -2.8984
0.387987 65.238 -2.8432
0.390798 65.277 -2.7866
0.393630 65.316 -2.7287
0.396483 65.355 -2.6694
0.399356 65.395 -2.6088
0.402250 65.436 -2.5468
0.405165 65.476 -2.4835
0.408101 65.517 -2.4188
0.411058 65.558 -2.3529
0.414037 65.599 -2.2856
0.417037 65.641 -2.2170
0.420059 65.683 -2.1472
0.423103 65.725 -2.0760
0.426169 65.768 -2.0037
0.429257 65.811 -1.9300
0.432367 65.854 -1.8552
0.435501 65.897 -1.7791
0.438656 65.941 -1.7018
0.441835 65.985 -1.6234
0.445037 66.030 -1.5438
0.448262 66.074 -1.4631
0.451510 66.120 -1.3813
0.454782 66.165 -1.2984
0.458077 66.211 -1.2145
0.461397 66.257 -1.1295
0.464740 66.303 -1.0436
0.468108 66.350 -0.9567
0.471500 66.397 -0.8689
0.474917 66.445 -0.7801
0.478358 66.492 -0.6905
0.481825 66.540 -0.6001
0.485316 66.589 -0.5089
0.488833 66.638 -0.4170
0.492375 66.687 -0.3244
0.495943 66.736 -0.2311
0.499537 66.786 -0.1372
0.503157 66.837 -0.0427
0.506803 66.887 0.0522
0.510475 66.938 0.1477
0.514174 66.990 0.2435
0.517900 67.041 0.3398
0.521653 67.093 0.4363
0.525433 67.146 0.5331
0.529241 67.199 0.6300
0.533076 67.252 0.7271
0.536939 67.306 0.8243
0.540830 67.360 0.9214
0.544749 67.414 1.0185
0.548696 67.469 1.1155
0.552673 67.524 1.2123
0.556677 67.580 1.3088
0.560711 67.636 1.4050
0.564774 67.692 1.5008
0.568867 67.749 1.5962
0.572989 67.806 1.6909
0.577141 67.864 1.7851
0.581324 67.922 1.8785
0.585536 67.980 1.9712
0.589779 68.039 2.0630
0.594053 68.099 2.1538
0.598358 68.159 2.2437
0.602694 68.219 2.3324
0.607061 68.279 2.4200
0.611460 68.340 2.5063
0.615891 68.402 2.5913
0.620354 68.464 2.6748
0.624849 68.526 2.7569
0.629377 68.589 2.8373
0.633938 68.653 2.9161
0.638532 68.716 2.9931
0.643159 68.781 3.0682
0.647819 68.845 3.1415
0.652514 68.911 3.2127
0.657242 68.976 3.2818
0.662005 69.042 3.3488
0.666802 69.109 3.4135
0.671634 69.176 3.4759
0.676501 69.244 3.5358
0.681403 69.312 3.5933
0.686341 69.380 3.6482
0.691314 69.449 3.7005
0.696324 69.519 3.7501
0.701369 69.589 3.7969
0.706452 69.660 3.8408
0.711571 69.731 3.8818
0.716727 69.802 3.9200
0.721921 69.875 3.9552
0.727153 69.949 3.9881
0.732422 70.026 4.0194
0.737729 70.106 4.0509
0.743075 70.190 4.0844
0.748460 70.276 4.1207
0.753883 70.363 4.1598
0.759346 70.452 4.2016
0.764849 70.542 4.2459
0.770391 70.633 4.2924
0.775974 70.726 4.3409
0.781597 70.820 4.3910
0.787261 70.915 4.4424
0.792965 71.012 4.4950
0.798712 71.110 4.5483
0.804499 71.209 4.6021
0.810329 71.309 4.6562
0.816201 71.411 4.7102
0.822116 71.514 4.7639
0.828073 71.618 4.8170
0.834073 71.724 4.8691
0.840118 71.830 4.9202
0.846205 71.938 4.9698
0.852337 72.047 5.0177
0.858514 72.157 5.0636
0.864735 72.268 5.1074
0.871001 72.381 5.1487
0.877313 72.494 5.1872
0.883670 72.609 5.2228
0.890074 72.725 5.2551
0.896523 72.841 5.2840
0.903020 72.959 5.3091
0.909564 73.078 5.3303
0.916155 73.198 5.3474
0.922793 73.318 5.3600
0.929480 73.440 5.3679
0.936216 73.562 5.3711
0.943000 73.685 5.3691
0.949833 73.809 5.3618
0.956716 73.934 5.3491
0.963649 74.059 5.3306
0.970632 74.185 5.3062
0.977666 74.312 5.2758
0.984750 74.439 5.2390
0.991886 74.567 5.1957
0.999074 74.695 5.1457
1.006313 74.824 5.0889
1.013605 74.953 5.0251
1.020950 75.082 4.9540
1.028349 75.211 4.8756
1.035801 75.341 4.7896
1.043306 75.471 4.6959
1.050867 75.601 4.5944
1.058482 75.730 4.4848
1.066152 75.860 4.3671
1.073878 75.989 4.2412
1.081659 76.119 4.1071
1.089498 76.248 3.9653
1.097393 76.377 3.8169
1.105345 76.505 3.6646
1.113355 76.635 3.5111
1.121422 76.765 3.3577
1.129549 76.895 3.2051
1.137734 77.026 3.0531
1.145978 77.157 2.9015
1.154283 77.290 2.7501
1.162647 77.422 2.5986
1.171072 77.556 2.4467
1.179558 77.689 2.2941
1.188106 77.824 2.1405
1.196715 77.959 1.9857
1.205387 78.094 1.8293
1.214122 78.230 1.6711
1.222920 78.366 1.5108
1.231781 78.503 1.3481
1.240708 78.640 1.1828
1.249698 78.778 1.0146
1.258754 78.916 0.8432
1.267875 79.054 0.6684
1.277063 79.193 0.4899
1.286317 79.332 0.3074
1.295638 79.471 0.1207
1.305027 79.611 -0.0705
1.314484 79.751 -0.2664
1.324009 79.891 -0.4674
1.333603 80.032 -0.6736
1.343267 80.172 -0.8853
1.353001 80.313 -1.1029
1.362805 80.454 -1.3264
1.372681 80.595 -1.5563
1.382628 80.736 -1.7927
1.392647 80.877 -2.0359
1.402739 81.018 -2.2862
1.412904 81.158 -2.5439
1.423142 81.299 -2.8091
1.433455 81.440 -3.0821
1.443842 81.581 -3.3630
1.454305 81.721 -3.6515
1.464843 81.861 -3.9465
1.475458 82.001 -4.2460
1.486150 82.141 -4.5477
1.496919 82.281 -4.8507
1.507766 82.420 -5.1546
1.518692 82.560 -5.4594
1.529697 82.699 -5.7653
1.540782 82.838 -6.0725
1.551947 82.976 -6.3813
1.563193 83.115 -6.6917
1.574521 83.253 -7.0042
1.585931 83.391 -7.3188
1.597423 83.529 -7.6359
1.608998 83.667 -7.9558
1.620658 83.804 -8.2786
1.632402 83.942 -8.6047
1.644231 84.079 -8.9343
1.656146 84.215 -9.2676
1.668147 84.352 -9.6051
1.680235 84.489 -9.9470
1.692410 84.625 -10.2935
1.704674 84.761 -10.6450
1.717027 84.897 -11.0017
1.729469 85.033 -11.3641
1.742002 85.168 -11.7324
1.754625 85.303 -12.1070
1.767340 85.439 -12.4882
1.780147 85.573 -12.8762
1.793046 85.708 -13.2716
1.806040 85.843 -13.6745
1.819127 85.977 -14.0851
1.832309 86.112 -14.5032
1.845587 86.245 -14.9280
1.858961 86.379 -15.3586
1.872431 86.511 -15.7943
1.886000 86.643 -16.2347
1.899666 86.774 -16.6792
1.913432 86.905 -17.1276
1.927298 87.035 -17.5796
1.941264 87.165 -18.0348
1.955331 87.293 -18.4932
1.969500 87.422 -18.9544
1.983772 87.549 -19.4182
1.998147 87.676 -19.8846
2.012626 87.803 -20.3535
2.027211 87.929 -20.8246
2.041901 88.054 -21.2980
2.056697 88.179 -21.7737
2.071601 88.303 -22.2517
2.086613 88.427 -22.7319
2.101733 88.551 -23.2144
2.116963 88.674 -23.6994
2.132303 88.796 -24.1869
2.147755 88.919 -24.6772
2.163318 89.041 -25.1704
2.178995 89.162 -25.6670
2.194785 89.283 -26.1676
2.210689 89.403 -26.6732
2.226709 89.523 -27.1847
2.242844 89.642 -27.7023
2.259097 89.760 -28.2254
2.275467 89.876 -28.7536
2.291956 89.992 -29.2863
2.308565 90.107 -29.8228
2.325294 90.221 -30.3626
2.342144 90.334 -30.9051
2.359116 90.447 -31.4498
2.376211 90.558 -31.9962
2.393430 90.669 -32.5438
2.410774 90.779 -33.0923
2.428243 90.888 -33.6412
2.445839 90.996 -34.1901
2.463562 91.104 -34.7389
2.481415 91.211 -35.2871
2.499396 91.318 -35.8345
2.517508 91.424 -36.3811
2.535750 91.529 -36.9269
2.554126 91.634 -37.4727
2.572634 91.738 -38.0202
2.591276 91.842 -38.5715
2.610054 91.944 -39.1280
2.628967 92.044 -39.6896
2.648018 92.144 -40.2560
2.667206 92.243 -40.8263
2.686534 92.340 -41.3997
2.706002 92.437 -41.9755
2.725610 92.532 -42.5527
2.745361 92.626 -43.1307
2.765255 92.720 -43.7085
2.785294 92.813 -44.2856
2.805477 92.904 -44.8610
2.825807 92.995 -45.4341
2.846284 93.086 -46.0042
2.866909 93.175 -46.5706
2.887684 93.264 -47.1329
2.908609 93.353 -47.6912
2.929686 93.441 -48.2465
2.950916 93.528 -48.8011
2.972299 93.613 -49.3575
2.993838 93.698 -49.9164
3.015532 93.781 -50.4779
3.037384 93.863 -51.0413
3.059394 93.944 -51.6059
3.081564 94.024 -52.1709
3.103894 94.103 -52.7354
3.126386 94.181 -53.2986
3.149041 94.258 -53.8596
3.171861 94.335 -54.4176
3.194845 94.411 -54.9715
3.217996 94.486 -55.5207
3.241315 94.561 -56.0642
3.264803 94.635 -56.6016
3.288461 94.709 -57.1331
3.312291 94.782 -57.6601
3.336293 94.855 -58.1846
3.360469 94.926 -58.7078
3.384820 94.996 -59.2300
3.409348 95.066 -59.7512
3.434054 95.134 -60.2709
3.458938 95.202 -60.7885
3.484003 95.269 -61.3037
3.509250 95.335 -61.8159
3.534679 95.401 -62.3244
3.560293 95.467 -62.8287
3.586092 95.532 -63.3281
3.612079 95.597 -63.8221
3.638253 95.662 -64.3102
3.664618 95.727 -64.7926
3.691173 95.792 -65.2698
3.717921 95.856 -65.7429
3.744862 95.920 -66.2123
3.771999 95.983 -66.6784
3.799332 96.045 -67.1413
3.826864 96.107 -67.6011
3.854595 96.169 -68.0578
3.882527 96.231 -68.5115
3.910661 96.292 -68.9622
3.938999 96.354 -69.4098
3.967543 96.416 -69.8543
3.996294 96.477 -70.2955
4.025252 96.540 -70.7333
4.054421 96.602 -71.1673
4.083801 96.664 -71.5976
4.113394 96.726 -72.0242
4.143201 96.789 -72.4477
4.173225 96.851 -72.8684
4.203466 96.913 -73.2869
4.233926 96.975 -73.7037
4.264606 97.037 -74.1192
4.295509 97.099 -74.5340
4.326636 97.162 -74.9485
4.357989 97.225 -75.3630
4.389569 97.287 -75.7776
4.421378 97.350 -76.1920
4.453417 97.414 -76.6057
4.485688 97.477 -77.0186
4.518193 97.541 -77.4307
4.550934 97.604 -77.8426
4.583912 97.668 -78.2544
4.617129 97.731 -78.6667
4.650587 97.795 -79.0798
4.684287 97.858 -79.4942
4.718231 97.922 -79.9102
4.752421 97.985 -80.3283
4.786859 98.048 -80.7486
4.821547 98.111 -81.1710
4.856485 98.174 -81.5953
4.891677 98.236 -82.0213
4.927125 98.299 -82.4488
4.962829 98.361 -82.8776
4.998791 98.423 -83.3074
5.035015 98.484 -83.7382
5.071500 98.545 -84.1699
5.108251 98.606 -84.6027
5.145267 98.666 -85.0372
5.182552 98.725 -85.4740
5.220107 98.784 -85.9132
5.257934 98.842 -86.3546
5.296035 98.900 -86.7972
5.334412 98.957 -87.2406
5.373067 99.013 -87.6837
5.412003 99.069 -88.1259
5.451221 99.124 -88.5668
5.490722 99.179 -89.0064
5.530510 99.233 -89.4453
5.570587 99.286 -89.8846
5.610953 99.338 -90.3241
5.651613 99.389 -90.7635
5.692567 99.440 -91.2019
5.733818 99.490 -91.6385
5.775367 99.540 -92.0723
5.817218 99.589 -92.5027
5.859372 99.637 -92.9295
5.901831 99.685 -93.3530
5.944598 99.732 -93.7739
5.987675 99.779 -94.1925
6.031065 99.825 -94.6087
6.074768 99.871 -95.0221
6.118788 99.916 -95.4324
6.163127 99.961 -95.8391
6.207788 100.006 -96.2418
6.252772 100.051 -96.6405
6.298082 100.095 -97.0354
6.343721 100.140 -97.4266
6.389690 100.184 -97.8146
6.435992 100.228 -98.1998
6.482630 100.271 -98.5824
6.529606 100.315 -98.9628
6.576922 100.359 -99.3410
6.624581 100.403 -99.7168
6.672585 100.448 -100.0900
6.720938 100.492 -100.4608
6.769640 100.536 -100.8297
6.818696 100.581 -101.1973
6.868107 100.625 -101.5642
6.917876 100.670 -101.9311
6.968006 100.714 -102.2980
7.018499 100.759 -102.6649
7.069358 100.804 -103.0315
7.120586 100.849 -103.3981
7.172184 100.894 -103.7648
7.224157 100.938 -104.1320
7.276506 100.983 -104.4999
7.329235 101.027 -104.8690
7.382345 101.072 -105.2393
7.435841 101.116 -105.6108
7.489724 101.159 -105.9832
7.543997 101.203 -106.3562
7.598664 101.246 -106.7297
7.653728 101.289 -107.1033
7.709189 101.331 -107.4772
7.765053 101.373 -107.8517
7.821322 101.415 -108.2268
7.877998 101.456 -108.6021
7.935086 101.496 -108.9768
7.992587 101.536 -109.3506
8.050504 101.576 -109.7230
8.108841 101.615 -110.0941
8.167601 101.653 -110.4642
8.226787 101.692 -110.8331
8.286402 101.729 -111.2006
8.346449 101.767 -111.5662
8.406931 101.804 -111.9295
8.467851 101.840 -112.2905
8.529212 101.877 -112.6493
8.591018 101.913 -113.0060
8.653272 101.949 -113.3608
8.715977 101.984 -113.7137
8.779137 102.020 -114.0647
8.842754 102.055 -114.4137
8.906833 102.091 -114.7608
8.971375 102.126 -115.1063
9.036386 102.161 -115.4503
9.101867 102.196 -115.7934
9.167823 102.231 -116.1356
9.234257 102.265 -116.4770
9.301172 102.300 -116.8176
9.368572 102.335 -117.1576
9.436460 102.369 -117.4971
9.504841 102.404 -117.8363
9.573717 102.438 -118.1755
9.643092 102.471 -118.5146
9.712970 102.505 -118.8534
9.783354 102.538 -119.1919
9.854248 102.572 -119.5300
9.925656 102.604 -119.8676
9.997581 102.637 -120.2049
10.070028 102.669 -120.5416
10.143000 102.700 -120.8775
10.216500 102.732 -121.2122
10.290533 102.763 -121.5458
10.365103 102.793 -121.8780
10.440212 102.824 -122.2091
10.515866 102.854 -122.5387
10.592069 102.884 -122.8666
10.668823 102.913 -123.1929
10.746134 102.942 -123.5175
10.824005 102.972 -123.8405
10.902440 103.000 -124.1620
10.981443 103.029 -124.4821
11.061020 103.058 -124.8007
11.141172 103.086 -125.1180
11.221906 103.115 -125.4342
11.303225 103.143 -125.7493
11.385133 103.171 -126.0637
11.467634 103.199 -126.3773
11.550734 103.226 -126.6903
11.634435 103.254 -127.0026
11.718742 103.281 -127.3145
11.803661 103.309 -127.6259
11.889195 103.336 -127.9368
11.975349 103.362 -128.2473
12.062128 103.389 -128.5572
12.149535 103.415 -128.8665
12.237576 103.441 -129.1752
12.326254 103.467 -129.4832
12.415575 103.493 -129.7903
12.505544 103.518 -130.0966
12.596164 103.543 -130.4020
12.687441 103.568 -130.7064
12.779379 103.592 -131.0099
12.871984 103.617 -131.3125
12.965260 103.641 -131.6142
13.059211 103.665 -131.9150
13.153843 103.688 -132.2150
13.249161 103.712 -132.5142
13.345170 103.735 -132.8127
13.441875 103.759 -133.1106
13.539280 103.781 -133.4077
13.637391 103.804 -133.7043
13.736214 103.827 -134.0001
13.835752 103.849 -134.2952
13.936011 103.871 -134.5894
14.036998 103.892 -134.8826
14.138716 103.914 -135.1749
14.241171 103.935 -135.4659
14.344368 103.956 -135.7557
14.448313 103.977 -136.0440
14.553011 103.997 -136.3310
14.658468 104.018 -136.6165
14.764689 104.038 -136.9006
14.871680 104.058 -137.1833
14.979446 104.078 -137.4648
15.087994 104.098 -137.7452
15.197328 104.118 -138.0247
15.307454 104.138 -138.3034
15.418378 104.157 -138.5816
15.530106 104.177 -138.8595
15.642643 104.197 -139.1370
15.755996 104.216 -139.4144
15.870171 104.235 -139.6918
15.985172 104.254 -139.9689
16.101007 104.273 -140.2459
16.217682 104.292 -140.5225
16.335201 104.310 -140.7987
16.453573 104.328 -141.0742
16.572803 104.346 -141.3488
16.692898 104.364 -141.6223
16.813862 104.381 -141.8946
16.935701 104.398 -142.1654
17.058424 104.415 -142.4348
17.182035 104.431 -142.7026
17.306543 104.448 -142.9688
17.431953 104.464 -143.2334
17.558273 104.480 -143.4966
17.685509 104.496 -143.7583
17.813665 104.512 -144.0187
17.942751 104.528 -144.2778
18.072771 104.544 -144.5359
18.203733 104.560 -144.7929
18.335646 104.576 -145.0491
18.468513 104.592 -145.3045
18.602345 104.607 -145.5592
18.737144 104.623 -145.8134
18.872921 104.638 -146.0672
19.009682 104.654 -146.3206
19.147434 104.669 -146.5738
19.286184 104.684 -146.8266
19.425940 104.699 -147.0792
19.566708 104.713 -147.3315
19.708496 104.728 -147.5834
19.851313 104.742 -147.8346
19.995163 104.756 -148.0851
20.140057 104.769 -148.3345
20.285999 104.783 -148.5827
20.433001 104.796 -148.8295
20.581066 104.809 -149.0746
20.730206 104.821 -149.3182
20.880424 104.834 -149.5601
21.031733 104.846 -149.8005
21.184137 104.859 -150.0394
21.337646 104.871 -150.2772
21.492268 104.883 -150.5140
21.648010 104.896 -150.7499
21.804880 104.908 -150.9852
21.962887 104.920 -151.2199
22.122040 104.932 -151.4542
22.282345 104.944 -151.6878
22.443811 104.956 -151.9209
22.606449 104.967 -152.1534
22.770266 104.979 -152.3851
22.935268 104.990 -152.6161
23.101467 105.001 -152.8465
23.268869 105.013 -153.0764
23.437485 105.024 -153.3059
23.607323 105.035 -153.5351
23.778391 105.046 -153.7643
23.950699 105.057 -153.9933
24.124256 105.067 -154.2223
24.299070 105.078 -154.4510
24.475151 105.088 -154.6795
24.652508 105.098 -154.9073
24.831150 105.108 -155.1343
25.011087 105.118 -155.3604
25.192327 105.128 -155.5854
25.374882 105.137 -155.8093
25.558758 105.146 -156.0321
25.743967 105.156 -156.2541
25.930519 105.165 -156.4754
26.118422 105.174 -156.6963
26.307686 105.183 -156.9168
26.498322 105.192 -157.1371
26.690340 105.201 -157.3572
26.883749 105.210 -157.5769
27.078560 105.219 -157.7960
27.274782 105.227 -158.0142
27.472427 105.235 -158.2314
27.671503 105.243 -158.4472
27.872023 105.251 -158.6616
28.073996 105.259 -158.8745
28.277431 105.266 -159.0861
28.482342 105.274 -159.2966
28.688736 105.282 -159.5063
28.896626 105.290 -159.7157
29.106022 105.298 -159.9250
29.316936 105.306 -160.1343
29.529379 105.313 -160.3439
29.743361 105.321 -160.5533
29.958893 105.328 -160.7625
30.175987 105.335 -160.9708
30.394655 105.343 -161.1781
30.614908 105.349 -161.3840
30.836756 105.356 -161.5889
31.060211 105.364 -161.7929
31.285286 105.371 -161.9967
31.511992 105.378 -162.2010
31.740341 105.385 -162.4064
31.970345 105.393 -162.6133
32.202015 105.400 -162.8214
32.435364 105.407 -163.0306
32.670403 105.413 -163.2401
32.907146 105.419 -163.4492
33.145607 105.425 -163.6573
33.385796 105.430 -163.8642
33.627724 105.436 -164.0699
33.871403 105.441 -164.2750
34.116848 105.446 -164.4799
34.364071 105.452 -164.6853
34.613087 105.457 -164.8914
34.863907 105.462 -165.0981
35.116547 105.466 -165.3051
35.371017 105.470 -165.5116
35.627331 105.474 -165.7169
35.885502 105.478 -165.9204
36.145542 105.481 -166.1220
36.407467 105.484 -166.3217
36.671291 105.487 -166.5198
36.937027 105.491 -166.7171
37.204689 105.494 -166.9141
37.474289 105.498 -167.1114
37.745842 105.501 -167.3093
38.019363 105.504 -167.5078
38.294868 105.507 -167.7067
38.572369 105.510 -167.9056
38.851879 105.513 -168.1040
39.133415 105.515 -168.3015
39.416992 105.517 -168.4978
39.702625 105.519 -168.6929
39.990326 105.521 -168.8868
40.280113 105.523 -169.0798
40.571999 105.525 -169.2719
40.866001 105.527 -169.4632
41.162132 105.529 -169.6537
41.460411 105.531 -169.8432
41.760849 105.533 -170.0321
42.063465 105.535 -170.2207
42.368275 105.537 -170.4097
42.675293 105.539 -170.5998
42.984535 105.541 -170.7909
43.296021 105.543 -170.9824
43.609760 105.544 -171.1731
43.925774 105.545 -171.3617
44.244080 105.545 -171.5471
44.564690 105.546 -171.7295
44.887623 105.546 -171.9097
45.212898 105.548 -172.0892
45.540531 105.549 -172.2694
45.870537 105.551 -172.4514
46.202934 105.552 -172.6355
46.537739 105.554 -172.8217
46.874969 105.555 -173.0101
47.214645 105.556 -173.2006
47.556782 105.557 -173.3924
47.901398 105.557 -173.5844
48.248512 105.557 -173.7746
48.598141 105.556 -173.9617
48.950302 105.556 -174.1456
49.305016 105.555 -174.3281
49.662300 105.556 -174.5117
50.022175 105.556 -174.6987
50.384655 105.556 -174.8890
50.749763 105.555 -175.0804
51.117516 105.553 -175.2693
51.487934 105.551 -175.4532
51.861038 105.549 -175.6312
52.236843 105.547 -175.8049
52.615372 105.545 -175.9763
52.996643 105.543 -176.1471
53.380680 105.542 -176.3177
53.767498 105.541 -176.4877
54.157120 105.540 -176.6569
54.549564 105.539 -176.8260
54.944855 105.538 -176.9959
55.343006 105.537 -177.1677
55.744045 105.537 -177.3416
56.147991 105.537 -177.5184
56.554863 105.537 -177.6991
56.964684 105.537 -177.8858
57.377472 105.537 -178.0793
57.793251 105.536 -178.2786
58.212044 105.534 -178.4799
58.633873 105.531 -178.6787
59.058758 105.527 -178.8717
59.486721 105.524 -179.0588
59.917786 105.521 -179.2418
60.351974 105.519 -179.4239
60.789310 105.518 -179.6072
61.229816 105.516 -179.7925
61.673512 105.515 -179.9783
62.120422 105.512 179.8383
62.570572 105.510 179.6606
63.023983 105.508 179.4897
63.480682 105.507 179.3213
63.940689 105.508 179.1477
64.404030 105.509 178.9622
64.870728 105.510 178.7632
65.340805 105.509 178.5546
65.814293 105.506 178.3416
66.291214 105.502 178.1281
66.771591 105.496 177.9168
67.255447 105.489 177.7115
67.742805 105.481 177.5150
68.233696 105.475 177.3257
68.728142 105.470 177.1362
69.226173 105.466 176.9387
69.727814 105.462 176.7312
70.233093 105.457 176.5181
70.742035 105.452 176.3051
71.254662 105.446 176.0951
71.771004 105.440 175.8880
72.291084 105.433 175.6838
72.814934 105.427 175.4829
73.342583 105.421 175.2851
73.874054 105.415 175.0890
74.409378 105.409 174.8936
74.948578 105.403 174.6989
75.491684 105.397 174.5043
76.038727 105.390 174.3088
76.589737 105.384 174.1118
77.144737 105.378 173.9135
77.703758 105.371 173.7133
78.266830 105.364 173.5093
78.833984 105.358 173.3008
79.405251 105.351 173.0896
79.980652 105.345 172.8745
80.560226 105.340 172.6485
81.143997 105.335 172.4036
81.732002 105.329 172.1393
82.324265 105.321 171.8634
82.920822 105.310 171.5840
83.521698 105.296 171.3051
84.126930 105.281 171.0308
84.736549 105.263 170.7670
85.350586 105.244 170.5175
85.969070 105.225 170.2817
86.592041 105.205 170.0587
87.219521 105.184 169.8486
87.851547 105.165 169.6499
88.488159 105.145 169.4591
89.129379 105.126 169.2724
89.775246 105.108 169.0860
90.425797 105.090 168.8964
91.081062 105.072 168.7024
91.741074 105.054 168.5063
92.405869 105.036 168.3104
93.075478 105.018 168.1147
93.749939 105.000 167.9186
94.429291 104.983 167.7234
95.113564 104.965 167.5298
95.802795 104.948 167.3368
96.497025 104.930 167.1429
97.196281 104.912 166.9492
97.900604 104.894 166.7562
98.610031 104.875 166.5624
99.324600 104.855 166.3671
100.044350 104.835 166.1724
100.769310 104.814 165.9810
101.499527 104.794 165.7943
102.235031 104.774 165.6123
102.975868 104.754 165.4352
103.722076 104.736 165.2625
104.473686 104.718 165.0919
105.230743 104.701 164.9173
105.993286 104.684 164.7335
106.761360 104.664 164.5410
107.534996 104.644 164.3442
108.314240 104.622 164.1441
109.099129 104.601 163.9370
109.889709 104.581 163.7184
110.686012 104.562 163.4853
111.488091 104.543 163.2388
112.295982 104.523 162.9863
113.109726 104.500 162.7383
113.929367 104.473 162.5021
114.754944 104.441 162.2832
115.586502 104.401 162.0890
116.424088 104.352 161.9326
117.267746 104.297 161.8280
118.117516 104.241 161.7891
118.973442 104.192 161.8109
119.835571 104.161 161.8175
120.703949 104.146 161.6955
121.578621 104.131 161.4279
122.459633 104.110 161.1043
123.347023 104.085 160.8005
124.240845 104.062 160.5385
125.141144 104.042 160.3167
126.047966 104.022 160.1268
126.961365 104.002 159.9653
127.881378 103.977 159.8281
128.808060 103.949 159.7018
129.741455 103.915 159.5749
130.681610 103.878 159.4401
131.628586 103.838 159.2808
132.582428 103.796 159.0850
133.543182 103.751 158.8674
134.510895 103.704 158.6599
135.485611 103.660 158.4897
136.467392 103.621 158.3618
137.456284 103.588 158.2691
138.452347 103.561 158.2037
139.455627 103.538 158.1442
140.466187 103.514 158.0795
141.484070 103.486 158.0115
142.509323 103.455 157.9351
143.542007 103.419 157.8496
144.582169 103.381 157.7643
145.629868 103.345 157.6829
146.685165 103.314 157.5910
147.748108 103.285 157.4835
148.818756 103.258 157.3777
149.897156 103.229 157.2875
150.983368 103.199 157.2206
152.077454 103.164 157.1841
153.179474 103.126 157.1919
154.289474 103.089 157.2448
155.407516 103.057 157.3061
156.533661 103.031 157.3372
157.667969 103.008 157.3313
158.810501 102.987 157.3045
159.961304 102.968 157.2747
161.120453 102.952 157.2444
162.287994 102.937 157.2089
163.464005 102.924 157.1638
164.648529 102.910 157.1052
165.841644 102.896 157.0361
167.043396 102.880 156.9588
168.253860 102.863 156.8730
169.473099 102.845 156.7868
170.701172 102.828 156.7039
171.938141 102.813 156.6173
173.184082 102.800 156.5192
174.439041 102.789 156.4068
175.703094 102.779 156.2788
176.976318 102.766 156.1331
178.258759 102.749 155.9698
179.550491 102.728 155.7909
180.851593 102.704 155.5951
182.162125 102.677 155.3804
183.482147 102.647 155.1540
184.811737 102.615 154.9513
186.150955 102.584 154.7899
187.499878 102.557 154.6356
188.858582 102.532 154.4583
190.227127 102.505 154.2507
191.605591 102.472 154.0258
192.994049 102.433 153.8175
194.392563 102.389 153.6667
195.801208 102.347 153.5536
197.220062 102.306 153.4057
198.649200 102.263 153.2005
200.088699 102.213 153.0117
201.538620 102.166 152.9285
202.999054 102.128 152.9061
204.470062 102.093 152.9020
205.951736 102.059 152.9089
207.444153 102.023 152.9035
208.947372 101.989 152.8535
210.461487 101.955 152.7666
211.986572 101.920 152.6833
213.522720 101.881 152.6458
215.069992 101.837 152.6836
216.628479 101.791 152.7716
218.198257 101.748 152.8068
219.779419 101.705 152.7353
221.372025 101.664 152.5980
222.976181 101.626 152.4525
224.591965 101.591 152.3426
226.219452 101.558 152.2775
227.858734 101.525 152.2379
229.509888 101.490 152.2022
231.173004 101.453 152.1608
232.848175 101.417 152.1162
234.535492 101.379 152.0813
236.235031 101.341 152.0686
237.946884 101.303 152.0619
239.671143 101.265 152.0385
241.407898 101.225 151.9976
243.157242 101.184 151.9554
244.919266 101.143 151.9256
246.694046 101.102 151.9136
248.481689 101.058 151.9185
250.282288 101.013 151.9344
252.095932 100.967 151.9609
253.922729 100.922 152.0095
255.762756 100.882 152.0852
257.616119 100.849 152.1682
259.482910 100.822 152.2214
261.363220 100.799 152.2207
263.257172 100.776 152.1705
265.164856 100.749 152.0988
267.086365 100.716 152.0558
269.021790 100.677 152.0823
270.971222 100.636 152.1637
272.934784 100.594 152.2597
274.912567 100.554 152.3405
276.904694 100.516 152.4042
278.911255 100.479 152.4666
280.932373 100.445 152.5397
282.968140 100.413 152.6254
285.018646 100.385 152.7145
287.084015 100.362 152.7911
289.164337 100.342 152.8343
291.259735 100.322 152.8277
293.370331 100.298 152.7800
295.496216 100.268 152.7230
297.637512 100.233 152.6854
299.794312 100.197 152.6780
301.966736 100.159 152.6976
304.154907 100.122 152.7360
306.358948 100.086 152.7847
308.578949 100.052 152.8361
310.815033 100.019 152.8820
313.067322 99.986 152.9137
315.335938 99.952 152.9278
317.621002 99.915 152.9354
319.922607 99.876 152.9575
322.240906 99.837 153.0058
324.575989 99.801 153.0770
326.928009 99.768 153.1615
329.297058 99.736 153.2506
331.683289 99.707 153.3389
334.086792 99.678 153.4232
336.507721 99.651 153.5000
338.946198 99.623 153.5635
341.402344 99.595 153.6133
343.876282 99.565 153.6603
346.368164 99.533 153.7146
348.878082 99.501 153.7770
351.406189 99.470 153.8434
353.952637 99.440 153.9115
356.517517 99.410 153.9827
359.100983 99.381 154.0576
361.703186 99.352 154.1347
364.324249 99.323 154.2117
366.964294 99.293 154.2867
369.623474 99.263 154.3600
372.301910 99.234 154.4331
374.999756 99.205 154.5081
377.717163 99.176 154.5869
380.454254 99.148 154.6702
383.211182 99.120 154.7557
385.988098 99.093 154.8402
388.785126 99.065 154.9244
391.602417 99.036 155.0105
394.440125 99.008 155.0991
397.298401 98.980 155.1898
400.177399 98.953 155.2833
403.077240 98.927 155.3793
405.998108 98.902 155.4720
408.940125 98.877 155.5536
411.903473 98.851 155.6241
414.888306 98.822 155.6918
417.894745 98.793 155.7654
420.922974 98.762 155.8527
423.973145 98.731 155.9600
427.045441 98.702 156.0890
430.139984 98.676 156.2306
433.256958 98.654 156.3637
436.396515 98.633 156.4760
439.558838 98.611 156.5782
442.744049 98.589 156.6868
445.952362 98.569 156.8074
449.183929 98.552 156.9312
452.438904 98.540 157.0327
455.717468 98.528 157.0790
459.019775 98.512 157.0656
462.346008 98.488 157.0356
465.696350 98.455 157.0369
469.070984 98.420 157.0813
472.470062 98.384 157.1591
475.893768 98.349 157.2608
479.342285 98.318 157.3735
482.815796 98.291 157.4696
486.314484 98.263 157.5262
489.838531 98.229 157.5592
493.388092 98.190 157.6226
496.963379 98.150 157.7477
500.564575 98.114 157.9104
504.191864 98.085 158.0717
507.845459 98.059 158.2096
511.525513 98.035 158.3228
515.232239 98.008 158.4232
518.965820 97.979 158.5209
522.726440 97.946 158.6220
526.514343 97.911 158.7411
530.329712 97.875 158.8957
534.172729 97.842 159.0739
538.043579 97.815 159.2403
541.942444 97.787 159.3863
545.869568 97.758 159.5374
549.825134 97.728 159.7120
553.809387 97.700 159.8976
557.822510 97.675 160.0738
561.864746 97.651 160.2297
565.936279 97.626 160.3675
570.037292 97.599 160.5021
574.168030 97.570 160.6528
578.328674 97.541 160.8281
582.519470 97.513 161.0101
586.740662 97.484 161.1759
590.992432 97.453 161.3383
595.275024 97.420 161.5303
599.588623 97.390 161.7543
603.933472 97.363 161.9854
608.309814 97.339 162.2051
612.717896 97.315 162.4042
617.157898 97.290 162.5835
621.630066 97.260 162.7632
626.134644 97.226 162.9795
630.671875 97.194 163.2554
635.242004 97.169 163.5601
639.845215 97.148 163.8401
644.481812 97.127 164.0976
649.151978 97.104 164.3719
653.856018 97.084 164.6838
658.594116 97.070 165.0217
663.366577 97.066 165.3398
668.173584 97.066 165.5850
673.015442 97.062 165.7647
677.892395 97.052 165.9316
682.804688 97.037 166.1158
687.752563 97.020 166.3119
692.736328 97.000 166.5140
697.756165 96.977 166.7389
702.812378 96.953 166.9995
707.905273 96.933 167.2845
713.035034 96.916 167.5723
718.201965 96.900 167.8490
723.406372 96.884 168.1204
728.648499 96.867 168.3982
733.928589 96.850 168.6855
739.246948 96.835 168.9809
744.603821 96.821 169.2845
749.999512 96.808 169.5981
755.434326 96.795 169.9203
760.908508 96.783 170.2488
766.422363 96.772 170.5848
771.976196 96.764 170.9310
777.570251 96.757 171.2845
783.204834 96.752 171.6360
788.880249 96.748 171.9820
794.596802 96.742 172.3389
800.354797 96.738 172.7288
806.154480 96.738 173.1552
811.996216 96.745 173.5956
817.880249 96.761 174.0302
823.806946 96.784 174.4433
829.776611 96.815 174.7957
835.789490 96.844 175.0589
841.845947 96.866 175.2734
847.946289 96.881 175.4988
854.090881 96.893 175.7521
860.279968 96.905 176.0109
866.513916 96.915 176.2659
872.793030 96.921 176.5548
879.117676 96.930 176.8865
885.488098 96.944 177.2222
891.904724 96.960 177.5345
898.367859 96.975 177.8314
904.877808 96.988 178.1414
911.434937 97.003 178.4773
918.039551 97.021 178.8212
924.692017 97.042 179.1704
931.392700 97.066 179.5243
938.141968 97.094 179.8644
944.940125 97.123 -179.8175
951.787537 97.151 -179.5060
958.684570 97.179 -179.1894
965.631592 97.208 -178.8682
972.628967 97.237 -178.5264
979.677063 97.270 -178.1627
986.776184 97.309 -177.8022
993.926758 97.350 -177.4619
1001.129150 97.392 -177.1242
1008.383728 97.438 -176.7629
1015.690918 97.491 -176.3997
1023.051025 97.550 -176.0580
1030.464478 97.615 -175.7290
1037.931641 97.690 -175.4330
1045.452881 97.771 -175.2276
1053.028687 97.850 -175.1247
1060.659424 97.921 -175.0840
1068.345459 97.983 -175.0695
1076.087158 98.039 -175.0486
1083.884888 98.091 -175.0039
1091.739136 98.143 -174.9499
1099.650269 98.194 -174.9025
1107.618774 98.243 -174.8607
1115.645020 98.291 -174.8208
1123.729492 98.338 -174.7806
1131.872559 98.384 -174.7379
1140.074585 98.429 -174.6914
1148.336060 98.475 -174.6413
1156.657349 98.521 -174.5919
1165.038940 98.566 -174.5481
1173.481323 98.610 -174.4954
1181.984863 98.654 -174.4099
1190.550049 98.704 -174.2953
1199.177246 98.764 -174.1852
1207.866943 98.831 -174.1329
1216.619629 98.898 -174.1666
1225.435791 98.959 -174.2501
1234.315796 99.015 -174.3488
1243.260132 99.064 -174.4536
1252.269287 99.110 -174.5410
1261.343750 99.155 -174.6104
1270.484009 99.200 -174.6846
1279.690430 99.243 -174.7623
1288.963623 99.284 -174.8250
1298.303955 99.325 -174.8729
1307.712036 99.368 -174.9131
1317.188232 99.414 -174.9630
1326.733154 99.460 -175.0341
1336.347168 99.505 -175.1205
1346.030884 99.548 -175.2122
1355.784790 99.589 -175.2981
1365.609375 99.629 -175.3867
1375.505127 99.667 -175.4776
1385.472656 99.701 -175.5388
1395.512329 99.737 -175.5544
1405.624756 99.778 -175.5266
1415.810547 99.830 -175.4820
1426.070068 99.892 -175.4873
1436.403931 99.958 -175.5715
1446.812744 100.020 -175.7143
1457.296997 100.078 -175.8787
1467.857178 100.133 -176.0473
1478.493896 100.188 -176.2267
1489.207642 100.241 -176.4187
1499.999023 100.292 -176.6204
1510.868652 100.341 -176.8269
1521.817017 100.388 -177.0354
1532.844727 100.434 -177.2462
1543.952393 100.479 -177.4573
1555.140503 100.522 -177.6487
1566.409668 100.568 -177.8030
1577.760498 100.624 -177.9477
1589.193604 100.687 -178.1469
1600.709595 100.753 -178.4306
1612.308960 100.813 -178.7776
1623.992432 100.867 -179.1617
1635.760498 100.915 -179.5562
1647.613892 100.959 -179.9613
1659.553223 100.998 179.6252
1671.578979 101.033 179.2190
1683.691895 101.066 178.8236
1695.892578 101.098 178.4250
1708.181763 101.129 178.0065
1720.559937 101.156 177.5673
1733.027832 101.179 177.1160
1745.586060 101.195 176.6552
1758.235352 101.204 176.2000
1770.976196 101.205 175.7888
1783.809448 101.205 175.4438
1796.735718 101.211 175.1462
1809.755615 101.223 174.8360
1822.869873 101.235 174.4882
1836.079102 101.244 174.1256
1849.384033 101.250 173.7734
1862.785400 101.254 173.4360
1876.283936 101.258 173.1103
1889.880249 101.263 172.7925
1903.575073 101.268 172.4764
1917.369141 101.272 172.1563
1931.263184 101.275 171.8439
1945.257935 101.278 171.5659
1959.354126 101.288 171.3106
1973.552368 101.305 171.0247
1987.853516 101.324 170.6845
2002.258301 101.341 170.3012
2016.767456 101.355 169.8934
2031.381836 101.367 169.4592
2046.102051 101.376 168.9983
2060.928955 101.381 168.5137
2075.863281 101.382 167.9979
2090.905762 101.376 167.4437
2106.057373 101.358 166.8644
2121.318848 101.327 166.2897
2136.690918 101.280 165.7620
2152.174316 101.221 165.3445
2167.769775 101.161 165.0770
2183.478271 101.113 164.9250
2199.300537 101.081 164.8108
2215.237549 101.063 164.6846
2231.290039 101.056 164.5185
2247.458984 101.057 164.2842
2263.745117 101.061 163.9625
2280.149170 101.061 163.5516
2296.672119 101.052 163.0686
2313.314697 101.029 162.5561
2330.077881 100.997 162.0634
2346.962646 100.961 161.5857
2363.969727 100.921 161.0862
2381.100098 100.872 160.5569
2398.354492 100.811 160.0182
2415.733887 100.737 159.4944
2433.239258 100.650 159.0165
2450.871582 100.554 158.6061
2468.631592 100.451 158.2588
2486.520264 100.343 157.9614
2504.538574 100.227 157.7094
2522.687500 100.101 157.5256
2540.968018 99.967 157.4627
2559.380859 99.834 157.5413
2577.927246 99.708 157.7204
2596.607910 99.589 157.9620
2615.424072 99.476 158.2548
2634.376465 99.368 158.5943
2653.466309 99.263 158.9815
2672.694336 99.159 159.4246
2692.061768 99.057 159.9490
2711.569580 98.963 160.5885
2731.218750 98.883 161.3231
2751.010254 98.822 162.0916
2770.945312 98.776 162.8518
2791.024658 98.741 163.5893
2811.249512 98.714 164.3110
2831.621094 98.694 165.0305
2852.140137 98.681 165.7404
2872.807861 98.674 166.4216
2893.625488 98.669 167.0700
2914.593994 98.661 167.7278
2935.714355 98.654 168.4495
2956.987793 98.656 169.2296
2978.415283 98.669 170.0297
2999.998047 98.694 170.8214
3021.737305 98.727 171.5875
3043.634033 98.764 172.3246
3065.689453 98.803 173.0532
3087.904785 98.843 173.8235
3110.281006 98.893 174.6598
3132.819336 98.958 175.5268
3155.520996 99.039 176.3780
3178.387207 99.134 177.1834
3201.419189 99.240 177.9378
3224.617920 99.356 178.6384
3247.984863 99.480 179.2635
3271.520996 99.607 179.7944
3295.227783 99.727 -179.7363
3319.106445 99.843 -179.2553
3343.157959 99.961 -178.7297
3367.383789 100.086 -178.1673
3391.785156 100.223 -177.5893
3416.363525 100.371 -177.0206
3441.119873 100.530 -176.4737
3466.055664 100.699 -175.9256
3491.172119 100.883 -175.3516
3516.470703 101.091 -174.7827
3541.952393 101.326 -174.2800
3567.618896 101.585 -173.8969
3593.471436 101.865 -173.6631
3619.511230 102.166 -173.6160
3645.739746 102.482 -173.8125
3672.158203 102.800 -174.2832
3698.768066 103.113 -174.9978
3725.570801 103.418 -175.9334
3752.567871 103.713 -177.1020
3779.760498 103.990 -178.5273
3807.150146 104.238 179.7825
3834.738281 104.439 177.8742
3862.526367 104.583 175.8777
3890.515869 104.673 173.9505
3918.708252 104.723 172.2203
3947.104736 104.759 170.7337
3975.707031 104.801 169.4130
4004.516602 104.851 168.1129
4033.534912 104.897 166.7601
4062.763672 104.924 165.4099
4092.204102 104.935 164.1755
4121.857910 104.945 163.1064
4151.726562 104.968 162.1636
4181.811523 105.013 161.2516
4212.114746 105.076 160.2762
4242.637695 105.146 159.2108
4273.381836 105.222 158.0665
4304.348633 105.300 156.8361
4335.539551 105.381 155.4968
4366.956543 105.459 154.0399
4398.601074 105.533 152.4520
4430.475098 105.595 150.7070
4462.580078 105.636 148.8303
4494.917969 105.652 146.8902
4527.490234 105.648 144.9342
4560.298340 105.628 142.9607
4593.344238 105.594 140.9380
4626.629395 105.539 138.8690
4660.155762 105.464 136.7903
4693.925293 105.372 134.7151
4727.939453 105.267 132.6243
4762.200195 105.149 130.4875
4796.708984 105.017 128.2476
4831.467773 104.858 125.8490
4866.478516 104.655 123.3138
4901.743164 104.393 120.7258
4937.263184 104.065 118.1863
4973.040527 103.665 115.7976
5009.077148 103.187 113.7098
5045.375000 102.635 112.1407
5081.936035 102.029 111.3065
5118.761719 101.408 111.3527
5155.854492 100.822 112.3052
5193.215820 100.324 113.9906
5230.848145 99.949 116.0678
5268.752930 99.706 118.1620
5306.932617 99.578 119.9411
5345.388672 99.532 121.1458
5384.123535 99.516 121.6439
5423.139160 99.481 121.4948
5462.437500 99.389 120.8940
5502.020508 99.220 120.0847
5541.890625 98.972 119.3092
5582.049316 98.658 118.7420
5622.499023 98.290 118.4897
5663.242188 97.884 118.6429
5704.280273 97.459 119.2647
5745.615723 97.037 120.3383
5787.250977 96.631 121.7908
5829.187988 96.248 123.5693
5871.428711 95.891 125.6500
5913.975586 95.564 128.0296
5956.830566 95.278 130.6910
5999.996094 95.039 133.5699
6043.474609 94.848 136.6114
6087.268066 94.710 139.7936
6131.378906 94.627 143.0697
6175.809570 94.602 146.3568
6220.562012 94.629 149.5963
6265.638672 94.704 152.7677
6311.041992 94.823 155.8789
6356.774414 94.991 158.9183
6402.838379 95.207 161.8391
6449.235840 95.472 164.6078
6495.969727 95.784 167.1956
6543.041992 96.143 169.5331
6590.455566 96.543 171.5408
6638.212891 96.969 173.1771
6686.315918 97.411 174.4615
6734.767578 97.865 175.4500
6783.570312 98.336 176.1631
6832.727051 98.827 176.5564
6882.239746 99.335 176.5435
6932.111328 99.848 176.0321
6982.344238 100.346 174.9747
7032.941406 100.807 173.3901
7083.904785 101.213 171.3585
7135.237793 101.552 168.9825
7186.942871 101.815 166.3686
7239.022461 102.000 163.6522
7291.479492 102.110 160.9680
7344.316406 102.155 158.4077
7397.536133 102.145 156.0385
7451.141602 102.089 153.9316
7505.135742 101.999 152.1572
7559.520996 101.896 150.7367
7614.300293 101.793 149.6616
7669.476562 101.711 148.9041
7725.052734 101.664 148.3740
7781.031738 101.659 147.9451
7837.416504 101.695 147.5198
7894.209473 101.770 147.0461
7951.414062 101.885 146.4555
8009.033203 102.038 145.6749
8067.069824 102.229 144.6345
8125.527344 102.457 143.2100
8184.408203 102.709 141.2402
8243.715820 102.956 138.6093
8303.453125 103.165 135.2832
8363.623047 103.300 131.2918
8424.229492 103.325 126.7723
8485.275391 103.216 121.9460
8546.763672 102.964 117.0519
8608.697266 102.567 112.3288
8671.079102 102.033 108.0276
8733.913086 101.383 104.3562
8797.202148 100.646 101.4589
8860.950195 99.852 99.4345
8925.160156 99.040 98.2953
8989.835938 98.243 97.9510
9054.980469 97.485 98.2733
9120.596680 96.779 99.1253
9186.688477 96.132 100.3827
9253.258789 95.543 101.9789
9320.311523 95.019 103.8599
9387.850586 94.566 105.9245
9455.878906 94.188 108.0572
9524.400391 93.882 110.1392
9593.417969 93.644 112.0642
9662.935547 93.467 113.7710
9732.957031 93.351 115.1754
9803.486328 93.295 116.1024
9874.526367 93.288 116.3172
9946.081055 93.295 115.5616
10018.154297 93.256 113.6685
10090.750000 93.097 110.6615
10163.872070 92.736 106.7833
10237.523438 92.095 102.5608
10311.708984 91.125 98.8328
10386.431641 89.818 96.7099
10461.696289 88.240 97.5006
10537.505859 86.555 102.3901
10613.865234 85.043 111.5711
10690.777344 84.000 123.1794
10768.247070 83.522 134.1107
10846.278320 83.438 142.6434
10924.875000 83.510 148.9382
11004.041016 83.588 153.8424
11083.781250 83.623 158.1213
11164.098633 83.620 162.1732
11244.998047 83.595 166.1181
11326.484375 83.551 170.0092
11408.560547 83.494 173.9266
11491.231445 83.434 177.9362
11574.501953 83.379 -177.9781
11658.375977 83.333 -173.8290
11742.857422 83.296 -169.5841
11827.951172 83.274 -165.1913
11913.661133 83.278 -160.6499
11999.992188 83.315 -156.0161
12086.949219 83.384 -151.3134
12174.536133 83.488 -146.5227
12262.757812 83.635 -141.6141
12351.619141 83.839 -136.6369
12441.124023 84.108 -131.6973
12531.277344 84.443 -126.8866
12622.083984 84.844 -122.2683
12713.548828 85.314 -117.9503
12805.676758 85.847 -114.1240
12898.471680 86.417 -110.9641
12991.939453 86.992 -108.5420
13086.083984 87.541 -106.8211
13180.911133 88.036 -105.7234
13276.425781 88.450 -105.1054
13372.631836 88.764 -104.7214
13469.535156 88.980 -104.2485
13567.140625 89.121 -103.4215
13665.454102 89.220 -102.1095
13764.479492 89.309 -100.2861
13864.222656 89.412 -97.9526
13964.688477 89.556 -95.1648
14065.882812 89.759 -92.0428
14167.809570 90.028 -88.6856
14270.475586 90.378 -85.0912
14373.885742 90.834 -81.2909
14478.044922 91.424 -77.4829
14582.958984 92.156 -73.9566
14688.632812 93.029 -70.9440
14795.072266 94.037 -68.6581
14902.283203 95.169 -67.3227
15010.271484 96.414 -67.0565
15119.041992 97.786 -67.7814
15228.600586 99.337 -69.3777
15338.953125 101.076 -72.2148
15450.105469 102.833 -77.6348
15562.063477 104.283 -86.8181
15674.833008 105.191 -99.2171
15788.418945 105.518 -113.4023
15902.828125 105.322 -128.0135
16018.066406 104.689 -142.0894
16134.139648 103.696 -155.0875
16251.054688 102.403 -166.7119
16368.816406 100.854 -176.7253
16487.431641 99.091 175.1077
16606.906250 97.166 168.9391
16727.246094 95.140 164.7986
16848.458984 93.070 162.6275
16970.550781 91.012 162.2651
17093.527344 89.015 163.4459
17217.394531 87.106 165.9034
17342.158203 85.303 169.4251
17467.826172 83.611 173.7982
17594.404297 82.029 178.8442
17721.900391 80.552 -175.5337
17850.320312 79.176 -169.4346
17979.671875 77.894 -162.9738
18109.960938 76.699 -156.1993
18241.193359 75.587 -149.1462
18373.376953 74.552 -141.8817
18506.517578 73.587 -134.4152
18640.623047 72.690 -126.7341
18775.701172 71.859 -118.8793
18911.757812 71.089 -110.8586
19048.800781 70.378 -102.6519
19186.835938 69.727 -94.2709
19325.871094 69.136 -85.7143
19465.914062 68.607 -76.9907
19606.972656 68.147 -68.1742
19749.052734 67.768 -59.5193
19892.162109 67.497 -51.7981
20036.308594 67.359 -46.7542
