* Measurement data measured by REW V5.31
* Source: EXCL: Microphone (USB Sound Device        ), MICROPHONE (Master Volume), L, volume: 0.390
* Format: 256k Log Swept Sine, 1 sweep at -5.0 dBFS with no timing reference
* Dated: Sep 4, 2024 12:51:11 AM
* REW Settings:
*  C-weighting compensation: Off
*  Target level: 75.0 dB
* Note: HZSOUND Luna L
* Measurement: L HZSOUND Luna
* Smoothing: 1/12 octave
* Frequency Step: 96 ppo
* Start Frequency: 0.36621094 Hz
*
* Freq(Hz)	SPL(dB)	Phase(degrees)
0.366211	83.610	158.5953
0.368865	83.604	158.5723
0.371538	83.595	158.5379
0.374230	83.584	158.4947
0.376942	83.572	158.4449
0.379673	83.559	158.3901
0.382424	83.545	158.3315
0.385196	83.530	158.2697
0.387987	83.516	158.2052
0.390798	83.501	158.1380
0.393630	83.487	158.0683
0.396483	83.472	157.9961
0.399356	83.457	157.9214
0.402250	83.441	157.8443
0.405165	83.426	157.7647
0.408101	83.411	157.6825
0.411058	83.395	157.5978
0.414037	83.380	157.5106
0.417037	83.364	157.4208
0.420059	83.348	157.3283
0.423103	83.332	157.2332
0.426169	83.316	157.1355
0.429257	83.300	157.0351
0.432368	83.283	156.9319
0.435501	83.267	156.8260
0.438656	83.250	156.7174
0.441835	83.234	156.6060
0.445037	83.217	156.4917
0.448262	83.200	156.3747
0.451510	83.183	156.2548
0.454782	83.166	156.1320
0.458077	83.149	156.0064
0.461397	83.131	155.8778
0.464740	83.114	155.7463
0.468108	83.096	155.6118
0.471500	83.078	155.4744
0.474917	83.060	155.3340
0.478358	83.042	155.1906
0.481825	83.024	155.0442
0.485316	83.006	154.8947
0.488833	82.987	154.7422
0.492375	82.969	154.5867
0.495943	82.950	154.4281
0.499537	82.931	154.2664
0.503157	82.912	154.1016
0.506803	82.893	153.9338
0.510475	82.874	153.7628
0.514175	82.854	153.5888
0.517900	82.835	153.4116
0.521653	82.815	153.2313
0.525434	82.795	153.0480
0.529241	82.775	152.8615
0.533076	82.755	152.6720
0.536939	82.735	152.4793
0.540830	82.715	152.2836
0.544749	82.694	152.0848
0.548696	82.673	151.8830
0.552673	82.652	151.6782
0.556677	82.631	151.4703
0.560711	82.610	151.2595
0.564774	82.589	151.0457
0.568867	82.567	150.8290
0.572989	82.546	150.6094
0.577141	82.524	150.3869
0.581324	82.502	150.1616
0.585536	82.480	149.9335
0.589779	82.458	149.7027
0.594053	82.435	149.4692
0.598358	82.413	149.2331
0.602694	82.390	148.9945
0.607061	82.367	148.7534
0.611460	82.344	148.5098
0.615891	82.321	148.2639
0.620354	82.297	148.0157
0.624849	82.274	147.7654
0.629377	82.250	147.5130
0.633938	82.226	147.2586
0.638532	82.202	147.0023
0.643159	82.178	146.7442
0.647819	82.153	146.4846
0.652514	82.129	146.2233
0.657242	82.104	145.9607
0.662005	82.079	145.6969
0.666802	82.054	145.4320
0.671634	82.029	145.1661
0.676501	82.003	144.8994
0.681403	81.977	144.6322
0.686341	81.951	144.3645
0.691314	81.925	144.0966
0.696324	81.899	143.8286
0.701370	81.872	143.5607
0.706452	81.845	143.2930
0.711571	81.817	143.0257
0.716728	81.789	142.7585
0.721921	81.759	142.4913
0.727153	81.728	142.2237
0.732422	81.695	141.9548
0.737729	81.660	141.6836
0.743075	81.622	141.4092
0.748460	81.583	141.1305
0.753883	81.543	140.8470
0.759346	81.501	140.5579
0.764849	81.458	140.2631
0.770391	81.415	139.9623
0.775974	81.371	139.6553
0.781597	81.326	139.3419
0.787261	81.281	139.0220
0.792966	81.235	138.6957
0.798712	81.189	138.3626
0.804500	81.142	138.0229
0.810329	81.094	137.6764
0.816201	81.045	137.3230
0.822116	80.996	136.9627
0.828073	80.946	136.5954
0.834074	80.895	136.2211
0.840118	80.844	135.8397
0.846206	80.791	135.4511
0.852338	80.738	135.0553
0.858514	80.684	134.6523
0.864735	80.629	134.2421
0.871001	80.573	133.8246
0.877313	80.516	133.3997
0.883670	80.458	132.9677
0.890074	80.399	132.5283
0.896524	80.339	132.0816
0.903020	80.278	131.6278
0.909564	80.216	131.1667
0.916155	80.153	130.6986
0.922794	80.088	130.2234
0.929481	80.022	129.7412
0.936216	79.955	129.2522
0.943000	79.887	128.7565
0.949834	79.817	128.2542
0.956717	79.746	127.7456
0.963649	79.673	127.2308
0.970632	79.599	126.7100
0.977666	79.523	126.1835
0.984750	79.446	125.6515
0.991886	79.367	125.1145
0.999074	79.286	124.5727
1.006314	79.203	124.0265
1.013606	79.119	123.4763
1.020951	79.033	122.9227
1.028349	78.945	122.3660
1.035801	78.855	121.8068
1.043307	78.763	121.2457
1.050867	78.668	120.6833
1.058482	78.572	120.1201
1.066152	78.473	119.5567
1.073878	78.372	118.9936
1.081660	78.268	118.4311
1.089498	78.162	117.8692
1.097393	78.052	117.3074
1.105345	77.939	116.7451
1.113355	77.822	116.1812
1.121423	77.701	115.6146
1.129549	77.576	115.0442
1.137734	77.447	114.4690
1.145979	77.313	113.8882
1.154283	77.176	113.3009
1.162647	77.034	112.7064
1.171072	76.889	112.1038
1.179558	76.740	111.4923
1.188106	76.587	110.8711
1.196715	76.430	110.2392
1.205387	76.270	109.5957
1.214122	76.107	108.9396
1.222920	75.941	108.2699
1.231782	75.772	107.5853
1.240708	75.601	106.8848
1.249699	75.427	106.1671
1.258754	75.251	105.4307
1.267876	75.073	104.6744
1.277063	74.893	103.8965
1.286318	74.712	103.0955
1.295639	74.529	102.2698
1.305027	74.346	101.4175
1.314484	74.162	100.5368
1.324009	73.978	99.6258
1.333604	73.794	98.6824
1.343268	73.611	97.7046
1.353002	73.428	96.6901
1.362806	73.246	95.6368
1.372681	73.066	94.5423
1.382628	72.888	93.4045
1.392647	72.712	92.2210
1.402739	72.538	90.9897
1.412904	72.368	89.7084
1.423142	72.201	88.3751
1.433455	72.037	86.9878
1.443843	71.877	85.5445
1.454305	71.720	84.0428
1.464844	71.565	82.4799
1.475459	71.413	80.8522
1.486150	71.261	79.1551
1.496920	71.108	77.3831
1.507767	70.956	75.5301
1.518693	70.803	73.5895
1.529698	70.648	71.5544
1.540783	70.494	69.4176
1.551948	70.339	67.1721
1.563194	70.185	64.8107
1.574521	70.031	62.3267
1.585931	69.878	59.7140
1.597423	69.728	56.9676
1.608999	69.579	54.0839
1.620658	69.434	51.0610
1.632402	69.292	47.8999
1.644232	69.154	44.6044
1.656146	69.022	41.1821
1.668147	68.895	37.6444
1.680235	68.774	34.0071
1.692411	68.661	30.2900
1.704675	68.556	26.5166
1.717028	68.460	22.7134
1.729470	68.373	18.9086
1.742003	68.298	15.1309
1.754626	68.234	11.4079
1.767341	68.184	7.7640
1.780147	68.147	4.2191
1.793047	68.126	0.7862
1.806040	68.122	-2.5301
1.819128	68.136	-5.7347
1.832310	68.169	-8.8396
1.845587	68.223	-11.8590
1.858961	68.299	-14.8007
1.872432	68.397	-17.6633
1.886001	68.516	-20.4387
1.899667	68.657	-23.1161
1.913433	68.817	-25.6857
1.927299	68.996	-28.1394
1.941265	69.191	-30.4724
1.955332	69.401	-32.6826
1.969501	69.625	-34.7704
1.983773	69.860	-36.7381
1.998148	70.105	-38.5897
2.012627	70.358	-40.3302
2.027212	70.616	-41.9650
2.041902	70.877	-43.5005
2.056698	71.139	-44.9429
2.071602	71.400	-46.2987
2.086614	71.658	-47.5743
2.101734	71.911	-48.7760
2.116964	72.155	-49.9102
2.132304	72.390	-50.9831
2.147756	72.614	-52.0010
2.163320	72.825	-52.9705
2.178996	73.024	-53.8981
2.194786	73.209	-54.7903
2.210690	73.383	-55.6526
2.226710	73.547	-56.4889
2.242845	73.703	-57.3018
2.259098	73.850	-58.0926
2.275468	73.992	-58.8620
2.291957	74.127	-59.6103
2.308566	74.258	-60.3373
2.325295	74.383	-61.0429
2.342145	74.505	-61.7265
2.359117	74.622	-62.3875
2.376212	74.735	-63.0250
2.393431	74.845	-63.6380
2.410775	74.952	-64.2253
2.428244	75.057	-64.7857
2.445840	75.159	-65.3178
2.463564	75.260	-65.8201
2.481416	75.359	-66.2911
2.499397	75.457	-66.7296
2.517509	75.554	-67.1346
2.535752	75.650	-67.5055
2.554127	75.744	-67.8426
2.572635	75.837	-68.1468
2.591277	75.927	-68.4198
2.610055	76.014	-68.6634
2.628968	76.098	-68.8797
2.648019	76.179	-69.0704
2.667208	76.257	-69.2371
2.686535	76.332	-69.3812
2.706003	76.405	-69.5039
2.725612	76.476	-69.6064
2.745363	76.546	-69.6897
2.765257	76.614	-69.7548
2.785295	76.682	-69.8027
2.805478	76.751	-69.8340
2.825808	76.820	-69.8497
2.846285	76.891	-69.8501
2.866910	76.963	-69.8357
2.887685	77.037	-69.8062
2.908611	77.113	-69.7613
2.929688	77.192	-69.6997
2.950917	77.272	-69.6204
2.972301	77.354	-69.5224
2.993839	77.438	-69.4056
3.015534	77.522	-69.2708
3.037386	77.608	-69.1197
3.059396	77.695	-68.9544
3.081565	77.783	-68.7775
3.103896	77.872	-68.5919
3.126388	77.962	-68.4004
3.149043	78.054	-68.2059
3.171862	78.148	-68.0114
3.194847	78.243	-67.8194
3.217998	78.340	-67.6321
3.241317	78.440	-67.4509
3.264805	78.542	-67.2764
3.288463	78.646	-67.1082
3.312293	78.753	-66.9450
3.336295	78.862	-66.7852
3.360471	78.974	-66.6278
3.384822	79.089	-66.4730
3.409350	79.205	-66.3217
3.434056	79.324	-66.1757
3.458940	79.444	-66.0373
3.484005	79.566	-65.9090
3.509252	79.688	-65.7935
3.534681	79.811	-65.6932
3.560295	79.934	-65.6104
3.586094	80.057	-65.5472
3.612081	80.180	-65.5051
3.638255	80.302	-65.4849
3.664620	80.424	-65.4865
3.691175	80.545	-65.5091
3.717923	80.667	-65.5514
3.744864	80.788	-65.6122
3.772001	80.909	-65.6900
3.799335	81.029	-65.7838
3.826866	81.149	-65.8925
3.854597	81.269	-66.0154
3.882529	81.387	-66.1517
3.910664	81.503	-66.3010
3.939002	81.618	-66.4630
3.967546	81.730	-66.6375
3.996296	81.841	-66.8249
4.025255	81.949	-67.0254
4.054423	82.054	-67.2394
4.083804	82.158	-67.4672
4.113396	82.258	-67.7082
4.143204	82.357	-67.9614
4.173227	82.453	-68.2252
4.203468	82.547	-68.4978
4.233928	82.638	-68.7773
4.264609	82.727	-69.0618
4.295512	82.814	-69.3497
4.326639	82.898	-69.6398
4.357992	82.980	-69.9315
4.389572	83.059	-70.2250
4.421380	83.135	-70.5207
4.453419	83.208	-70.8194
4.485691	83.279	-71.1212
4.518196	83.347	-71.4254
4.550936	83.412	-71.7308
4.583914	83.475	-72.0358
4.617131	83.536	-72.3383
4.650589	83.595	-72.6363
4.684289	83.652	-72.9282
4.718233	83.707	-73.2124
4.752424	83.761	-73.4885
4.786862	83.813	-73.7563
4.821549	83.863	-74.0163
4.856488	83.911	-74.2689
4.891680	83.958	-74.5144
4.927127	84.004	-74.7530
4.962831	84.048	-74.9844
4.998794	84.092	-75.2082
5.035017	84.135	-75.4239
5.071503	84.178	-75.6308
5.108253	84.221	-75.8286
5.145270	84.264	-76.0167
5.182555	84.308	-76.1953
5.220110	84.351	-76.3648
5.257937	84.395	-76.5263
5.296038	84.439	-76.6811
5.334415	84.483	-76.8306
5.373071	84.528	-76.9764
5.412006	84.575	-77.1198
5.451224	84.622	-77.2617
5.490725	84.671	-77.4024
5.530514	84.721	-77.5423
5.570590	84.773	-77.6815
5.610957	84.826	-77.8207
5.651616	84.880	-77.9613
5.692570	84.935	-78.1050
5.733821	84.992	-78.2537
5.775370	85.050	-78.4093
5.817221	85.108	-78.5733
5.859375	85.168	-78.7465
5.901834	85.229	-78.9294
5.944602	85.291	-79.1220
5.987679	85.354	-79.3246
6.031068	85.417	-79.5375
6.074771	85.481	-79.7612
6.118792	85.545	-79.9966
6.163131	85.609	-80.2444
6.207792	85.673	-80.5051
6.252776	85.737	-80.7791
6.298086	85.800	-81.0662
6.343725	85.863	-81.3659
6.389694	85.925	-81.6774
6.435996	85.987	-81.9997
6.482634	86.048	-82.3318
6.529610	86.108	-82.6729
6.576926	86.166	-83.0225
6.624585	86.224	-83.3803
6.672590	86.280	-83.7459
6.720942	86.335	-84.1185
6.769645	86.389	-84.4970
6.818700	86.442	-84.8799
6.868111	86.493	-85.2658
6.917881	86.544	-85.6533
6.968010	86.593	-86.0417
7.018504	86.641	-86.4304
7.069362	86.688	-86.8190
7.120590	86.734	-87.2070
7.172189	86.780	-87.5936
7.224161	86.825	-87.9779
7.276511	86.870	-88.3589
7.329239	86.915	-88.7361
7.382350	86.959	-89.1092
7.435845	87.004	-89.4782
7.489729	87.048	-89.8434
7.544002	87.093	-90.2050
7.598669	87.139	-90.5634
7.653732	87.185	-90.9187
7.709194	87.232	-91.2713
7.765058	87.280	-91.6213
7.821327	87.329	-91.9694
7.878004	87.379	-92.3162
7.935091	87.430	-92.6628
7.992592	87.482	-93.0100
8.050510	87.536	-93.3587
8.108847	87.590	-93.7093
8.167607	87.645	-94.0624
8.226793	87.702	-94.4183
8.286408	87.759	-94.7777
8.346454	87.817	-95.1412
8.406936	87.876	-95.5092
8.467856	87.935	-95.8821
8.529218	87.995	-96.2598
8.591024	88.056	-96.6422
8.653278	88.116	-97.0291
8.715983	88.177	-97.4200
8.779143	88.237	-97.8148
8.842760	88.297	-98.2131
8.906839	88.358	-98.6143
8.971381	88.417	-99.0179
9.036392	88.477	-99.4228
9.101873	88.536	-99.8283
9.167829	88.595	-100.2337
9.234263	88.653	-100.6383
9.301178	88.711	-101.0415
9.368578	88.769	-101.4426
9.436467	88.826	-101.8408
9.504847	88.883	-102.2356
9.573723	88.939	-102.6265
9.643099	88.994	-103.0132
9.712976	89.049	-103.3955
9.783361	89.102	-103.7733
9.854255	89.153	-104.1464
9.925663	89.202	-104.5149
9.997588	89.249	-104.8790
10.070035	89.293	-105.2388
10.143007	89.337	-105.5948
10.216507	89.378	-105.9473
10.290540	89.419	-106.2966
10.365109	89.459	-106.6433
10.440219	89.498	-106.9875
10.515873	89.536	-107.3298
10.592076	89.575	-107.6706
10.668830	89.613	-108.0101
10.746141	89.651	-108.3486
10.824012	89.689	-108.6863
10.902447	89.726	-109.0233
10.981451	89.764	-109.3597
11.061027	89.801	-109.6956
11.141180	89.837	-110.0308
11.221913	89.874	-110.3654
11.303232	89.909	-110.6992
11.385140	89.944	-111.0321
11.467641	89.979	-111.3639
11.550741	90.013	-111.6946
11.634442	90.047	-112.0240
11.718750	90.080	-112.3521
11.803669	90.114	-112.6788
11.889203	90.147	-113.0040
11.975357	90.179	-113.3278
12.062136	90.212	-113.6503
12.149543	90.244	-113.9715
12.237583	90.277	-114.2916
12.326262	90.308	-114.6106
12.415583	90.339	-114.9286
12.505552	90.370	-115.2460
12.596172	90.400	-115.5627
12.687449	90.430	-115.8788
12.779387	90.459	-116.1947
12.871992	90.487	-116.5102
12.965268	90.515	-116.8257
13.059220	90.542	-117.1411
13.153852	90.569	-117.4566
13.249170	90.596	-117.7723
13.345179	90.622	-118.0884
13.441884	90.649	-118.4050
13.539289	90.675	-118.7223
13.637401	90.701	-119.0405
13.736223	90.727	-119.3599
13.835761	90.753	-119.6808
13.936021	90.778	-120.0034
14.037007	90.803	-120.3280
14.138725	90.828	-120.6548
14.241180	90.853	-120.9842
14.344377	90.877	-121.3162
14.448323	90.900	-121.6512
14.553021	90.924	-121.9890
14.658478	90.947	-122.3298
14.764700	90.969	-122.6735
14.871691	90.992	-123.0200
14.979457	91.014	-123.3692
15.088005	91.036	-123.7207
15.197339	91.057	-124.0744
15.307465	91.079	-124.4300
15.418389	91.100	-124.7873
15.530117	91.122	-125.1461
15.642655	91.143	-125.5062
15.756008	91.164	-125.8674
15.870182	91.184	-126.2298
15.985184	91.205	-126.5932
16.101019	91.226	-126.9576
16.217694	91.247	-127.3231
16.335214	91.268	-127.6896
16.453586	91.289	-128.0571
16.572815	91.310	-128.4256
16.692909	91.332	-128.7949
16.813872	91.354	-129.1648
16.935713	91.377	-129.5350
17.058436	91.399	-129.9054
17.182048	91.422	-130.2755
17.306556	91.446	-130.6450
17.431967	91.469	-131.0136
17.558286	91.492	-131.3810
17.685521	91.516	-131.7470
17.813677	91.539	-132.1113
17.942762	91.563	-132.4740
18.072783	91.587	-132.8350
18.203746	91.610	-133.1943
18.335658	91.634	-133.5520
18.468526	91.658	-133.9082
18.602356	91.682	-134.2629
18.737156	91.706	-134.6161
18.872934	91.731	-134.9678
19.009695	91.755	-135.3179
19.147447	91.779	-135.6662
19.286197	91.803	-136.0124
19.425953	91.827	-136.3564
19.566721	91.850	-136.6979
19.708510	91.873	-137.0369
19.851326	91.896	-137.3732
19.995177	91.918	-137.7068
20.140070	91.940	-138.0380
20.286013	91.961	-138.3669
20.433014	91.982	-138.6938
20.581080	92.003	-139.0190
20.730219	92.023	-139.3428
20.880439	92.042	-139.6655
21.031747	92.062	-139.9874
21.184152	92.081	-140.3086
21.337661	92.099	-140.6292
21.492282	92.118	-140.9493
21.648024	92.135	-141.2688
21.804895	92.153	-141.5878
21.962902	92.170	-141.9065
22.122054	92.186	-142.2250
22.282360	92.202	-142.5436
22.443827	92.218	-142.8625
22.606464	92.233	-143.1822
22.770280	92.248	-143.5031
22.935283	92.263	-143.8256
23.101481	92.277	-144.1498
23.268884	92.291	-144.4760
23.437500	92.304	-144.8042
23.607338	92.316	-145.1342
23.778406	92.329	-145.4659
23.950714	92.340	-145.7988
24.124271	92.351	-146.1327
24.299086	92.362	-146.4672
24.475167	92.372	-146.8020
24.652524	92.382	-147.1371
24.831166	92.393	-147.4722
25.011103	92.403	-147.8075
25.192344	92.413	-148.1429
25.374898	92.423	-148.4785
25.558775	92.433	-148.8142
25.743984	92.443	-149.1498
25.930536	92.453	-149.4852
26.118439	92.463	-149.8198
26.307704	92.473	-150.1534
26.498341	92.483	-150.4854
26.690359	92.493	-150.8157
26.883768	92.503	-151.1438
27.078579	92.513	-151.4699
27.274801	92.523	-151.7939
27.472446	92.533	-152.1159
27.671522	92.543	-152.4363
27.872042	92.552	-152.7552
28.074014	92.562	-153.0726
28.277450	92.571	-153.3885
28.482360	92.579	-153.7026
28.688755	92.588	-154.0147
28.896645	92.595	-154.3244
29.106042	92.603	-154.6318
29.316957	92.610	-154.9369
29.529400	92.617	-155.2402
29.743382	92.624	-155.5425
29.958915	92.631	-155.8446
30.176009	92.638	-156.1475
30.394677	92.644	-156.4516
30.614929	92.650	-156.7573
30.836778	92.655	-157.0643
31.060234	92.660	-157.3718
31.285309	92.664	-157.6788
31.512015	92.667	-157.9845
31.740364	92.669	-158.2879
31.970368	92.671	-158.5889
32.202039	92.674	-158.8877
32.435388	92.676	-159.1854
32.670428	92.678	-159.4829
32.907171	92.681	-159.7816
33.145630	92.683	-160.0822
33.385817	92.686	-160.3852
33.627745	92.688	-160.6903
33.871425	92.690	-160.9968
34.116871	92.692	-161.3039
34.364096	92.694	-161.6106
34.613113	92.695	-161.9165
34.863934	92.696	-162.2213
35.116572	92.697	-162.5251
35.371041	92.698	-162.8282
35.627354	92.699	-163.1308
35.885525	92.699	-163.4330
36.145566	92.699	-163.7344
36.407492	92.699	-164.0345
36.671316	92.698	-164.3328
36.937051	92.697	-164.6289
37.204712	92.696	-164.9227
37.474313	92.694	-165.2146
37.745867	92.693	-165.5051
38.019389	92.691	-165.7945
38.294893	92.689	-166.0831
38.572394	92.687	-166.3710
38.851905	92.684	-166.6580
39.133442	92.681	-166.9438
39.417019	92.678	-167.2284
39.702651	92.675	-167.5124
39.990353	92.672	-167.7964
40.280140	92.669	-168.0812
40.572026	92.666	-168.3674
40.866028	92.663	-168.6551
41.162160	92.659	-168.9438
41.460438	92.654	-169.2322
41.760877	92.649	-169.5191
42.063494	92.643	-169.8033
42.368303	92.637	-170.0839
42.675322	92.631	-170.3608
42.984565	92.624	-170.6340
43.296048	92.617	-170.9039
43.609789	92.610	-171.1713
43.925804	92.604	-171.4365
44.244108	92.597	-171.7004
44.564719	92.590	-171.9635
44.887654	92.583	-172.2264
45.212928	92.576	-172.4895
45.540560	92.568	-172.7530
45.870565	92.560	-173.0165
46.202962	92.552	-173.2798
46.537768	92.543	-173.5425
46.875000	92.534	-173.8044
47.214676	92.525	-174.0658
47.556813	92.515	-174.3268
47.901429	92.505	-174.5876
48.248542	92.495	-174.8479
48.598171	92.484	-175.1074
48.950334	92.474	-175.3652
49.305048	92.463	-175.6209
49.662333	92.451	-175.8742
50.022206	92.440	-176.1253
50.384688	92.429	-176.3746
50.749796	92.418	-176.6226
51.117550	92.407	-176.8694
51.487969	92.396	-177.1149
51.861072	92.384	-177.3590
52.236879	92.373	-177.6013
52.615409	92.361	-177.8418
52.996681	92.350	-178.0804
53.380717	92.338	-178.3170
53.767536	92.327	-178.5516
54.157158	92.315	-178.7842
54.549603	92.304	-179.0155
54.944892	92.293	-179.2469
55.343045	92.283	-179.4802
55.744084	92.273	-179.7172
56.148028	92.262	-179.9589
56.554900	92.252	179.7951
56.964720	92.241	179.5459
57.377510	92.229	179.2949
57.793291	92.217	179.0429
58.212085	92.204	178.7901
58.633914	92.191	178.5366
59.058799	92.177	178.2831
59.486764	92.162	178.0311
59.917829	92.146	177.7821
60.352019	92.130	177.5374
60.789354	92.113	177.2969
61.229859	92.096	177.0601
61.673556	92.079	176.8260
62.120468	92.061	176.5945
62.570618	92.043	176.3657
63.024031	92.025	176.1398
63.480729	92.006	175.9165
63.940736	91.987	175.6950
64.404077	91.968	175.4745
64.870776	91.948	175.2547
65.340856	91.928	175.0359
65.814343	91.908	174.8187
66.291261	91.887	174.6041
66.771635	91.866	174.3923
67.255489	91.845	174.1836
67.742850	91.823	173.9778
68.233743	91.801	173.7747
68.728193	91.780	173.5742
69.226226	91.758	173.3759
69.727867	91.737	173.1798
70.233144	91.715	172.9858
70.742083	91.693	172.7939
71.254709	91.671	172.6039
71.771050	91.649	172.4151
72.291132	91.628	172.2269
72.814984	91.606	172.0387
73.342631	91.584	171.8509
73.874102	91.561	171.6649
74.409424	91.538	171.4823
74.948626	91.516	171.3044
75.491734	91.493	171.1318
76.038779	91.471	170.9642
76.589787	91.450	170.8008
77.144788	91.430	170.6400
77.703811	91.411	170.4794
78.266885	91.392	170.3162
78.834039	91.375	170.1475
79.405303	91.357	169.9722
79.980706	91.339	169.7903
80.560280	91.321	169.6029
81.144053	91.301	169.4121
81.732056	91.280	169.2200
82.324320	91.259	169.0277
82.920876	91.236	168.8346
83.521755	91.214	168.6384
84.126988	91.191	168.4375
84.736607	91.167	168.2329
85.350643	91.141	168.0280
85.969129	91.115	167.8268
86.592097	91.088	167.6324
87.219579	91.060	167.4461
87.851608	91.033	167.2679
88.488217	91.006	167.0966
89.129439	90.979	166.9303
89.775308	90.953	166.7676
90.425856	90.926	166.6072
91.081119	90.900	166.4478
91.741131	90.874	166.2882
92.405925	90.848	166.1282
93.075536	90.822	165.9680
93.750000	90.795	165.8082
94.429351	90.769	165.6495
95.113625	90.742	165.4924
95.802858	90.715	165.3375
96.497085	90.687	165.1857
97.196342	90.659	165.0377
97.900667	90.631	164.8937
98.610096	90.601	164.7541
99.324665	90.571	164.6192
100.044413	90.540	164.4892
100.769376	90.509	164.3640
101.499592	90.478	164.2434
102.235100	90.447	164.1269
102.975938	90.418	164.0136
103.722144	90.390	163.9025
104.473757	90.363	163.7926
105.230817	90.337	163.6840
105.993363	90.312	163.5781
106.761435	90.287	163.4772
107.535072	90.262	163.3828
108.314315	90.236	163.2940
109.099206	90.210	163.2059
109.889783	90.184	163.1098
110.686090	90.158	162.9947
111.488167	90.130	162.8540
112.296056	90.099	162.6914
113.109800	90.066	162.5186
113.929440	90.029	162.3485
114.755020	89.991	162.1915
115.586582	89.953	162.0554
116.424170	89.915	161.9451
117.267827	89.877	161.8622
118.117598	89.842	161.8033
118.973527	89.808	161.7582
119.835658	89.776	161.7133
120.704037	89.744	161.6581
121.578708	89.712	161.5897
122.459718	89.679	161.5108
123.347111	89.646	161.4246
124.240935	89.614	161.3337
125.141236	89.582	161.2403
126.048061	89.552	161.1469
126.961458	89.522	161.0565
127.881473	89.492	160.9709
128.808154	89.462	160.8900
129.741551	89.432	160.8117
130.681712	89.401	160.7339
131.628686	89.369	160.6553
132.582521	89.336	160.5750
133.543269	89.302	160.4927
134.510979	89.268	160.4090
135.485701	89.233	160.3253
136.467486	89.199	160.2435
137.456386	89.164	160.1657
138.452451	89.128	160.0934
139.455735	89.092	160.0273
140.466288	89.056	159.9670
141.484165	89.019	159.9113
142.509418	88.982	159.8588
143.542100	88.945	159.8081
144.582265	88.908	159.7581
145.629968	88.871	159.7083
146.685262	88.834	159.6595
147.748204	88.795	159.6134
148.818849	88.756	159.5721
149.897251	88.716	159.5373
150.983469	88.675	159.5111
152.077557	88.632	159.4955
153.179574	88.590	159.4917
154.289576	88.547	159.4989
155.407622	88.504	159.5147
156.533770	88.463	159.5352
157.668078	88.423	159.5559
158.810606	88.385	159.5733
159.961413	88.346	159.5854
161.120559	88.308	159.5925
162.288105	88.270	159.5964
163.464112	88.231	159.5998
164.648640	88.191	159.6060
165.841752	88.150	159.6194
167.043510	88.107	159.6453
168.253976	88.065	159.6889
169.473213	88.022	159.7529
170.701286	87.980	159.8364
171.938258	87.940	159.9352
173.184194	87.904	160.0432
174.439158	87.870	160.1542
175.703216	87.839	160.2636
176.976434	87.812	160.3677
178.258878	87.787	160.4631
179.550615	87.765	160.5465
180.851713	87.743	160.6151
182.162239	87.722	160.6670
183.482262	87.700	160.7018
184.811850	87.678	160.7206
186.151073	87.654	160.7252
187.500000	87.628	160.7185
188.858702	87.601	160.7042
190.227250	87.573	160.6862
191.605715	87.544	160.6678
192.994169	87.514	160.6514
194.392685	87.483	160.6387
195.801334	87.451	160.6315
197.220191	87.418	160.6320
198.649330	87.384	160.6422
200.088825	87.350	160.6633
201.538751	87.316	160.6946
202.999184	87.282	160.7336
204.470200	87.249	160.7761
205.951875	87.217	160.8181
207.444287	87.185	160.8569
208.947514	87.152	160.8924
210.461634	87.119	160.9265
211.986726	87.084	160.9633
213.522869	87.047	161.0075
215.070144	87.009	161.0640
216.628631	86.970	161.1358
218.198411	86.931	161.2229
219.779567	86.893	161.3210
221.372180	86.856	161.4234
222.976334	86.820	161.5237
224.592112	86.786	161.6189
226.219600	86.751	161.7086
227.858880	86.717	161.7945
229.510039	86.683	161.8788
231.173164	86.650	161.9632
232.848340	86.616	162.0485
234.535655	86.582	162.1343
236.235197	86.548	162.2199
237.947054	86.514	162.3047
239.671317	86.479	162.3889
241.408074	86.444	162.4734
243.157416	86.407	162.5604
244.919435	86.370	162.6526
246.694223	86.333	162.7530
248.481871	86.295	162.8649
250.282473	86.256	162.9911
252.096123	86.219	163.1333
253.922915	86.183	163.2899
255.762945	86.150	163.4550
257.616309	86.119	163.6192
259.483103	86.091	163.7726
261.363424	86.063	163.9103
263.257372	86.035	164.0345
265.165043	86.006	164.1520
267.086538	85.976	164.2706
269.021957	85.944	164.3970
270.971401	85.911	164.5347
272.934972	85.879	164.6846
274.912771	85.848	164.8452
276.904902	85.818	165.0140
278.911469	85.790	165.1891
280.932577	85.764	165.3676
282.968330	85.739	165.5455
285.018835	85.717	165.7169
287.084199	85.696	165.8743
289.164530	85.676	166.0119
291.259935	85.655	166.1282
293.370525	85.632	166.2282
295.496408	85.607	166.3216
297.637697	85.579	166.4183
299.794503	85.549	166.5252
301.966937	85.517	166.6453
304.155114	85.485	166.7777
306.359147	85.453	166.9199
308.579152	85.422	167.0682
310.815244	85.390	167.2192
313.067539	85.358	167.3710
315.336156	85.326	167.5249
317.621211	85.293	167.6845
319.922826	85.259	167.8541
322.241118	85.226	168.0356
324.576210	85.193	168.2282
326.928223	85.161	168.4285
329.297280	85.131	168.6326
331.683504	85.101	168.8370
334.087019	85.073	169.0395
336.507952	85.045	169.2383
338.946427	85.017	169.4332
341.402572	84.989	169.6251
343.876516	84.961	169.8168
346.368387	84.932	170.0110
348.878315	84.903	170.2099
351.406431	84.874	170.4144
353.952867	84.844	170.6238
356.517756	84.815	170.8369
359.101230	84.786	171.0528
361.703426	84.757	171.2711
364.324478	84.728	171.4918
366.964523	84.700	171.7146
369.623699	84.672	171.9393
372.302145	84.645	172.1654
375.000000	84.617	172.3931
377.717405	84.590	172.6230
380.454501	84.563	172.8556
383.211431	84.536	173.0916
385.988339	84.509	173.3314
388.785369	84.483	173.5747
391.602668	84.457	173.8213
394.440383	84.432	174.0707
397.298660	84.407	174.3227
400.177650	84.383	174.5763
403.077502	84.360	174.8304
405.998368	84.337	175.0837
408.940400	84.314	175.3351
411.903750	84.291	175.5856
414.888575	84.267	175.8382
417.895028	84.242	176.0968
420.923268	84.218	176.3649
423.973452	84.194	176.6438
427.045738	84.172	176.9320
430.140287	84.151	177.2255
433.257261	84.132	177.5193
436.396822	84.115	177.8098
439.559133	84.098	178.0966
442.744360	84.083	178.3799
445.952668	84.068	178.6583
449.184225	84.055	178.9268
452.439199	84.043	179.1789
455.717760	84.030	179.4109
459.020079	84.015	179.6263
462.346327	83.997	179.8360
465.696680	83.976	-179.9477
469.071310	83.953	-179.7168
472.470394	83.929	-179.4693
475.894109	83.905	-179.2077
479.342634	83.882	-178.9379
482.816148	83.860	-178.6659
486.314833	83.837	-178.3936
489.838871	83.814	-178.1170
493.388445	83.790	-177.8284
496.963741	83.766	-177.5241
500.564945	83.744	-177.2077
504.192245	83.723	-176.8865
507.845830	83.704	-176.5672
511.525890	83.686	-176.2527
515.232618	83.667	-175.9420
518.966206	83.649	-175.6317
522.726849	83.629	-175.3171
526.514743	83.609	-174.9937
530.330086	83.590	-174.6596
534.173076	83.571	-174.3172
538.043915	83.554	-173.9715
541.942803	83.538	-173.6252
545.869944	83.522	-173.2776
549.825542	83.507	-172.9277
553.809805	83.493	-172.5766
557.822939	83.481	-172.2266
561.865154	83.469	-171.8797
565.936660	83.457	-171.5356
570.037671	83.445	-171.1917
574.168399	83.432	-170.8445
578.329060	83.419	-170.4919
582.519870	83.406	-170.1345
586.741049	83.393	-169.7732
590.992817	83.380	-169.4061
595.275394	83.367	-169.0306
599.589005	83.355	-168.6470
603.933874	83.344	-168.2587
608.310228	83.335	-167.8698
612.718295	83.325	-167.4817
617.158304	83.316	-167.0922
621.630488	83.306	-166.6954
626.135079	83.297	-166.2849
630.672311	83.288	-165.8588
635.242423	83.281	-165.4216
639.845651	83.276	-164.9794
644.482237	83.273	-164.5340
649.152421	83.273	-164.0841
653.856447	83.275	-163.6310
658.594560	83.280	-163.1814
663.367008	83.288	-162.7463
668.174039	83.296	-162.3341
673.015903	83.304	-161.9451
677.892854	83.311	-161.5718
682.805145	83.315	-161.2050
687.753032	83.318	-160.8374
692.736774	83.319	-160.4624
697.756631	83.319	-160.0751
702.812863	83.320	-159.6735
707.905735	83.321	-159.2599
713.035511	83.323	-158.8385
718.202461	83.326	-158.4126
723.406852	83.330	-157.9834
728.648956	83.334	-157.5507
733.929047	83.338	-157.1141
739.247399	83.343	-156.6730
744.604290	83.348	-156.2270
750.000000	83.354	-155.7757
755.434809	83.361	-155.3188
760.909001	83.369	-154.8562
766.422861	83.378	-154.3878
771.976677	83.387	-153.9145
777.570739	83.399	-153.4374
783.205337	83.411	-152.9575
788.880766	83.424	-152.4737
794.597321	83.439	-151.9829
800.355301	83.456	-151.4825
806.155005	83.475	-150.9739
811.996736	83.498	-150.4635
817.880799	83.524	-149.9602
823.807501	83.554	-149.4736
829.777150	83.586	-149.0116
835.790057	83.617	-148.5760
841.846536	83.648	-148.1603
847.946903	83.676	-147.7537
854.091476	83.703	-147.3479
860.280575	83.729	-146.9384
866.514523	83.753	-146.5220
872.793644	83.778	-146.0954
879.118267	83.803	-145.6593
885.488720	83.830	-145.2184
891.905336	83.858	-144.7770
898.368450	83.887	-144.3350
904.878398	83.917	-143.8898
911.435520	83.948	-143.4397
918.040157	83.981	-142.9863
924.692655	84.016	-142.5330
931.393359	84.052	-142.0838
938.142619	84.090	-141.6431
944.940787	84.130	-141.2124
951.788218	84.170	-140.7899
958.685268	84.211	-140.3723
965.632296	84.252	-139.9567
972.629666	84.294	-139.5409
979.677741	84.336	-139.1246
986.776890	84.379	-138.7092
993.927482	84.423	-138.2940
1001.129891	84.467	-137.8747
1008.384491	84.513	-137.4470
1015.691660	84.561	-137.0108
1023.051781	84.613	-136.5703
1030.465236	84.668	-136.1328
1037.932411	84.728	-135.7100
1045.453698	84.791	-135.3144
1053.029486	84.854	-134.9515
1060.660172	84.917	-134.6176
1068.346153	84.979	-134.3034
1076.087829	85.038	-133.9989
1083.885605	85.096	-133.6966
1091.739887	85.152	-133.3938
1099.651084	85.209	-133.0901
1107.619609	85.266	-132.7850
1115.645878	85.322	-132.4777
1123.730308	85.379	-132.1677
1131.873321	85.437	-131.8549
1140.075341	85.496	-131.5401
1148.336797	85.556	-131.2242
1156.658119	85.617	-130.9079
1165.039741	85.680	-130.5910
1173.482099	85.745	-130.2722
1181.985634	85.813	-129.9518
1190.550789	85.885	-129.6352
1199.178011	85.961	-129.3328
1207.867749	86.041	-129.0562
1216.620457	86.122	-128.8122
1225.436590	86.205	-128.6000
1234.316609	86.286	-128.4152
1243.260976	86.367	-128.2542
1252.270157	86.446	-128.1141
1261.344623	86.523	-127.9947
1270.484846	86.599	-127.8961
1279.691303	86.672	-127.8157
1288.964474	86.742	-127.7485
1298.304842	86.809	-127.6890
1307.712894	86.873	-127.6333
1317.189120	86.933	-127.5784
1326.734016	86.992	-127.5205
1336.348077	87.047	-127.4544
1346.031806	87.101	-127.3738
1355.785708	87.154	-127.2725
1365.610290	87.207	-127.1456
1375.506065	87.262	-126.9887
1385.473549	87.319	-126.7985
1395.513261	87.380	-126.5761
1405.625726	87.447	-126.3296
1415.811469	87.521	-126.0735
1426.071023	87.600	-125.8248
1436.404921	87.683	-125.5952
1446.813703	87.767	-125.3875
1457.297912	87.853	-125.1981
1467.858093	87.938	-125.0221
1478.494798	88.023	-124.8561
1489.208581	88.106	-124.6972
1500.000000	88.188	-124.5427
1510.869618	88.266	-124.3894
1521.818002	88.342	-124.2349
1532.845723	88.415	-124.0771
1543.953355	88.486	-123.9150
1555.141477	88.556	-123.7484
1566.410674	88.628	-123.5819
1577.761531	88.702	-123.4263
1589.194642	88.780	-123.2957
1600.710601	88.861	-123.1997
1612.310010	88.942	-123.1391
1623.993473	89.022	-123.1092
1635.761599	89.102	-123.1034
1647.615002	89.181	-123.1165
1659.554299	89.259	-123.1447
1671.580114	89.336	-123.1858
1683.693072	89.414	-123.2398
1695.893807	89.493	-123.3096
1708.182952	89.571	-123.3981
1720.561150	89.649	-123.5060
1733.029045	89.725	-123.6309
1745.587288	89.800	-123.7689
1758.236533	89.873	-123.9146
1770.977440	89.947	-124.0652
1783.810673	90.024	-124.2244
1796.736900	90.104	-124.4058
1809.756796	90.188	-124.6289
1822.871040	90.275	-124.9109
1836.080315	90.362	-125.2622
1849.385310	90.448	-125.6874
1862.786718	90.530	-126.1873
1876.285239	90.606	-126.7590
1889.881575	90.674	-127.3957
1903.576436	90.734	-128.0869
1917.370535	90.784	-128.8197
1931.264593	90.824	-129.5797
1945.259332	90.853	-130.3542
1959.355483	90.871	-131.1342
1973.553781	90.876	-131.9122
1987.854965	90.864	-132.6744
2002.259781	90.834	-133.3969
2016.768981	90.784	-134.0465
2031.383320	90.715	-134.5846
2046.103561	90.629	-134.9721
2060.930471	90.533	-135.1740
2075.864823	90.432	-135.1659
2090.907395	90.333	-134.9373
2106.058972	90.247	-134.4926
2121.320344	90.179	-133.8507
2136.692305	90.136	-133.0446
2152.175658	90.125	-132.1203
2167.771210	90.149	-131.1375
2183.479774	90.208	-130.1653
2199.302169	90.299	-129.2707
2215.239219	90.416	-128.5037
2231.291755	90.552	-127.8912
2247.460615	90.699	-127.4390
2263.746641	90.851	-127.1365
2280.150683	91.004	-126.9629
2296.673595	91.157	-126.8947
2313.316238	91.308	-126.9111
2330.079481	91.459	-127.0013
2346.964198	91.610	-127.1665
2363.971268	91.762	-127.4158
2381.101578	91.912	-127.7569
2398.356022	92.057	-128.1907
2415.735498	92.195	-128.7114
2433.240913	92.325	-129.3082
2450.873180	92.445	-129.9684
2468.633217	92.554	-130.6790
2486.521951	92.652	-131.4265
2504.540314	92.739	-132.1949
2522.689246	92.815	-132.9667
2540.969692	92.882	-133.7258
2559.382606	92.943	-134.4642
2577.928947	93.001	-135.1839
2596.609683	93.056	-135.8916
2615.425787	93.109	-136.5938
2634.378241	93.161	-137.2939
2653.468031	93.210	-137.9924
2672.696154	93.259	-138.6865
2692.063613	93.307	-139.3735
2711.571415	93.357	-140.0555
2731.220579	93.412	-140.7443
2751.012130	93.471	-141.4594
2770.947098	93.535	-142.2219
2791.026522	93.602	-143.0490
2811.251451	93.669	-143.9522
2831.622938	93.734	-144.9380
2852.142045	93.795	-146.0098
2872.809842	93.848	-147.1669
2893.627406	93.893	-148.4041
2914.595823	93.926	-149.7109
2935.716186	93.949	-151.0777
2956.989596	93.960	-152.5012
2978.417161	93.959	-153.9842
3000.000000	93.945	-155.5309
3021.739237	93.915	-157.1423
3043.636005	93.866	-158.8128
3065.691446	93.795	-160.5293
3087.906710	93.698	-162.2719
3110.282955	93.576	-164.0193
3132.821347	93.425	-165.7509
3155.523062	93.244	-167.4449
3178.389283	93.033	-169.0739
3201.421202	92.788	-170.6036
3224.620020	92.511	-171.9939
3247.986946	92.202	-173.2007
3271.523198	91.862	-174.1770
3295.230004	91.496	-174.8729
3319.108599	91.111	-175.2408
3343.160228	90.715	-175.2460
3367.386145	90.318	-174.8732
3391.787613	89.934	-174.1276
3416.365904	89.571	-173.0323
3441.122300	89.241	-171.6241
3466.058091	88.952	-169.9497
3491.174576	88.710	-168.0676
3516.473066	88.521	-166.0501
3541.954880	88.385	-163.9785
3567.621345	88.302	-161.9322
3593.473800	88.266	-159.9792
3619.513592	88.269	-158.1713
3645.742080	88.304	-156.5413
3672.160630	88.362	-155.1008
3698.770620	88.436	-153.8425
3725.573436	88.520	-152.7510
3752.570477	88.609	-151.8113
3779.763150	88.701	-151.0107
3807.152872	88.792	-150.3356
3834.741071	88.879	-149.7670
3862.529185	88.961	-149.2812
3890.518664	89.038	-148.8558
3918.710966	89.110	-148.4765
3947.107561	89.180	-148.1370
3975.709929	89.249	-147.8362
4004.519563	89.316	-147.5759
4033.537962	89.381	-147.3566
4062.766641	89.444	-147.1737
4092.207123	89.504	-147.0164
4121.860942	89.563	-146.8749
4151.729646	89.622	-146.7463
4181.814790	89.681	-146.6339
4212.117944	89.741	-146.5420
4242.640687	89.802	-146.4715
4273.384610	89.865	-146.4218
4304.351317	89.931	-146.3966
4335.542421	90.000	-146.4063
4366.959549	90.074	-146.4664
4398.604338	90.150	-146.5943
4430.478438	90.227	-146.8052
4462.583511	90.303	-147.1054
4494.921231	90.375	-147.4933
4527.493283	90.441	-147.9648
4560.301365	90.499	-148.5162
4593.347189	90.547	-149.1422
4626.632476	90.583	-149.8305
4660.158962	90.605	-150.5625
4693.928395	90.614	-151.3196
4727.942535	90.611	-152.0881
4762.203156	90.596	-152.8605
4796.712043	90.571	-153.6356
4831.470996	90.536	-154.4133
4866.481826	90.490	-155.1896
4901.746360	90.433	-155.9569
4937.266434	90.365	-156.7086
4973.043902	90.285	-157.4390
5009.080628	90.193	-158.1395
5045.378492	90.088	-158.7954
5081.939384	89.972	-159.3900
5118.765212	89.845	-159.9103
5155.857894	89.711	-160.3503
5193.219366	89.573	-160.7123
5230.851574	89.430	-161.0019
5268.756481	89.285	-161.2229
5306.936062	89.137	-161.3779
5345.392309	88.987	-161.4709
5384.127225	88.835	-161.5054
5423.142830	88.679	-161.4793
5462.441159	88.520	-161.3846
5502.024259	88.358	-161.2111
5541.894195	88.195	-160.9524
5582.053045	88.034	-160.6097
5622.502902	87.876	-160.1902
5663.245876	87.723	-159.7021
5704.284090	87.576	-159.1542
5745.619684	87.436	-158.5572
5787.254813	87.303	-157.9207
5829.191647	87.174	-157.2479
5871.432373	87.051	-156.5348
5913.979192	86.932	-155.7743
5956.834323	86.819	-154.9623
6000.000000	86.714	-154.1003
6043.478473	86.617	-153.1935
6087.272010	86.530	-152.2481
6131.382892	86.453	-151.2737
6175.813420	86.386	-150.2804
6220.565910	86.327	-149.2745
6265.642695	86.278	-148.2552
6311.046124	86.235	-147.2173
6356.778566	86.202	-146.1562
6402.842404	86.178	-145.0714
6449.240040	86.164	-143.9653
6495.973891	86.162	-142.8438
6543.046396	86.173	-141.7162
6590.460007	86.196	-140.5919
6638.217197	86.231	-139.4760
6686.320456	86.278	-138.3679
6734.772290	86.336	-137.2655
6783.575226	86.408	-136.1689
6832.731809	86.493	-135.0815
6882.244600	86.593	-134.0114
6932.116181	86.707	-132.9715
6982.349153	86.838	-131.9771
7032.946133	86.983	-131.0406
7083.909760	87.144	-130.1706
7135.242690	87.322	-129.3755
7186.947600	87.518	-128.6665
7239.027185	87.734	-128.0598
7291.484160	87.970	-127.5785
7344.321260	88.226	-127.2534
7397.541239	88.502	-127.1180
7451.146872	88.795	-127.2038
7505.140954	89.101	-127.5394
7559.526299	89.417	-128.1525
7614.305743	89.738	-129.0704
7669.482141	90.057	-130.3197
7725.058371	90.367	-131.9249
7781.037328	90.656	-133.9018
7837.421932	90.912	-136.2477
7894.215122	91.123	-138.9356
7951.419859	91.276	-141.9144
8009.039125	91.361	-145.1104
8067.075924	91.372	-148.4332
8125.533282	91.305	-151.7836
8184.414245	91.160	-155.0603
8243.721885	90.940	-158.1624
8303.459292	90.651	-160.9938
8363.629581	90.301	-163.4698
8424.235888	89.904	-165.5223
8485.281374	89.474	-167.1075
8546.769221	89.028	-168.2115
8608.702634	88.581	-168.8501
8671.084842	88.146	-169.0601
8733.919097	87.737	-168.8934
8797.208675	87.361	-168.4099
8860.956876	87.025	-167.6751
8925.167022	86.733	-166.7616
8989.842461	86.487	-165.7485
9054.986566	86.284	-164.7124
9120.602731	86.118	-163.7162
9186.694378	85.980	-162.7989
9253.264952	85.861	-161.9694
9320.317925	85.751	-161.2089
9387.856790	85.642	-160.4751
9455.885071	85.531	-159.7049
9524.406312	85.419	-158.8186
9593.424086	85.311	-157.7311
9662.941992	85.222	-156.3699
9732.963653	85.172	-154.7056
9803.492719	85.182	-152.7780
9874.532869	85.273	-150.7031
9946.087805	85.452	-148.6543
10018.161257	85.719	-146.8217
10090.756983	86.062	-145.3716
10163.878768	86.460	-144.4252
10237.530423	86.892	-144.0504
10311.715789	87.336	-144.2657
10386.438732	87.772	-145.0465
10461.703149	88.184	-146.3351
10537.512962	88.562	-148.0568
10613.872125	88.899	-150.1346
10690.784618	89.192	-152.4980
10768.254450	89.440	-155.0857
10846.285661	89.644	-157.8430
10924.882318	89.804	-160.7231
11004.048518	89.926	-163.6920
11083.788390	90.011	-166.7310
11164.106090	90.063	-169.8339
11245.005805	90.082	-172.9982
11326.491752	90.066	-176.2188
11408.568180	90.014	-179.4867
11491.239368	89.925	177.2097
11574.509626	89.795	173.8863
11658.383294	89.621	170.5686
11742.864745	89.400	167.2941
11827.958384	89.131	164.1083
11913.668646	88.815	161.0573
12000.000000	88.455	158.1841
12086.956947	88.053	155.5287
12174.544019	87.613	153.1288
12262.765784	87.142	151.0160
12351.626840	86.647	149.2101
12441.131819	86.134	147.7195
12531.285389	85.612	146.5449
12622.092249	85.085	145.6838
12713.557132	84.562	145.1276
12805.684808	84.048	144.8585
12898.480079	83.548	144.8531
12991.947783	83.068	145.0869
13086.092792	82.610	145.5357
13180.920015	82.177	146.1724
13276.434395	81.771	146.9683
13372.640911	81.394	147.8990
13469.544580	81.045	148.9478
13567.150452	80.725	150.1013
13665.463617	80.434	151.3450
13764.489200	80.174	152.6650
13864.232362	79.945	154.0523
13964.698305	79.749	155.4984
14065.892266	79.590	156.9907
14167.819519	79.472	158.5126
14270.485380	79.399	160.0467
14373.895200	79.375	161.5702
14478.054370	79.407	163.0506
14582.968320	79.500	164.4457
14688.642520	79.660	165.7055
14795.082478	79.894	166.7687
14902.293745	80.207	167.5581
15010.281908	80.604	167.9818
15119.052599	81.087	167.9360
15228.611486	81.651	167.3058
15338.964283	82.286	165.9695
15450.116741	82.975	163.8090
15562.074656	83.690	160.7224
15674.843864	84.398	156.6346
15788.430244	85.061	151.5110
15902.839718	85.637	145.3724
16018.078250	86.088	138.3073
16134.151848	86.378	130.4780
16251.066563	86.480	122.1157
16368.828491	86.378	113.5006
16487.443769	86.074	104.9255
16606.918584	85.581	96.6508
16727.259161	84.922	88.8750
16848.471777	84.127	81.7237
16970.562748	83.229	75.2523
17093.538442	82.257	69.4575
17217.405268	81.238	64.2953
17342.169684	80.196	59.6971
17467.838194	79.146	55.5823
17594.417350	78.098	51.8708
17721.913751	77.056	48.4923
17850.334044	76.021	45.3879
17979.684923	74.988	42.5117
18109.973131	73.954	39.8325
18241.205462	72.913	37.3311
18373.388756	71.857	34.9963
18506.529905	70.782	32.8243
18640.635849	69.680	30.8178
18775.713581	68.546	28.9873
18911.770141	67.374	27.3538
19048.812624	66.159	25.9485
19186.848172	64.896	24.8097
19325.883983	63.585	23.9791
19465.927305	62.235	23.4954
19606.985439	60.880	23.3783
19749.065738	59.596	23.5938
19892.175609	58.533	24.0002
20036.322514	57.909	24.3311
