* Measurement data measured by REW V5.31
* Source: EXCL: Microphone (USB Sound Device        ), MICROPHONE (Master Volume), L, volume: 0.390
* Format: 256k Log Swept Sine, 1 sweep at -5.0 dBFS with no timing reference
* Dated: Sep 4, 2024 12:52:33 AM
* REW Settings:
*  C-weighting compensation: Off
*  Target level: 75.0 dB
* Note: HZSOUND Luna R
* Measurement: R HZSOUND Luna
* Smoothing: 1/12 octave
* Frequency Step: 96 ppo
* Start Frequency: 0.36621094 Hz
*
* Freq(Hz)	SPL(dB)	Phase(degrees)
0.366211	83.728	158.1293
0.368865	83.722	158.1059
0.371538	83.713	158.0708
0.374230	83.702	158.0267
0.376942	83.689	157.9759
0.379673	83.676	157.9201
0.382424	83.662	157.8603
0.385196	83.647	157.7973
0.387987	83.633	157.7314
0.390798	83.618	157.6628
0.393630	83.603	157.5917
0.396483	83.588	157.5180
0.399356	83.573	157.4418
0.402250	83.557	157.3631
0.405165	83.542	157.2818
0.408101	83.526	157.1979
0.411058	83.511	157.1115
0.414037	83.495	157.0224
0.417037	83.479	156.9306
0.420059	83.463	156.8362
0.423103	83.447	156.7391
0.426169	83.431	156.6393
0.429257	83.414	156.5367
0.432368	83.398	156.4314
0.435501	83.381	156.3232
0.438656	83.365	156.2122
0.441835	83.348	156.0984
0.445037	83.331	155.9817
0.448262	83.314	155.8621
0.451510	83.297	155.7395
0.454782	83.279	155.6141
0.458077	83.262	155.4857
0.461397	83.244	155.3543
0.464740	83.226	155.2199
0.468108	83.209	155.0824
0.471500	83.191	154.9420
0.474917	83.173	154.7984
0.478358	83.154	154.6519
0.481825	83.136	154.5022
0.485316	83.118	154.3494
0.488833	83.099	154.1935
0.492375	83.080	154.0344
0.495943	83.061	153.8723
0.499537	83.042	153.7069
0.503157	83.023	153.5384
0.506803	83.004	153.3668
0.510475	82.984	153.1920
0.514175	82.965	153.0140
0.517900	82.945	152.8328
0.521653	82.925	152.6484
0.525434	82.905	152.4609
0.529241	82.885	152.2702
0.533076	82.865	152.0763
0.536939	82.844	151.8792
0.540830	82.824	151.6791
0.544749	82.803	151.4757
0.548696	82.782	151.2693
0.552673	82.761	151.0597
0.556677	82.740	150.8471
0.560711	82.718	150.6314
0.564774	82.697	150.4127
0.568867	82.675	150.1910
0.572989	82.653	149.9663
0.577141	82.631	149.7386
0.581324	82.609	149.5081
0.585536	82.587	149.2748
0.589779	82.564	149.0387
0.594053	82.542	148.7998
0.598358	82.519	148.5582
0.602694	82.496	148.3141
0.607061	82.473	148.0674
0.611460	82.450	147.8182
0.615891	82.426	147.5666
0.620354	82.402	147.3127
0.624849	82.379	147.0565
0.629377	82.355	146.7983
0.633938	82.331	146.5380
0.638532	82.306	146.2758
0.643159	82.282	146.0118
0.647819	82.257	145.7461
0.652514	82.232	145.4789
0.657242	82.207	145.2103
0.662005	82.182	144.9404
0.666802	82.157	144.6694
0.671634	82.131	144.3974
0.676501	82.105	144.1247
0.681403	82.079	143.8513
0.686341	82.053	143.5776
0.691314	82.027	143.3036
0.696324	82.000	143.0296
0.701370	81.973	142.7557
0.706452	81.946	142.4820
0.711571	81.918	142.2086
0.716728	81.889	141.9355
0.721921	81.859	141.6624
0.727153	81.828	141.3889
0.732422	81.794	141.1140
0.737729	81.759	140.8369
0.743075	81.721	140.5564
0.748460	81.681	140.2716
0.753883	81.640	139.9817
0.759346	81.598	139.6863
0.764849	81.555	139.3850
0.770391	81.511	139.0774
0.775974	81.467	138.7635
0.781597	81.422	138.4431
0.787261	81.376	138.1161
0.792966	81.330	137.7823
0.798712	81.283	137.4418
0.804500	81.235	137.0943
0.810329	81.187	136.7399
0.816201	81.138	136.3785
0.822116	81.088	136.0099
0.828073	81.038	135.6342
0.834074	80.986	135.2512
0.840118	80.934	134.8609
0.846206	80.881	134.4633
0.852338	80.828	134.0583
0.858514	80.773	133.6458
0.864735	80.717	133.2259
0.871001	80.661	132.7985
0.877313	80.603	132.3637
0.883670	80.545	131.9213
0.890074	80.485	131.4715
0.896524	80.425	131.0142
0.903020	80.363	130.5495
0.909564	80.300	130.0773
0.916155	80.236	129.5979
0.922794	80.171	129.1113
0.929481	80.104	128.6174
0.936216	80.037	128.1166
0.943000	79.967	127.6089
0.949834	79.897	127.0945
0.956717	79.825	126.5735
0.963649	79.752	126.0462
0.970632	79.677	125.5128
0.977666	79.600	124.9735
0.984750	79.522	124.4287
0.991886	79.442	123.8787
0.999074	79.361	123.3238
1.006314	79.278	122.7645
1.013606	79.193	122.2011
1.020951	79.106	121.6342
1.028349	79.017	121.0643
1.035801	78.926	120.4919
1.043307	78.833	119.9176
1.050867	78.738	119.3421
1.058482	78.641	118.7659
1.066152	78.541	118.1896
1.073878	78.439	117.6138
1.081660	78.334	117.0386
1.089498	78.227	116.4642
1.097393	78.116	115.8901
1.105345	78.002	115.3156
1.113355	77.884	114.7395
1.121423	77.763	114.1607
1.129549	77.637	113.5781
1.137734	77.506	112.9906
1.145979	77.372	112.3974
1.154283	77.233	111.7976
1.162647	77.091	111.1904
1.171072	76.944	110.5749
1.179558	76.793	109.9502
1.188106	76.639	109.3156
1.196715	76.481	108.6700
1.205387	76.320	108.0124
1.214122	76.156	107.3419
1.222920	75.989	106.6573
1.231782	75.818	105.9575
1.240708	75.645	105.2413
1.249699	75.470	104.5072
1.258754	75.293	103.7540
1.267876	75.113	102.9802
1.277063	74.932	102.1842
1.286318	74.750	101.3645
1.295639	74.566	100.5192
1.305027	74.382	99.6466
1.314484	74.197	98.7448
1.324009	74.011	97.8118
1.333604	73.826	96.8456
1.343268	73.641	95.8440
1.353002	73.457	94.8048
1.362806	73.274	93.7259
1.372681	73.093	92.6049
1.382628	72.914	91.4398
1.392647	72.737	90.2281
1.402739	72.562	88.9680
1.412904	72.391	87.6573
1.423142	72.223	86.2941
1.433455	72.059	84.8767
1.443843	71.898	83.4031
1.454305	71.741	81.8712
1.464844	71.586	80.2784
1.475459	71.434	78.6210
1.486150	71.282	76.8945
1.496920	71.130	75.0933
1.507767	70.978	73.2114
1.518693	70.826	71.2420
1.529698	70.673	69.1784
1.540783	70.519	67.0134
1.551948	70.366	64.7398
1.563194	70.213	62.3508
1.574521	70.061	59.8398
1.585931	69.911	57.2010
1.597423	69.762	54.4295
1.608999	69.615	51.5220
1.620658	69.472	48.4772
1.632402	69.332	45.2966
1.644232	69.197	41.9844
1.656146	69.066	38.5487
1.668147	68.941	35.0015
1.680235	68.822	31.3590
1.692411	68.711	27.6413
1.704675	68.607	23.8722
1.717028	68.512	20.0779
1.729470	68.427	16.2866
1.742003	68.352	12.5265
1.754626	68.288	8.8247
1.767341	68.237	5.2058
1.780147	68.200	1.6905
1.793047	68.177	-1.7056
1.806040	68.171	-4.9724
1.819128	68.182	-8.1064
1.832310	68.212	-11.1098
1.845587	68.263	-13.9898
1.858961	68.334	-16.7554
1.872432	68.427	-19.4156
1.886001	68.541	-21.9778
1.899667	68.675	-24.4475
1.913433	68.828	-26.8289
1.927299	69.000	-29.1250
1.941265	69.187	-31.3379
1.955332	69.390	-33.4692
1.969501	69.605	-35.5203
1.983773	69.832	-37.4922
1.998148	70.067	-39.3858
2.012627	70.310	-41.2017
2.027212	70.559	-42.9406
2.041902	70.810	-44.6030
2.056698	71.062	-46.1894
2.071602	71.313	-47.7001
2.086614	71.561	-49.1357
2.101734	71.803	-50.4966
2.116964	72.037	-51.7835
2.132304	72.262	-52.9977
2.147756	72.475	-54.1412
2.163320	72.676	-55.2169
2.178996	72.864	-56.2296
2.194786	73.039	-57.1857
2.210690	73.202	-58.0928
2.226710	73.356	-58.9592
2.242845	73.500	-59.7917
2.259098	73.637	-60.5954
2.275468	73.767	-61.3738
2.291957	73.891	-62.1288
2.308566	74.009	-62.8614
2.325295	74.123	-63.5716
2.342145	74.232	-64.2593
2.359117	74.337	-64.9236
2.376212	74.437	-65.5634
2.393431	74.535	-66.1775
2.410775	74.629	-66.7644
2.428244	74.721	-67.3224
2.445840	74.810	-67.8497
2.463564	74.898	-68.3444
2.481416	74.984	-68.8047
2.499397	75.069	-69.2289
2.517509	75.152	-69.6156
2.535752	75.235	-69.9639
2.554127	75.316	-70.2740
2.572635	75.395	-70.5467
2.591277	75.471	-70.7837
2.610055	75.544	-70.9870
2.628968	75.614	-71.1586
2.648019	75.680	-71.3004
2.667208	75.743	-71.4141
2.686535	75.804	-71.5010
2.706003	75.862	-71.5624
2.725612	75.918	-71.5994
2.745363	75.972	-71.6130
2.765257	76.026	-71.6044
2.785295	76.080	-71.5744
2.805478	76.135	-71.5240
2.825808	76.191	-71.4538
2.846285	76.249	-71.3646
2.866910	76.309	-71.2567
2.887685	76.373	-71.1300
2.908611	76.439	-70.9837
2.929688	76.509	-70.8166
2.950917	76.581	-70.6271
2.972301	76.656	-70.4143
2.993839	76.733	-70.1779
3.015534	76.812	-69.9190
3.037386	76.893	-69.6397
3.059396	76.976	-69.3429
3.081565	77.061	-69.0318
3.103896	77.148	-68.7103
3.126388	77.237	-68.3821
3.149043	77.328	-68.0511
3.171862	77.422	-67.7212
3.194847	77.518	-67.3958
3.217998	77.617	-67.0777
3.241317	77.720	-66.7692
3.264805	77.825	-66.4710
3.288463	77.934	-66.1829
3.312293	78.047	-65.9031
3.336295	78.163	-65.6298
3.360471	78.284	-65.3620
3.384822	78.408	-65.0998
3.409350	78.535	-64.8444
3.434056	78.665	-64.5981
3.458940	78.798	-64.3638
3.484005	78.932	-64.1444
3.509252	79.068	-63.9432
3.534681	79.205	-63.7631
3.560295	79.342	-63.6069
3.586094	79.478	-63.4770
3.612081	79.615	-63.3749
3.638255	79.750	-63.3015
3.664620	79.886	-63.2565
3.691175	80.020	-63.2389
3.717923	80.155	-63.2470
3.744864	80.289	-63.2789
3.772001	80.424	-63.3329
3.799335	80.558	-63.4076
3.826866	80.691	-63.5017
3.854597	80.823	-63.6139
3.882529	80.954	-63.7435
3.910664	81.084	-63.8897
3.939002	81.211	-64.0521
3.967546	81.335	-64.2304
3.996296	81.457	-64.4249
4.025255	81.576	-64.6359
4.054423	81.692	-64.8639
4.083804	81.805	-65.1088
4.113396	81.915	-65.3702
4.143204	82.022	-65.6467
4.173227	82.127	-65.9364
4.203468	82.229	-66.2370
4.233928	82.328	-66.5463
4.264609	82.424	-66.8619
4.295512	82.517	-67.1820
4.326639	82.608	-67.5052
4.357992	82.695	-67.8308
4.389572	82.780	-68.1590
4.421380	82.861	-68.4904
4.453419	82.939	-68.8259
4.485691	83.013	-69.1656
4.518196	83.085	-69.5089
4.550936	83.153	-69.8542
4.583914	83.218	-70.1994
4.617131	83.281	-70.5423
4.650589	83.342	-70.8803
4.684289	83.400	-71.2115
4.718233	83.456	-71.5344
4.752424	83.511	-71.8480
4.786862	83.563	-72.1525
4.821549	83.613	-72.4485
4.856488	83.661	-72.7364
4.891680	83.706	-73.0165
4.927127	83.750	-73.2888
4.962831	83.793	-73.5529
4.998794	83.835	-73.8081
5.035017	83.875	-74.0536
5.071503	83.916	-74.2886
5.108253	83.957	-74.5123
5.145270	83.997	-74.7244
5.182555	84.037	-74.9249
5.220110	84.078	-75.1143
5.257937	84.118	-75.2936
5.296038	84.158	-75.4644
5.334415	84.199	-75.6281
5.373071	84.241	-75.7862
5.412006	84.284	-75.9400
5.451224	84.328	-76.0904
5.490725	84.373	-76.2378
5.530514	84.420	-76.3823
5.570590	84.468	-76.5243
5.610957	84.518	-76.6645
5.651616	84.570	-76.8045
5.692570	84.622	-76.9462
5.733821	84.676	-77.0919
5.775370	84.732	-77.2436
5.817221	84.788	-77.4030
5.859375	84.846	-77.5711
5.901834	84.906	-77.7484
5.944602	84.966	-77.9350
5.987679	85.028	-78.1312
6.031068	85.090	-78.3375
6.074771	85.154	-78.5549
6.118792	85.217	-78.7842
6.163131	85.281	-79.0264
6.207792	85.345	-79.2823
6.252776	85.409	-79.5523
6.298086	85.473	-79.8362
6.343725	85.536	-80.1336
6.389694	85.599	-80.4435
6.435996	85.662	-80.7651
6.482634	85.723	-81.0974
6.529610	85.784	-81.4396
6.576926	85.844	-81.7913
6.624585	85.902	-82.1522
6.672590	85.960	-82.5219
6.720942	86.016	-82.8995
6.769645	86.071	-83.2838
6.818700	86.124	-83.6731
6.868111	86.177	-84.0660
6.917881	86.228	-84.4610
6.968010	86.278	-84.8573
7.018504	86.327	-85.2542
7.069362	86.375	-85.6514
7.120590	86.422	-86.0482
7.172189	86.469	-86.4436
7.224161	86.514	-86.8364
7.276511	86.560	-87.2258
7.329239	86.605	-87.6110
7.382350	86.650	-87.9916
7.435845	86.695	-88.3676
7.489729	86.740	-88.7392
7.544002	86.786	-89.1067
7.598669	86.832	-89.4701
7.653732	86.879	-89.8298
7.709194	86.927	-90.1857
7.765058	86.975	-90.5382
7.821327	87.025	-90.8879
7.878004	87.076	-91.2356
7.935091	87.128	-91.5822
7.992592	87.182	-91.9287
8.050510	87.236	-92.2760
8.108847	87.292	-92.6245
8.167607	87.349	-92.9749
8.226793	87.408	-93.3277
8.286408	87.467	-93.6835
8.346454	87.528	-94.0431
8.406936	87.589	-94.4072
8.467856	87.651	-94.7760
8.529218	87.714	-95.1497
8.591024	87.778	-95.5282
8.653278	87.841	-95.9113
8.715983	87.905	-96.2988
8.779143	87.970	-96.6906
8.842760	88.034	-97.0863
8.906839	88.098	-97.4855
8.971381	88.162	-97.8875
9.036392	88.225	-98.2916
9.101873	88.289	-98.6968
9.167829	88.352	-99.1025
9.234263	88.414	-99.5080
9.301178	88.476	-99.9128
9.368578	88.538	-100.3160
9.436467	88.599	-100.7170
9.504847	88.660	-101.1151
9.573723	88.720	-101.5097
9.643099	88.780	-101.9005
9.712976	88.838	-102.2872
9.783361	88.895	-102.6696
9.854255	88.950	-103.0476
9.925663	89.002	-103.4210
9.997588	89.052	-103.7899
10.070035	89.101	-104.1545
10.143007	89.147	-104.5150
10.216507	89.192	-104.8717
10.290540	89.235	-105.2249
10.365109	89.278	-105.5749
10.440219	89.320	-105.9220
10.515873	89.361	-106.2666
10.592076	89.401	-106.6089
10.668830	89.442	-106.9494
10.746141	89.482	-107.2881
10.824012	89.522	-107.6252
10.902447	89.562	-107.9610
10.981451	89.601	-108.2954
11.061027	89.640	-108.6286
11.141180	89.679	-108.9605
11.221913	89.717	-109.2912
11.303232	89.754	-109.6206
11.385140	89.791	-109.9486
11.467641	89.828	-110.2751
11.550741	89.864	-110.6003
11.634442	89.900	-110.9239
11.718750	89.935	-111.2461
11.803669	89.970	-111.5668
11.889203	90.005	-111.8862
11.975357	90.040	-112.2043
12.062136	90.074	-112.5212
12.149543	90.108	-112.8370
12.237583	90.142	-113.1520
12.326262	90.175	-113.4662
12.415583	90.208	-113.7798
12.505552	90.240	-114.0930
12.596172	90.272	-114.4059
12.687449	90.302	-114.7185
12.779387	90.333	-115.0310
12.871992	90.362	-115.3434
12.965268	90.391	-115.6559
13.059220	90.419	-115.9684
13.153852	90.447	-116.2810
13.249170	90.474	-116.5937
13.345179	90.502	-116.9068
13.441884	90.529	-117.2203
13.539289	90.555	-117.5344
13.637401	90.582	-117.8492
13.736223	90.608	-118.1651
13.835761	90.634	-118.4824
13.936021	90.660	-118.8013
14.037007	90.686	-119.1221
14.138725	90.711	-119.4453
14.241180	90.736	-119.7711
14.344377	90.761	-120.0999
14.448323	90.785	-120.4318
14.553021	90.809	-120.7670
14.658478	90.832	-121.1055
14.764700	90.855	-121.4474
14.871691	90.878	-121.7926
14.979457	90.901	-122.1410
15.088005	90.924	-122.4922
15.197339	90.946	-122.8460
15.307465	90.969	-123.2022
15.418389	90.991	-123.5603
15.530117	91.013	-123.9203
15.642655	91.034	-124.2817
15.756008	91.056	-124.6443
15.870182	91.077	-125.0081
15.985184	91.099	-125.3730
16.101019	91.120	-125.7389
16.217694	91.142	-126.1058
16.335214	91.164	-126.4738
16.453586	91.186	-126.8428
16.572815	91.208	-127.2128
16.692909	91.231	-127.5838
16.813872	91.254	-127.9558
16.935713	91.278	-128.3284
17.058436	91.302	-128.7015
17.182048	91.326	-129.0748
17.306556	91.351	-129.4478
17.431967	91.376	-129.8203
17.558286	91.400	-130.1918
17.685521	91.425	-130.5619
17.813677	91.450	-130.9303
17.942762	91.474	-131.2968
18.072783	91.499	-131.6612
18.203746	91.524	-132.0233
18.335658	91.549	-132.3832
18.468526	91.574	-132.7407
18.602356	91.599	-133.0961
18.737156	91.624	-133.4493
18.872934	91.649	-133.8005
19.009695	91.675	-134.1497
19.147447	91.700	-134.4969
19.286197	91.725	-134.8421
19.425953	91.750	-135.1853
19.566721	91.775	-135.5265
19.708510	91.800	-135.8654
19.851326	91.823	-136.2020
19.995177	91.847	-136.5361
20.140070	91.869	-136.8678
20.286013	91.892	-137.1970
20.433014	91.913	-137.5236
20.581080	91.934	-137.8478
20.730219	91.955	-138.1698
20.880439	91.975	-138.4896
21.031747	91.994	-138.8076
21.184152	92.014	-139.1241
21.337661	92.033	-139.4394
21.492282	92.052	-139.7539
21.648024	92.071	-140.0681
21.804895	92.089	-140.3822
21.962902	92.107	-140.6968
22.122054	92.125	-141.0121
22.282360	92.142	-141.3284
22.443827	92.158	-141.6460
22.606464	92.175	-141.9650
22.770280	92.190	-142.2855
22.935283	92.205	-142.6076
23.101481	92.220	-142.9313
23.268884	92.234	-143.2565
23.437500	92.248	-143.5833
23.607338	92.261	-143.9118
23.778406	92.274	-144.2418
23.950714	92.287	-144.5735
24.124271	92.299	-144.9067
24.299086	92.311	-145.2415
24.475167	92.322	-145.5778
24.652524	92.334	-145.9151
24.831166	92.345	-146.2532
25.011103	92.356	-146.5917
25.192344	92.366	-146.9301
25.374898	92.377	-147.2678
25.558775	92.388	-147.6045
25.743984	92.398	-147.9399
25.930536	92.409	-148.2737
26.118439	92.420	-148.6058
26.307704	92.431	-148.9364
26.498341	92.442	-149.2654
26.690359	92.453	-149.5930
26.883768	92.464	-149.9193
27.078579	92.475	-150.2441
27.274801	92.486	-150.5674
27.472446	92.497	-150.8889
27.671522	92.508	-151.2082
27.872042	92.518	-151.5252
28.074014	92.528	-151.8396
28.277450	92.538	-152.1513
28.482360	92.547	-152.4605
28.688755	92.557	-152.7673
28.896645	92.565	-153.0722
29.106042	92.574	-153.3755
29.316957	92.582	-153.6778
29.529400	92.590	-153.9794
29.743382	92.598	-154.2805
29.958915	92.605	-154.5814
30.176009	92.612	-154.8819
30.394677	92.618	-155.1821
30.614929	92.624	-155.4816
30.836778	92.629	-155.7805
31.060234	92.634	-156.0787
31.285309	92.639	-156.3763
31.512015	92.644	-156.6738
31.740364	92.648	-156.9716
31.970368	92.653	-157.2703
32.202039	92.657	-157.5705
32.435388	92.662	-157.8727
32.670428	92.666	-158.1771
32.907171	92.670	-158.4837
33.145630	92.674	-158.7923
33.385817	92.677	-159.1026
33.627745	92.681	-159.4140
33.871425	92.684	-159.7261
34.116871	92.687	-160.0383
34.364096	92.689	-160.3503
34.613113	92.692	-160.6614
34.863934	92.694	-160.9714
35.116572	92.696	-161.2796
35.371041	92.697	-161.5856
35.627354	92.699	-161.8890
35.885525	92.700	-162.1895
36.145566	92.701	-162.4871
36.407492	92.702	-162.7820
36.671316	92.703	-163.0747
36.937051	92.704	-163.3654
37.204712	92.704	-163.6546
37.474313	92.704	-163.9423
37.745867	92.704	-164.2283
38.019389	92.704	-164.5126
38.294893	92.703	-164.7950
38.572394	92.702	-165.0756
38.851905	92.700	-165.3547
39.133442	92.699	-165.6327
39.417019	92.697	-165.9101
39.702651	92.694	-166.1873
39.990353	92.692	-166.4644
40.280140	92.689	-166.7417
40.572026	92.686	-167.0189
40.866028	92.683	-167.2962
41.162160	92.679	-167.5733
41.460438	92.676	-167.8505
41.760877	92.671	-168.1276
42.063494	92.667	-168.4046
42.368303	92.662	-168.6811
42.675322	92.657	-168.9569
42.984565	92.652	-169.2318
43.296048	92.646	-169.5054
43.609789	92.640	-169.7779
43.925804	92.634	-170.0493
44.244108	92.628	-170.3197
44.564719	92.622	-170.5892
44.887654	92.615	-170.8579
45.212928	92.608	-171.1256
45.540560	92.601	-171.3924
45.870565	92.594	-171.6582
46.202962	92.586	-171.9232
46.537768	92.578	-172.1874
46.875000	92.570	-172.4509
47.214676	92.562	-172.7136
47.556813	92.554	-172.9755
47.901429	92.546	-173.2362
48.248542	92.537	-173.4955
48.598171	92.529	-173.7532
48.950334	92.520	-174.0094
49.305048	92.512	-174.2642
49.662333	92.503	-174.5179
50.022206	92.495	-174.7709
50.384688	92.486	-175.0232
50.749796	92.477	-175.2747
51.117550	92.468	-175.5250
51.487969	92.458	-175.7736
51.861072	92.448	-176.0200
52.236879	92.438	-176.2639
52.615409	92.428	-176.5051
52.996681	92.417	-176.7434
53.380717	92.407	-176.9784
53.767536	92.396	-177.2102
54.157158	92.385	-177.4388
54.549603	92.375	-177.6652
54.944892	92.365	-177.8908
55.343045	92.355	-178.1172
55.744084	92.346	-178.3460
56.148028	92.336	-178.5783
56.554900	92.327	-178.8145
56.964720	92.317	-179.0546
57.377510	92.306	-179.2979
57.793291	92.295	-179.5432
58.212085	92.284	-179.7893
58.633914	92.271	179.9653
59.058799	92.258	179.7210
59.486764	92.245	179.4777
59.917829	92.232	179.2347
60.352019	92.218	178.9916
60.789354	92.203	178.7487
61.229859	92.188	178.5068
61.673556	92.172	178.2669
62.120468	92.156	178.0298
62.570618	92.139	177.7957
63.024031	92.122	177.5644
63.480729	92.104	177.3359
63.940736	92.086	177.1103
64.404077	92.068	176.8879
64.870776	92.049	176.6688
65.340856	92.030	176.4530
65.814343	92.011	176.2401
66.291261	91.992	176.0298
66.771635	91.973	175.8217
67.255489	91.953	175.6160
67.742850	91.933	175.4124
68.233743	91.914	175.2110
68.728193	91.894	175.0117
69.226226	91.874	174.8142
69.727867	91.854	174.6185
70.233144	91.834	174.4248
70.742083	91.814	174.2336
71.254709	91.795	174.0457
71.771050	91.775	173.8624
72.291132	91.755	173.6844
72.814984	91.735	173.5121
73.342631	91.716	173.3442
73.874102	91.698	173.1791
74.409424	91.680	173.0150
74.948626	91.663	172.8509
75.491734	91.645	172.6865
76.038779	91.628	172.5218
76.589787	91.611	172.3558
77.144788	91.595	172.1862
77.703811	91.579	172.0105
78.266885	91.565	171.8260
78.834039	91.550	171.6305
79.405303	91.536	171.4219
79.980706	91.522	171.1990
80.560280	91.507	170.9622
81.144053	91.491	170.7146
81.732056	91.472	170.4617
82.324320	91.452	170.2109
82.920876	91.430	169.9686
83.521755	91.406	169.7381
84.126988	91.383	169.5179
84.736607	91.359	169.3050
85.350643	91.334	169.0982
85.969129	91.309	168.8992
86.592097	91.282	168.7101
87.219579	91.255	168.5312
87.851608	91.228	168.3612
88.488217	91.201	168.1985
89.129439	91.174	168.0416
89.775308	91.147	167.8883
90.425856	91.121	167.7372
91.081119	91.094	167.5870
91.741131	91.068	167.4376
92.405925	91.042	167.2890
93.075536	91.016	167.1409
93.750000	90.991	166.9931
94.429351	90.965	166.8459
95.113625	90.939	166.6999
95.802858	90.914	166.5561
96.497085	90.888	166.4149
97.196342	90.862	166.2766
97.900667	90.836	166.1409
98.610096	90.809	166.0081
99.324665	90.782	165.8784
100.044413	90.755	165.7512
100.769376	90.729	165.6254
101.499592	90.702	165.4995
102.235100	90.677	165.3721
102.975938	90.652	165.2424
103.722144	90.629	165.1108
104.473757	90.606	164.9786
105.230817	90.585	164.8474
105.993363	90.565	164.7184
106.761435	90.545	164.5925
107.535072	90.527	164.4694
108.314315	90.508	164.3461
109.099206	90.489	164.2161
109.889783	90.469	164.0711
110.686090	90.446	163.9058
111.488167	90.418	163.7239
112.296056	90.385	163.5354
113.109800	90.348	163.3492
113.929440	90.308	163.1694
114.755020	90.268	162.9983
115.586582	90.228	162.8393
116.424170	90.188	162.6959
117.267827	90.149	162.5700
118.117598	90.112	162.4608
118.973527	90.077	162.3652
119.835658	90.042	162.2806
120.704037	90.007	162.2054
121.578708	89.973	162.1373
122.459718	89.939	162.0729
123.347111	89.906	162.0085
124.240935	89.873	161.9416
125.141236	89.840	161.8710
126.048061	89.808	161.7975
126.961458	89.777	161.7223
127.881473	89.745	161.6461
128.808154	89.713	161.5687
129.741551	89.681	161.4902
130.681712	89.649	161.4106
131.628686	89.616	161.3298
132.582521	89.582	161.2482
133.543269	89.549	161.1663
134.510979	89.515	161.0858
135.485701	89.480	161.0089
136.467486	89.445	160.9379
137.456386	89.409	160.8740
138.452451	89.373	160.8167
139.455735	89.337	160.7645
140.466288	89.301	160.7152
141.484165	89.265	160.6670
142.509418	89.229	160.6202
143.542100	89.194	160.5770
144.582265	89.159	160.5408
145.629968	89.124	160.5142
146.685262	89.090	160.4965
147.748204	89.056	160.4849
148.818849	89.022	160.4775
149.897251	88.988	160.4722
150.983469	88.952	160.4703
152.077557	88.916	160.4744
153.179574	88.879	160.4867
154.289576	88.844	160.5089
155.407622	88.810	160.5391
156.533770	88.779	160.5724
157.668078	88.750	160.6033
158.810606	88.724	160.6247
159.961413	88.698	160.6324
161.120559	88.673	160.6254
162.288105	88.648	160.6030
163.464112	88.621	160.5687
164.648640	88.593	160.5261
165.841752	88.564	160.4786
167.043510	88.533	160.4314
168.253976	88.501	160.3877
169.473213	88.467	160.3492
170.701286	88.433	160.3174
171.938258	88.399	160.2908
173.184194	88.366	160.2668
174.439158	88.332	160.2440
175.703216	88.299	160.2205
176.976434	88.266	160.1964
178.258878	88.232	160.1735
179.550615	88.199	160.1520
180.851713	88.165	160.1319
182.162239	88.131	160.1133
183.482262	88.097	160.0955
184.811850	88.062	160.0773
186.151073	88.027	160.0589
187.500000	87.991	160.0406
188.858702	87.955	160.0232
190.227250	87.918	160.0086
191.605715	87.881	159.9986
192.994169	87.844	159.9937
194.392685	87.807	159.9945
195.801334	87.770	160.0021
197.220191	87.733	160.0170
198.649330	87.696	160.0391
200.088825	87.659	160.0692
201.538751	87.623	160.1076
202.999184	87.588	160.1525
204.470200	87.554	160.1995
205.951875	87.521	160.2442
207.444287	87.489	160.2829
208.947514	87.457	160.3136
210.461634	87.423	160.3379
211.986726	87.388	160.3610
213.522869	87.351	160.3888
215.070144	87.312	160.4261
216.628631	87.271	160.4772
218.198411	87.230	160.5450
219.779567	87.190	160.6283
221.372180	87.152	160.7207
222.976334	87.115	160.8145
224.592112	87.080	160.9051
226.219600	87.045	160.9914
227.858880	87.010	161.0733
229.510039	86.976	161.1511
231.173164	86.941	161.2263
232.848340	86.906	161.3017
234.535655	86.871	161.3788
236.235197	86.835	161.4566
237.947054	86.800	161.5325
239.671317	86.764	161.6059
241.408074	86.728	161.6787
243.157416	86.690	161.7545
244.919435	86.652	161.8366
246.694223	86.614	161.9271
248.481871	86.574	162.0286
250.282473	86.534	162.1446
252.096123	86.495	162.2781
253.922915	86.457	162.4286
255.762945	86.422	162.5895
257.616309	86.390	162.7494
259.483103	86.360	162.8968
261.363424	86.331	163.0267
263.257372	86.303	163.1415
265.165043	86.273	163.2493
267.086538	86.241	163.3590
269.021957	86.209	163.4772
270.971401	86.176	163.6066
272.934972	86.144	163.7463
274.912771	86.113	163.8939
276.904902	86.084	164.0467
278.911469	86.056	164.2033
280.932577	86.030	164.3626
282.968330	86.005	164.5223
285.018835	85.982	164.6774
287.084199	85.961	164.8207
289.164530	85.940	164.9455
291.259935	85.919	165.0504
293.370525	85.894	165.1409
295.496408	85.867	165.2269
297.637697	85.837	165.3181
299.794503	85.804	165.4207
301.966937	85.770	165.5365
304.155114	85.735	165.6641
306.359147	85.700	165.8004
308.579152	85.664	165.9410
310.815244	85.629	166.0822
313.067539	85.594	166.2216
315.336156	85.558	166.3603
317.621211	85.522	166.5027
319.922826	85.486	166.6549
322.241118	85.450	166.8205
324.576210	85.415	166.9988
326.928223	85.381	167.1860
329.297280	85.348	167.3774
331.683504	85.316	167.5689
334.087019	85.285	167.7580
336.507952	85.255	167.9437
338.946427	85.226	168.1266
341.402572	85.195	168.3088
343.876516	85.164	168.4924
346.368387	85.133	168.6790
348.878315	85.101	168.8698
351.406431	85.069	169.0650
353.952867	85.037	169.2648
356.517756	85.005	169.4686
359.101230	84.973	169.6760
361.703426	84.942	169.8867
364.324478	84.911	170.1006
366.964523	84.880	170.3173
369.623699	84.849	170.5368
372.302145	84.819	170.7596
375.000000	84.789	170.9860
377.717405	84.759	171.2157
380.454501	84.729	171.4482
383.211431	84.700	171.6831
385.988339	84.671	171.9205
388.785369	84.643	172.1603
391.602668	84.614	172.4026
394.440383	84.586	172.6471
397.298660	84.559	172.8933
400.177650	84.532	173.1404
403.077502	84.506	173.3870
405.998368	84.480	173.6317
408.940400	84.454	173.8744
411.903750	84.427	174.1173
414.888575	84.400	174.3638
417.895028	84.373	174.6176
420.923268	84.345	174.8815
423.973452	84.319	175.1562
427.045738	84.294	175.4405
430.140287	84.271	175.7299
433.257261	84.249	176.0197
436.396822	84.229	176.3062
439.559133	84.210	176.5886
442.744360	84.192	176.8672
445.952668	84.175	177.1405
449.184225	84.160	177.4042
452.439199	84.145	177.6526
455.717760	84.129	177.8828
459.020079	84.111	178.0986
462.346327	84.091	178.3105
465.696680	84.067	178.5303
469.071310	84.041	178.7650
472.470394	84.015	179.0157
475.894109	83.988	179.2797
479.342634	83.962	179.5515
482.816148	83.937	179.8253
486.314833	83.911	-179.9008
489.838871	83.884	-179.6226
493.388445	83.857	-179.3320
496.963741	83.830	-179.0246
500.564945	83.805	-178.7039
504.192245	83.782	-178.3781
507.845830	83.760	-178.0547
511.525890	83.739	-177.7370
515.232618	83.718	-177.4239
518.966206	83.697	-177.1114
522.726849	83.675	-176.7946
526.514743	83.653	-176.4685
530.330086	83.631	-176.1310
534.173076	83.610	-175.7844
538.043915	83.591	-175.4337
541.942803	83.572	-175.0820
545.869944	83.554	-174.7290
549.825542	83.537	-174.3743
553.809805	83.521	-174.0197
557.822939	83.506	-173.6677
561.865154	83.491	-173.3195
565.936660	83.476	-172.9741
570.037671	83.461	-172.6281
574.168399	83.445	-172.2777
578.329060	83.428	-171.9211
582.519870	83.412	-171.5590
586.741049	83.396	-171.1920
590.992817	83.380	-170.8186
595.275394	83.365	-170.4361
599.589005	83.350	-170.0447
603.933874	83.337	-169.6484
608.310228	83.325	-169.2513
612.718295	83.314	-168.8552
617.158304	83.302	-168.4578
621.630488	83.290	-168.0531
626.135079	83.278	-167.6342
630.672311	83.266	-167.1991
635.242423	83.256	-166.7520
639.845651	83.248	-166.2994
644.482237	83.242	-165.8436
649.152421	83.239	-165.3839
653.856447	83.238	-164.9217
658.594560	83.241	-164.4640
663.367008	83.247	-164.0209
668.174039	83.254	-163.6004
673.015903	83.261	-163.2020
677.892854	83.265	-162.8177
682.805145	83.268	-162.4384
687.753032	83.269	-162.0572
692.736774	83.267	-161.6687
697.756631	83.265	-161.2683
702.812863	83.263	-160.8541
707.905735	83.261	-160.4280
713.035511	83.260	-159.9943
718.202461	83.261	-159.5565
723.406852	83.262	-159.1157
728.648956	83.264	-158.6718
733.929047	83.267	-158.2243
739.247399	83.270	-157.7728
744.604290	83.273	-157.3170
750.000000	83.277	-156.8563
755.434809	83.282	-156.3899
760.909001	83.288	-155.9175
766.422861	83.296	-155.4392
771.976677	83.304	-154.9558
777.570739	83.313	-154.4682
783.205337	83.324	-153.9774
788.880766	83.335	-153.4824
794.597321	83.347	-152.9807
800.355301	83.362	-152.4695
806.155005	83.379	-151.9491
811.996736	83.399	-151.4251
817.880799	83.423	-150.9062
823.807501	83.451	-150.4028
829.777150	83.481	-149.9236
835.790057	83.510	-149.4705
841.846536	83.539	-149.0367
847.946903	83.566	-148.6116
854.091476	83.591	-148.1872
860.280575	83.614	-147.7598
866.514523	83.637	-147.3265
872.793644	83.660	-146.8841
879.118267	83.683	-146.4323
885.488720	83.708	-145.9753
891.905336	83.734	-145.5165
898.368450	83.761	-145.0562
904.878398	83.789	-144.5922
911.435520	83.818	-144.1234
918.040157	83.849	-143.6516
924.692655	83.881	-143.1794
931.393359	83.916	-142.7105
938.142619	83.953	-142.2491
944.940787	83.991	-141.7975
951.788218	84.029	-141.3546
958.685268	84.069	-140.9174
965.632296	84.109	-140.4826
972.629666	84.149	-140.0474
979.677741	84.191	-139.6110
986.776890	84.234	-139.1740
993.927482	84.277	-138.7357
1001.129891	84.322	-138.2918
1008.384491	84.368	-137.8382
1015.691660	84.417	-137.3758
1023.051781	84.469	-136.9097
1030.465236	84.525	-136.4481
1037.932411	84.586	-136.0027
1045.453698	84.650	-135.5858
1053.029486	84.715	-135.2033
1060.660172	84.780	-134.8513
1068.346153	84.844	-134.5210
1076.087829	84.906	-134.2029
1083.885605	84.966	-133.8907
1091.739887	85.026	-133.5828
1099.651084	85.086	-133.2796
1107.619609	85.145	-132.9811
1115.645878	85.203	-132.6861
1123.730308	85.262	-132.3927
1131.873321	85.320	-132.0997
1140.075341	85.378	-131.8061
1148.336797	85.436	-131.5116
1156.658119	85.496	-131.2160
1165.039741	85.556	-130.9190
1173.482099	85.617	-130.6195
1181.985634	85.681	-130.3187
1190.550789	85.748	-130.0230
1199.178011	85.819	-129.7435
1207.867749	85.892	-129.4915
1216.620457	85.966	-129.2717
1225.436590	86.038	-129.0798
1234.316609	86.108	-128.9070
1243.260976	86.175	-128.7443
1252.270157	86.239	-128.5842
1261.344623	86.302	-128.4226
1270.484846	86.362	-128.2581
1279.691303	86.422	-128.0886
1288.964474	86.481	-127.9123
1298.304842	86.540	-127.7295
1307.712894	86.599	-127.5429
1317.189120	86.660	-127.3561
1326.734016	86.720	-127.1718
1336.348077	86.782	-126.9895
1346.031806	86.843	-126.8063
1355.785708	86.906	-126.6186
1365.610290	86.970	-126.4223
1375.506065	87.035	-126.2130
1385.473549	87.103	-125.9858
1395.513261	87.174	-125.7400
1405.625726	87.250	-125.4810
1415.811469	87.331	-125.2211
1426.071023	87.417	-124.9753
1436.404921	87.505	-124.7531
1446.813703	87.594	-124.5553
1457.297912	87.682	-124.3762
1467.858093	87.770	-124.2093
1478.494798	87.856	-124.0500
1489.208581	87.940	-123.8951
1500.000000	88.021	-123.7418
1510.869618	88.100	-123.5876
1521.818002	88.176	-123.4301
1532.845723	88.249	-123.2677
1543.953355	88.319	-123.0992
1555.141477	88.389	-122.9250
1566.410674	88.461	-122.7500
1577.761531	88.535	-122.5857
1589.194642	88.613	-122.4469
1600.710601	88.693	-122.3438
1612.310010	88.774	-122.2782
1623.993473	88.854	-122.2462
1635.761599	88.933	-122.2419
1647.615002	89.011	-122.2608
1659.554299	89.088	-122.2999
1671.580114	89.165	-122.3576
1683.693072	89.242	-122.4351
1695.893807	89.318	-122.5362
1708.182952	89.393	-122.6646
1720.561150	89.466	-122.8216
1733.029045	89.535	-123.0053
1745.587288	89.600	-123.2117
1758.236533	89.660	-123.4348
1770.977440	89.716	-123.6689
1783.810673	89.770	-123.9139
1796.736900	89.821	-124.1773
1809.756796	89.869	-124.4699
1822.871040	89.912	-124.7975
1836.080315	89.948	-125.1567
1849.385310	89.974	-125.5359
1862.786718	89.988	-125.9178
1876.285239	89.991	-126.2801
1889.881575	89.983	-126.5967
1903.576436	89.966	-126.8396
1917.370535	89.945	-126.9825
1931.264593	89.923	-127.0056
1945.259332	89.907	-126.9014
1959.355483	89.903	-126.6800
1973.553781	89.914	-126.3667
1987.854965	89.941	-125.9920
2002.259781	89.985	-125.5843
2016.768981	90.044	-125.1663
2031.383320	90.118	-124.7558
2046.103561	90.205	-124.3664
2060.930471	90.304	-124.0102
2075.864823	90.414	-123.6993
2090.907395	90.533	-123.4455
2106.058972	90.660	-123.2580
2121.320344	90.791	-123.1419
2136.692305	90.926	-123.0982
2152.175658	91.062	-123.1254
2167.771210	91.199	-123.2241
2183.479774	91.335	-123.3992
2199.302169	91.468	-123.6555
2215.239219	91.596	-123.9918
2231.291755	91.717	-124.3985
2247.460615	91.828	-124.8610
2263.746641	91.928	-125.3608
2280.150683	92.018	-125.8780
2296.673595	92.098	-126.3925
2313.316238	92.170	-126.8868
2330.079481	92.237	-127.3500
2346.964198	92.301	-127.7808
2363.971268	92.364	-128.1846
2381.101578	92.427	-128.5670
2398.356022	92.491	-128.9306
2415.735498	92.556	-129.2772
2433.240913	92.623	-129.6095
2450.873180	92.695	-129.9341
2468.633217	92.770	-130.2619
2486.521951	92.851	-130.6049
2504.540314	92.935	-130.9718
2522.689246	93.022	-131.3663
2540.969692	93.112	-131.7884
2559.382606	93.205	-132.2414
2577.928947	93.301	-132.7333
2596.609683	93.400	-133.2732
2615.425787	93.499	-133.8672
2634.378241	93.598	-134.5176
2653.468031	93.696	-135.2223
2672.696154	93.791	-135.9759
2692.063613	93.885	-136.7720
2711.571415	93.976	-137.6073
2731.220579	94.068	-138.4863
2751.012130	94.159	-139.4191
2770.947098	94.250	-140.4172
2791.026522	94.339	-141.4886
2811.251451	94.424	-142.6385
2831.622938	94.504	-143.8702
2852.142045	94.578	-145.1868
2872.809842	94.643	-146.5898
2893.627406	94.699	-148.0772
2914.595823	94.743	-149.6428
2935.716186	94.774	-151.2805
2956.989596	94.793	-152.9894
2978.417161	94.798	-154.7735
3000.000000	94.788	-156.6369
3021.739237	94.759	-158.5804
3043.636005	94.708	-160.5992
3065.691446	94.632	-162.6809
3087.906710	94.527	-164.8077
3110.282955	94.390	-166.9593
3132.821347	94.220	-169.1148
3155.523062	94.012	-171.2490
3178.389283	93.764	-173.3274
3201.421202	93.472	-175.3036
3224.620020	93.135	-177.1203
3247.986946	92.751	-178.7115
3271.523198	92.324	179.9957
3295.230004	91.858	179.0784
3319.108599	91.361	178.6099
3343.160228	90.847	178.6458
3367.386145	90.332	179.2127
3391.787613	89.832	-179.6962
3416.365904	89.365	-178.1210
3441.122300	88.946	-176.1286
3466.058091	88.586	-173.8047
3491.174576	88.292	-171.2484
3516.473066	88.070	-168.5678
3541.954880	87.917	-165.8699
3567.621345	87.828	-163.2475
3593.473800	87.796	-160.7713
3619.513592	87.809	-158.4878
3645.742080	87.859	-156.4209
3672.160630	87.935	-154.5721
3698.770620	88.030	-152.9258
3725.573436	88.138	-151.4606
3752.570477	88.255	-150.1589
3779.763150	88.379	-149.0075
3807.152872	88.505	-147.9937
3834.741071	88.632	-147.1007
3862.529185	88.759	-146.3074
3890.518664	88.886	-145.5963
3918.710966	89.013	-144.9584
3947.107561	89.142	-144.3936
3975.709929	89.275	-143.9065
4004.519563	89.409	-143.5041
4033.537962	89.545	-143.1915
4062.766641	89.680	-142.9682
4092.207123	89.813	-142.8266
4121.860942	89.944	-142.7589
4151.729646	90.073	-142.7620
4181.814790	90.200	-142.8369
4212.117944	90.323	-142.9833
4242.640687	90.441	-143.1954
4273.384610	90.555	-143.4648
4304.351317	90.664	-143.7873
4335.542421	90.769	-144.1647
4366.959549	90.871	-144.6037
4398.604338	90.969	-145.1133
4430.478438	91.061	-145.7002
4462.583511	91.146	-146.3640
4494.921231	91.221	-147.0972
4527.493283	91.286	-147.8918
4560.301365	91.341	-148.7422
4593.347189	91.384	-149.6436
4626.632476	91.413	-150.5863
4660.158962	91.429	-151.5564
4693.928395	91.432	-152.5407
4727.942535	91.423	-153.5309
4762.203156	91.403	-154.5242
4796.712043	91.372	-155.5226
4831.470996	91.331	-156.5279
4866.481826	91.277	-157.5362
4901.746360	91.211	-158.5391
4937.266434	91.131	-159.5281
4973.043902	91.038	-160.4955
5009.080628	90.929	-161.4303
5045.378492	90.806	-162.3152
5081.939384	90.668	-163.1309
5118.765212	90.518	-163.8611
5155.857894	90.359	-164.4971
5193.219366	90.192	-165.0387
5230.851574	90.020	-165.4903
5268.756481	89.844	-165.8557
5306.936062	89.665	-166.1379
5345.392309	89.484	-166.3424
5384.127225	89.301	-166.4744
5423.142830	89.114	-166.5340
5462.441159	88.925	-166.5151
5502.024259	88.733	-166.4094
5541.894195	88.541	-166.2119
5582.053045	88.351	-165.9245
5622.502902	88.164	-165.5540
5663.245876	87.982	-165.1081
5704.284090	87.805	-164.5945
5745.619684	87.636	-164.0226
5787.254813	87.472	-163.4017
5829.191647	87.314	-162.7345
5871.432373	87.160	-162.0167
5913.979192	87.012	-161.2406
5956.834323	86.869	-160.4013
6000.000000	86.735	-159.4996
6043.478473	86.609	-158.5406
6087.272010	86.494	-157.5316
6131.382892	86.391	-156.4833
6175.813420	86.298	-155.4073
6220.565910	86.216	-154.3109
6265.642695	86.143	-153.1943
6311.046124	86.080	-152.0532
6356.778566	86.028	-150.8842
6402.842404	85.986	-149.6881
6449.240040	85.957	-148.4684
6495.973891	85.940	-147.2318
6543.046396	85.938	-145.9882
6590.460007	85.949	-144.7480
6638.217197	85.973	-143.5173
6686.320456	86.010	-142.2964
6734.772290	86.060	-141.0833
6783.575226	86.124	-139.8775
6832.731809	86.203	-138.6817
6882.244600	86.297	-137.5032
6932.116181	86.408	-136.3549
6982.349153	86.536	-135.2526
7032.946133	86.680	-134.2097
7083.909760	86.842	-133.2365
7135.242690	87.023	-132.3424
7186.947600	87.224	-131.5404
7239.027185	87.446	-130.8488
7291.484160	87.690	-130.2936
7344.321260	87.957	-129.9088
7397.541239	88.245	-129.7311
7451.146872	88.551	-129.7954
7505.140954	88.871	-130.1331
7559.526299	89.201	-130.7750
7614.305743	89.534	-131.7507
7669.482141	89.865	-133.0878
7725.058371	90.183	-134.8098
7781.037328	90.477	-136.9290
7837.421932	90.732	-139.4365
7894.215122	90.935	-142.2965
7951.419859	91.074	-145.4470
8009.039125	91.139	-148.8028
8067.075924	91.123	-152.2621
8125.533282	91.024	-155.7172
8184.414245	90.844	-159.0611
8243.721885	90.586	-162.1922
8303.459292	90.259	-165.0173
8363.629581	89.872	-167.4569
8424.235888	89.438	-169.4490
8485.281374	88.972	-170.9537
8546.769221	88.489	-171.9585
8608.702634	88.004	-172.4761
8671.084842	87.532	-172.5369
8733.919097	87.083	-172.1823
8797.208675	86.666	-171.4598
8860.956876	86.291	-170.4227
8925.167022	85.964	-169.1352
8989.842461	85.689	-167.6747
9054.986566	85.469	-166.1255
9120.602731	85.301	-164.5690
9186.694378	85.180	-163.0731
9253.264952	85.098	-161.6859
9320.317925	85.046	-160.4348
9387.856790	85.015	-159.3271
9455.885071	84.995	-158.3458
9524.406312	84.979	-157.4449
9593.424086	84.962	-156.5503
9662.941992	84.949	-155.5700
9732.963653	84.948	-154.4192
9803.492719	84.978	-153.0510
9874.532869	85.059	-151.4817
9946.087805	85.209	-149.8009
10018.161257	85.440	-148.1591
10090.756983	85.751	-146.7372
10163.878768	86.134	-145.7110
10237.530423	86.566	-145.2190
10311.715789	87.025	-145.3407
10386.438732	87.486	-146.0916
10461.703149	87.926	-147.4329
10537.512962	88.331	-149.2918
10613.872125	88.691	-151.5835
10690.784618	88.998	-154.2240
10768.254450	89.250	-157.1349
10846.285661	89.445	-160.2434
10924.882318	89.585	-163.4844
11004.048518	89.672	-166.8055
11083.788390	89.712	-170.1702
11164.106090	89.707	-173.5559
11245.005805	89.659	-176.9459
11326.491752	89.570	179.6759
11408.568180	89.439	176.3261
11491.239368	89.268	173.0208
11574.509626	89.057	169.7768
11658.383294	88.803	166.6168
11742.864745	88.507	163.5720
11827.958384	88.169	160.6790
11913.668646	87.792	157.9730
12000.000000	87.378	155.4846
12086.956947	86.932	153.2415
12174.544019	86.457	151.2689
12262.765784	85.960	149.5872
12351.626840	85.447	148.2065
12441.131819	84.924	147.1259
12531.285389	84.398	146.3392
12622.092249	83.874	145.8377
12713.557132	83.358	145.6085
12805.684808	82.853	145.6323
12898.480079	82.364	145.8870
12991.947783	81.893	146.3533
13086.092792	81.443	147.0159
13180.920015	81.015	147.8572
13276.434395	80.612	148.8573
13372.640911	80.235	149.9977
13469.544580	79.885	151.2650
13567.150452	79.564	152.6459
13665.463617	79.272	154.1251
13764.489200	79.012	155.6871
13864.232362	78.785	157.3199
13964.698305	78.592	159.0122
14065.892266	78.437	160.7490
14167.819519	78.322	162.5133
14270.485380	78.252	164.2882
14373.895200	78.230	166.0527
14478.054370	78.262	167.7763
14582.968320	78.353	169.4210
14688.642520	78.508	170.9442
14795.082478	78.734	172.2937
14902.293745	79.038	173.4015
15010.281908	79.426	174.1829
15119.052599	79.901	174.5386
15228.611486	80.461	174.3535
15338.964283	81.099	173.5005
15450.116741	81.799	171.8520
15562.074656	82.534	169.2926
15674.843864	83.272	165.7317
15788.430244	83.974	161.1177
15902.839718	84.597	155.4552
16018.078250	85.100	148.8191
16134.151848	85.444	141.3632
16251.066563	85.597	133.3192
16368.828491	85.542	124.9806
16487.443769	85.276	116.6650
16606.918584	84.810	108.6656
16727.259161	84.171	101.2140
16848.471777	83.389	94.4630
16970.562748	82.501	88.4850
17093.538442	81.542	83.2831
17217.405268	80.544	78.8091
17342.169684	79.533	74.9808
17467.838194	78.531	71.6966
17594.417350	77.550	68.8518
17721.913751	76.597	66.3513
17850.334044	75.673	64.1138
17979.684923	74.771	62.0737
18109.973131	73.887	60.1835
18241.205462	73.010	58.4119
18373.388756	72.133	56.7416
18506.529905	71.246	55.1709
18640.635849	70.341	53.7125
18775.713581	69.410	52.3903
18911.770141	68.447	51.2394
19048.812624	67.447	50.3046
19186.848172	66.408	49.6357
19325.883983	65.333	49.2840
19465.927305	64.238	49.2929
19606.985439	63.162	49.6725
19749.065738	62.178	50.3518
19892.175609	61.401	51.1247
20036.322514	60.964	51.6579
