* Measurement data measured by REW V5.30 beta 5
* Source: EXCL: Microphone (Realtek(R) Audio), MICROPHONE (Master Volume), L, volume: 1.000
* Format: 256k Log Swept Sine, 1 sweep at -12.0 dBFS with no timing reference
* Dated: Dec 19, 2023 11:57:46 PM
* REW Settings:
*  C-weighting compensation: Off
*  Target level: 75.0 dB
* Note: 
* Measurement: R KBEAR Flash
* Smoothing: 1/24 octave
* Frequency Step: 96 ppo
* Start Frequency: 0.36621094 Hz
*
* Freq(Hz) SPL(dB) Phase(degrees)
0.366211 77.372 -28.6931
0.368865 77.364 -28.7429
0.371538 77.352 -28.8159
0.374230 77.338 -28.9005
0.376942 77.324 -28.9914
0.379673 77.310 -29.0866
0.382424 77.295 -29.1856
0.385196 77.281 -29.2882
0.387987 77.266 -29.3944
0.390798 77.251 -29.5043
0.393630 77.236 -29.6179
0.396483 77.221 -29.7352
0.399356 77.206 -29.8564
0.402250 77.190 -29.9814
0.405165 77.175 -30.1103
0.408101 77.159 -30.2431
0.411058 77.144 -30.3800
0.414037 77.128 -30.5209
0.417037 77.112 -30.6659
0.420059 77.096 -30.8150
0.423103 77.080 -30.9684
0.426169 77.064 -31.1260
0.429257 77.047 -31.2879
0.432367 77.031 -31.4542
0.435501 77.014 -31.6249
0.438656 76.997 -31.8000
0.441835 76.981 -31.9797
0.445037 76.964 -32.1639
0.448262 76.947 -32.3527
0.451510 76.929 -32.5462
0.454782 76.912 -32.7443
0.458077 76.895 -32.9473
0.461397 76.877 -33.1550
0.464740 76.859 -33.3677
0.468108 76.842 -33.5852
0.471500 76.824 -33.8077
0.474917 76.805 -34.0352
0.478358 76.787 -34.2677
0.481825 76.769 -34.5053
0.485316 76.750 -34.7481
0.488833 76.732 -34.9961
0.492375 76.713 -35.2493
0.495943 76.694 -35.5078
0.499537 76.675 -35.7716
0.503157 76.656 -36.0408
0.506803 76.637 -36.3153
0.510475 76.617 -36.5953
0.514174 76.598 -36.8808
0.517900 76.578 -37.1718
0.521653 76.558 -37.4684
0.525433 76.538 -37.7705
0.529241 76.518 -38.0782
0.533076 76.497 -38.3916
0.536939 76.477 -38.7106
0.540830 76.456 -39.0354
0.544749 76.436 -39.3658
0.548696 76.415 -39.7020
0.552673 76.394 -40.0439
0.556677 76.373 -40.3916
0.560711 76.351 -40.7450
0.564774 76.330 -41.1043
0.568867 76.308 -41.4693
0.572989 76.286 -41.8401
0.577141 76.264 -42.2168
0.581324 76.242 -42.5992
0.585536 76.220 -42.9874
0.589779 76.197 -43.3814
0.594053 76.175 -43.7811
0.598358 76.152 -44.1866
0.602694 76.129 -44.5979
0.607061 76.106 -45.0148
0.611460 76.082 -45.4374
0.615891 76.059 -45.8657
0.620354 76.035 -46.2995
0.624849 76.012 -46.7389
0.629377 75.988 -47.1839
0.633938 75.963 -47.6342
0.638532 75.939 -48.0901
0.643159 75.915 -48.5512
0.647819 75.890 -49.0177
0.652514 75.865 -49.4894
0.657242 75.840 -49.9662
0.662005 75.815 -50.4481
0.666802 75.789 -50.9350
0.671634 75.764 -51.4269
0.676501 75.738 -51.9235
0.681403 75.712 -52.4249
0.686341 75.686 -52.9309
0.691314 75.660 -53.4414
0.696324 75.633 -53.9564
0.701369 75.606 -54.4757
0.706452 75.579 -54.9992
0.711571 75.552 -55.5268
0.716727 75.525 -56.0584
0.721921 75.498 -56.5943
0.727153 75.471 -57.1348
0.732422 75.444 -57.6815
0.737729 75.419 -58.2370
0.743075 75.395 -58.8043
0.748460 75.370 -59.3850
0.753883 75.345 -59.9799
0.759346 75.320 -60.5895
0.764849 75.294 -61.2141
0.770391 75.267 -61.8537
0.775974 75.240 -62.5087
0.781597 75.212 -63.1791
0.787261 75.184 -63.8652
0.792965 75.156 -64.5671
0.798712 75.127 -65.2850
0.804499 75.098 -66.0188
0.810329 75.068 -66.7689
0.816201 75.039 -67.5351
0.822116 75.008 -68.3177
0.828073 74.978 -69.1165
0.834073 74.947 -69.9318
0.840118 74.917 -70.7634
0.846205 74.886 -71.6112
0.852337 74.855 -72.4754
0.858514 74.824 -73.3557
0.864735 74.793 -74.2520
0.871001 74.762 -75.1642
0.877313 74.731 -76.0921
0.883670 74.701 -77.0355
0.890074 74.670 -77.9941
0.896523 74.640 -78.9676
0.903020 74.610 -79.9557
0.909564 74.581 -80.9581
0.916155 74.552 -81.9742
0.922793 74.524 -83.0038
0.929480 74.496 -84.0462
0.936216 74.469 -85.1011
0.943000 74.442 -86.1679
0.949833 74.417 -87.2459
0.956716 74.392 -88.3346
0.963649 74.368 -89.4334
0.970632 74.345 -90.5415
0.977666 74.324 -91.6584
0.984750 74.304 -92.7834
0.991886 74.285 -93.9156
0.999074 74.267 -95.0544
1.006313 74.251 -96.1992
1.013605 74.237 -97.3490
1.020950 74.224 -98.5032
1.028349 74.214 -99.6612
1.035801 74.205 -100.8221
1.043306 74.198 -101.9852
1.050867 74.194 -103.1500
1.058482 74.192 -104.3157
1.066152 74.193 -105.4817
1.073878 74.196 -106.6476
1.081659 74.202 -107.8130
1.089498 74.210 -108.9780
1.097393 74.222 -110.1440
1.105345 74.237 -111.3139
1.113355 74.255 -112.4909
1.121422 74.277 -113.6770
1.129549 74.301 -114.8729
1.137734 74.328 -116.0785
1.145978 74.359 -117.2937
1.154283 74.392 -118.5181
1.162647 74.429 -119.7512
1.171072 74.468 -120.9925
1.179558 74.511 -122.2414
1.188106 74.556 -123.4972
1.196715 74.604 -124.7593
1.205387 74.655 -126.0269
1.214122 74.708 -127.2991
1.222920 74.764 -128.5750
1.231781 74.822 -129.8538
1.240708 74.884 -131.1344
1.249698 74.947 -132.4157
1.258754 75.013 -133.6968
1.267875 75.081 -134.9766
1.277063 75.151 -136.2538
1.286317 75.223 -137.5273
1.295638 75.297 -138.7960
1.305027 75.373 -140.0587
1.314484 75.450 -141.3141
1.324009 75.529 -142.5611
1.333603 75.610 -143.7985
1.343267 75.692 -145.0252
1.353001 75.775 -146.2400
1.362805 75.859 -147.4417
1.372681 75.944 -148.6294
1.382628 76.029 -149.8018
1.392647 76.116 -150.9580
1.402739 76.202 -152.0971
1.412904 76.289 -153.2181
1.423142 76.376 -154.3200
1.433455 76.463 -155.4023
1.443842 76.549 -156.4642
1.454305 76.635 -157.5061
1.464843 76.722 -158.5291
1.475458 76.809 -159.5365
1.486150 76.898 -160.5313
1.496919 76.989 -161.5153
1.507766 77.083 -162.4892
1.518692 77.179 -163.4530
1.529697 77.277 -164.4067
1.540782 77.377 -165.3504
1.551947 77.479 -166.2838
1.563193 77.584 -167.2069
1.574521 77.690 -168.1196
1.585931 77.798 -169.0218
1.597423 77.908 -169.9134
1.608998 78.019 -170.7943
1.620658 78.131 -171.6644
1.632402 78.245 -172.5237
1.644231 78.360 -173.3720
1.656146 78.475 -174.2093
1.668147 78.592 -175.0356
1.680235 78.709 -175.8506
1.692410 78.827 -176.6545
1.704674 78.945 -177.4472
1.717027 79.062 -178.2285
1.729469 79.180 -178.9984
1.742002 79.298 -179.7568
1.754625 79.415 179.4962
1.767340 79.531 178.7607
1.780147 79.646 178.0369
1.793046 79.761 177.3245
1.806040 79.873 176.6236
1.819127 79.984 175.9337
1.832309 80.094 175.2534
1.845587 80.203 174.5808
1.858961 80.311 173.9141
1.872431 80.419 173.2523
1.886000 80.526 172.5953
1.899666 80.633 171.9431
1.913432 80.739 171.2959
1.927298 80.845 170.6540
1.941264 80.951 170.0176
1.955331 81.057 169.3871
1.969500 81.162 168.7627
1.983772 81.267 168.1448
1.998147 81.372 167.5338
2.012626 81.476 166.9298
2.027211 81.580 166.3334
2.041901 81.684 165.7450
2.056697 81.788 165.1648
2.071601 81.891 164.5933
2.086613 81.995 164.0309
2.101733 82.098 163.4780
2.116963 82.201 162.9351
2.132303 82.304 162.4025
2.147755 82.406 161.8806
2.163318 82.509 161.3698
2.178995 82.611 160.8702
2.194785 82.714 160.3815
2.210689 82.816 159.9023
2.226709 82.917 159.4312
2.242844 83.018 158.9672
2.259097 83.118 158.5097
2.275467 83.217 158.0585
2.291956 83.316 157.6134
2.308565 83.414 157.1744
2.325294 83.511 156.7414
2.342144 83.609 156.3144
2.359116 83.706 155.8932
2.376211 83.802 155.4781
2.393430 83.899 155.0688
2.410774 83.995 154.6655
2.428243 84.091 154.2682
2.445839 84.187 153.8770
2.463562 84.283 153.4919
2.481415 84.380 153.1131
2.499396 84.477 152.7405
2.517508 84.574 152.3745
2.535750 84.672 152.0151
2.554126 84.770 151.6627
2.572634 84.868 151.3175
2.591276 84.966 150.9799
2.610054 85.065 150.6499
2.628967 85.163 150.3270
2.648018 85.261 150.0107
2.667206 85.359 149.7006
2.686534 85.457 149.3958
2.706002 85.554 149.0960
2.725610 85.652 148.8004
2.745361 85.750 148.5085
2.765255 85.848 148.2198
2.785294 85.946 147.9337
2.805477 86.045 147.6497
2.825807 86.144 147.3672
2.846284 86.243 147.0857
2.866909 86.343 146.8048
2.887684 86.443 146.5242
2.908609 86.544 146.2437
2.929686 86.645 145.9639
2.950916 86.747 145.6860
2.972299 86.850 145.4113
2.993838 86.953 145.1402
3.015532 87.056 144.8723
3.037384 87.159 144.6071
3.059394 87.263 144.3439
3.081564 87.367 144.0820
3.103894 87.471 143.8207
3.126386 87.576 143.5594
3.149041 87.681 143.2973
3.171861 87.786 143.0337
3.194845 87.892 142.7680
3.217996 87.997 142.4995
3.241315 88.103 142.2275
3.264803 88.209 141.9518
3.288461 88.316 141.6725
3.312291 88.423 141.3906
3.336293 88.530 141.1075
3.360469 88.637 140.8240
3.384820 88.745 140.5400
3.409348 88.853 140.2551
3.434054 88.962 139.9688
3.458938 89.070 139.6805
3.484003 89.179 139.3894
3.509250 89.287 139.0952
3.534679 89.396 138.7969
3.560293 89.504 138.4940
3.586092 89.612 138.1859
3.612079 89.720 137.8718
3.638253 89.828 137.5515
3.664618 89.935 137.2245
3.691173 90.042 136.8916
3.717921 90.149 136.5532
3.744862 90.256 136.2100
3.771999 90.362 135.8621
3.799332 90.468 135.5100
3.826864 90.574 135.1538
3.854595 90.679 134.7937
3.882527 90.784 134.4299
3.910661 90.889 134.0623
3.938999 90.992 133.6912
3.967543 91.095 133.3165
3.996294 91.198 132.9380
4.025252 91.299 132.5552
4.054421 91.400 132.1674
4.083801 91.499 131.7740
4.113394 91.598 131.3752
4.143201 91.696 130.9715
4.173225 91.793 130.5635
4.203466 91.890 130.1522
4.233926 91.985 129.7383
4.264606 92.080 129.3226
4.295509 92.173 128.9058
4.326636 92.266 128.4884
4.357989 92.358 128.0706
4.389569 92.448 127.6522
4.421378 92.538 127.2317
4.453417 92.626 126.8076
4.485688 92.713 126.3799
4.518193 92.798 125.9490
4.550934 92.883 125.5162
4.583912 92.966 125.0825
4.617129 93.049 124.6492
4.650587 93.130 124.2176
4.684287 93.210 123.7887
4.718231 93.290 123.3635
4.752421 93.368 122.9419
4.786859 93.446 122.5229
4.821547 93.522 122.1048
4.856485 93.597 121.6870
4.891677 93.671 121.2698
4.927125 93.743 120.8541
4.962829 93.815 120.4407
4.998791 93.886 120.0309
5.035015 93.956 119.6256
5.071500 94.026 119.2260
5.108251 94.095 118.8325
5.145267 94.164 118.4449
5.182552 94.232 118.0623
5.220107 94.299 117.6840
5.257934 94.365 117.3095
5.296035 94.431 116.9392
5.334412 94.496 116.5732
5.373067 94.561 116.2119
5.412003 94.626 115.8557
5.451221 94.691 115.5049
5.490722 94.756 115.1600
5.530510 94.821 114.8211
5.570587 94.886 114.4882
5.610953 94.951 114.1606
5.651613 95.016 113.8378
5.692567 95.081 113.5191
5.733818 95.146 113.2039
5.775367 95.212 112.8914
5.817218 95.278 112.5815
5.859372 95.345 112.2742
5.901831 95.413 111.9702
5.944598 95.481 111.6701
5.987675 95.549 111.3732
6.031065 95.618 111.0787
6.074768 95.688 110.7852
6.118788 95.758 110.4915
6.163127 95.829 110.1964
6.207788 95.900 109.8992
6.252772 95.972 109.6003
6.298082 96.045 109.3005
6.343721 96.119 108.9999
6.389690 96.193 108.6980
6.435992 96.267 108.3939
6.482630 96.342 108.0864
6.529606 96.418 107.7747
6.576922 96.493 107.4581
6.624581 96.569 107.1362
6.672585 96.645 106.8098
6.720938 96.721 106.4790
6.769640 96.798 106.1441
6.818696 96.874 105.8049
6.868107 96.951 105.4612
6.917876 97.027 105.1129
6.968006 97.103 104.7595
7.018499 97.178 104.4006
7.069358 97.253 104.0364
7.120586 97.328 103.6677
7.172184 97.402 103.2953
7.224157 97.475 102.9203
7.276506 97.548 102.5432
7.329235 97.620 102.1643
7.382345 97.692 101.7828
7.435841 97.762 101.3985
7.489724 97.832 101.0121
7.543997 97.901 100.6250
7.598664 97.969 100.2385
7.653728 98.037 99.8540
7.709189 98.104 99.4716
7.765053 98.170 99.0908
7.821322 98.235 98.7113
7.877998 98.299 98.3337
7.935086 98.363 97.9591
7.992587 98.427 97.5884
8.050504 98.491 97.2225
8.108841 98.554 96.8615
8.167601 98.616 96.5051
8.226787 98.679 96.1529
8.286402 98.741 95.8046
8.346449 98.804 95.4604
8.406931 98.867 95.1205
8.467851 98.930 94.7850
8.529212 98.994 94.4540
8.591018 99.058 94.1268
8.653272 99.123 93.8022
8.715977 99.188 93.4789
8.779137 99.254 93.1562
8.842754 99.320 92.8342
8.906833 99.388 92.5130
8.971375 99.456 92.1918
9.036386 99.525 91.8691
9.101867 99.594 91.5431
9.167823 99.664 91.2130
9.234257 99.734 90.8789
9.301172 99.805 90.5407
9.368572 99.876 90.1981
9.436460 99.947 89.8501
9.504841 100.018 89.4959
9.573717 100.089 89.1349
9.643092 100.160 88.7674
9.712970 100.230 88.3939
9.783354 100.300 88.0153
9.854248 100.368 87.6319
9.925656 100.436 87.2437
9.997581 100.502 86.8505
10.070028 100.568 86.4534
10.143000 100.632 86.0542
10.216500 100.695 85.6549
10.290533 100.756 85.2561
10.365103 100.816 84.8576
10.440212 100.874 84.4603
10.515866 100.931 84.0664
10.592069 100.987 83.6778
10.668823 101.041 83.2956
10.746134 101.095 82.9197
10.824005 101.147 82.5503
10.902440 101.199 82.1885
10.981443 101.250 81.8353
11.061020 101.301 81.4911
11.141172 101.352 81.1556
11.221906 101.402 80.8279
11.303225 101.454 80.5071
11.385133 101.505 80.1928
11.467634 101.557 79.8850
11.550734 101.610 79.5822
11.634435 101.664 79.2822
11.718742 101.719 78.9832
11.803661 101.774 78.6844
11.889195 101.831 78.3850
11.975349 101.888 78.0834
12.062128 101.946 77.7774
12.149535 102.004 77.4658
12.237576 102.063 77.1484
12.326254 102.121 76.8250
12.415575 102.180 76.4950
12.505544 102.238 76.1579
12.596164 102.295 75.8138
12.687441 102.352 75.4637
12.779379 102.407 75.1088
12.871984 102.462 74.7498
12.965260 102.515 74.3873
13.059211 102.567 74.0226
13.153843 102.618 73.6577
13.249161 102.667 73.2937
13.345170 102.716 72.9311
13.441875 102.763 72.5706
13.539280 102.810 72.2133
13.637391 102.856 71.8600
13.736214 102.901 71.5103
13.835752 102.947 71.1637
13.936011 102.992 70.8199
14.036998 103.037 70.4784
14.138716 103.082 70.1385
14.241171 103.128 69.7987
14.344368 103.174 69.4579
14.448313 103.219 69.1157
14.553011 103.265 68.7712
14.658468 103.311 68.4239
14.764689 103.356 68.0731
14.871680 103.401 67.7194
14.979446 103.445 67.3635
15.087994 103.489 67.0058
15.197328 103.532 66.6472
15.307454 103.574 66.2892
15.418378 103.615 65.9331
15.530106 103.656 65.5800
15.642643 103.696 65.2305
15.755996 103.737 64.8855
15.870171 103.777 64.5454
15.985172 103.818 64.2094
16.101007 103.860 63.8763
16.217682 103.903 63.5450
16.335201 103.947 63.2135
16.453573 103.992 62.8789
16.572803 104.038 62.5386
16.692898 104.086 62.1908
16.813862 104.134 61.8329
16.935701 104.183 61.4628
17.058424 104.231 61.0800
17.182035 104.279 60.6846
17.306543 104.326 60.2771
17.431953 104.371 59.8592
17.558273 104.414 59.4345
17.685509 104.455 59.0061
17.813665 104.493 58.5775
17.942751 104.528 58.1534
18.072771 104.562 57.7377
18.203733 104.593 57.3331
18.335646 104.624 56.9426
18.468513 104.654 56.5674
18.602345 104.685 56.2071
18.737144 104.717 55.8602
18.872921 104.750 55.5244
19.009682 104.785 55.1954
19.147434 104.822 54.8683
19.286184 104.861 54.5393
19.425940 104.903 54.2032
19.566708 104.945 53.8566
19.708496 104.988 53.4976
19.851313 105.031 53.1247
19.995163 105.072 52.7387
20.140057 105.112 52.3424
20.285999 105.150 51.9387
20.433001 105.185 51.5320
20.581066 105.218 51.1275
20.730206 105.248 50.7292
20.880424 105.276 50.3409
21.031733 105.303 49.9655
21.184137 105.330 49.6039
21.337646 105.356 49.2556
21.492268 105.383 48.9192
21.648010 105.411 48.5912
21.804880 105.440 48.2682
21.962887 105.471 47.9463
22.122040 105.502 47.6219
22.282345 105.535 47.2928
22.443811 105.567 46.9574
22.606449 105.599 46.6156
22.770266 105.630 46.2688
22.935268 105.660 45.9185
23.101467 105.689 45.5674
23.268869 105.716 45.2176
23.437485 105.743 44.8710
23.607323 105.769 44.5288
23.778391 105.795 44.1908
23.950699 105.821 43.8559
24.124256 105.848 43.5226
24.299070 105.874 43.1886
24.475151 105.901 42.8519
24.652508 105.928 42.5108
24.831150 105.955 42.1645
25.011087 105.981 41.8129
25.192327 106.006 41.4572
25.374882 106.030 41.0990
25.558758 106.052 40.7405
25.743967 106.073 40.3841
25.930519 106.093 40.0319
26.118422 106.112 39.6857
26.307686 106.130 39.3465
26.498322 106.148 39.0150
26.690340 106.166 38.6910
26.883749 106.185 38.3740
27.078560 106.204 38.0630
27.274782 106.223 37.7566
27.472427 106.244 37.4529
27.671503 106.266 37.1497
27.872023 106.289 36.8446
28.073996 106.313 36.5349
28.277431 106.338 36.2179
28.482342 106.363 35.8917
28.688736 106.388 35.5553
28.896626 106.412 35.2089
29.106022 106.435 34.8543
29.316936 106.456 34.4949
29.529379 106.475 34.1347
29.743361 106.492 33.7784
29.958893 106.508 33.4297
30.175987 106.523 33.0914
30.394655 106.538 32.7639
30.614908 106.553 32.4456
30.836756 106.570 32.1328
31.060211 106.588 31.8210
31.285286 106.608 31.5047
31.511992 106.629 31.1802
31.740341 106.650 30.8451
31.970345 106.671 30.4990
32.202015 106.690 30.1434
32.435364 106.709 29.7812
32.670403 106.726 29.4158
32.907146 106.741 29.0504
33.145607 106.755 28.6875
33.385796 106.768 28.3288
33.627724 106.780 27.9756
33.871403 106.791 27.6288
34.116848 106.802 27.2896
34.364071 106.813 26.9587
34.613087 106.824 26.6371
34.863907 106.835 26.3242
35.116547 106.848 26.0182
35.371017 106.862 25.7159
35.627331 106.877 25.4131
35.885502 106.893 25.1058
36.145542 106.910 24.7914
36.407467 106.926 24.4690
36.671291 106.941 24.1404
36.937027 106.954 23.8086
37.204689 106.966 23.4768
37.474289 106.977 23.1469
37.745842 106.986 22.8191
38.019363 106.994 22.4921
38.294868 107.001 22.1645
38.572369 107.006 21.8367
38.851879 107.009 21.5122
39.133415 107.009 21.1970
39.416992 107.008 20.8976
39.702625 107.007 20.6176
39.990326 107.007 20.3539
40.280113 107.011 20.0964
40.571999 107.020 19.8287
40.866001 107.032 19.5342
41.162132 107.045 19.2023
41.460411 107.055 18.8336
41.760849 107.061 18.4404
42.063465 107.062 18.0435
42.368275 107.058 17.6647
42.675293 107.052 17.3176
42.984535 107.047 17.0038
43.296021 107.047 16.7130
43.609760 107.052 16.4288
43.925774 107.061 16.1368
44.244080 107.071 15.8308
44.564690 107.081 15.5150
44.887623 107.089 15.1997
45.212898 107.095 14.8950
45.540531 107.100 14.6067
45.870537 107.106 14.3354
46.202934 107.111 14.0791
46.537739 107.116 13.8353
46.874969 107.121 13.6031
47.214645 107.127 13.3795
47.556782 107.133 13.1560
47.901398 107.141 12.9187
48.248512 107.149 12.6526
48.598141 107.154 12.3500
48.950302 107.152 12.0156
49.305016 107.143 11.6663
49.662300 107.127 11.3237
50.022175 107.107 11.0032
50.384655 107.086 10.7062
50.749763 107.068 10.4213
51.117516 107.054 10.1325
51.487934 107.043 9.8295
51.861038 107.034 9.5134
52.236843 107.025 9.1940
52.615372 107.019 8.8813
52.996643 107.017 8.5791
53.380680 107.018 8.2842
53.767498 107.024 7.9913
54.157120 107.032 7.6979
54.549564 107.041 7.4071
54.944855 107.049 7.1266
55.343006 107.054 6.8679
55.744045 107.057 6.6422
56.147991 107.060 6.4521
56.554863 107.065 6.2806
56.964684 107.073 6.0911
57.377472 107.078 5.8478
57.793251 107.072 5.5490
58.212044 107.050 5.2418
58.633873 107.014 4.9944
59.058758 106.976 4.8378
59.486721 106.951 4.7271
59.917786 106.943 4.5688
60.351974 106.943 4.2980
60.789310 106.942 3.9281
61.229816 106.938 3.5168
61.673512 106.940 3.0901
62.120422 106.954 2.6134
62.570572 106.975 2.0455
63.023983 106.990 1.4028
63.480682 106.997 0.7441
63.940689 107.000 0.0995
64.404030 106.996 -0.5490
64.870728 106.972 -1.1783
65.340805 106.915 -1.6407
65.814293 106.840 -1.7291
66.291214 106.791 -1.3922
66.771591 106.805 -0.8732
67.255447 106.876 -0.5504
67.742805 106.953 -0.6118
68.233696 106.996 -0.9381
68.728142 106.997 -1.2892
69.226173 106.977 -1.5359
69.727814 106.954 -1.7121
70.233093 106.931 -1.8953
70.742035 106.902 -2.1021
71.254662 106.869 -2.3118
71.771004 106.837 -2.5263
72.291084 106.806 -2.7621
72.814934 106.772 -3.0065
73.342583 106.740 -3.2235
73.874054 106.716 -3.4056
74.409378 106.704 -3.5894
74.948578 106.704 -3.8210
75.491684 106.708 -4.1217
76.038727 106.711 -4.4810
76.589737 106.706 -4.8630
77.144737 106.694 -5.2175
77.703758 106.679 -5.5059
78.266830 106.670 -5.7325
78.833984 106.672 -5.9498
79.405251 106.683 -6.2289
79.980652 106.695 -6.6234
80.560226 106.695 -7.1369
81.143997 106.673 -7.7072
81.732002 106.627 -8.2208
82.324265 106.568 -8.5713
82.920822 106.518 -8.7341
83.521698 106.494 -8.8004
84.126930 106.498 -8.9233
84.736549 106.511 -9.2013
85.350586 106.508 -9.5931
85.969070 106.480 -9.9475
86.592041 106.435 -10.1276
87.219521 106.390 -10.1240
87.851547 106.356 -10.0415
88.488159 106.328 -9.9888
89.129379 106.298 -10.0137
89.775246 106.263 -10.1350
90.425797 106.221 -10.3641
91.081062 106.170 -10.6747
91.741074 106.118 -11.0121
92.405869 106.077 -11.3584
93.075478 106.052 -11.7303
93.749939 106.042 -12.1145
94.429291 106.041 -12.4659
95.113564 106.046 -12.7599
95.802795 106.048 -12.9890
96.497025 106.037 -13.1661
97.196281 106.003 -13.3441
97.900604 105.932 -13.5273
98.610031 105.822 -13.5970
99.324600 105.709 -13.5035
100.044350 105.632 -13.4763
100.769310 105.591 -13.7963
101.499527 105.561 -14.4291
102.235031 105.534 -15.0826
102.975868 105.525 -15.4885
103.722076 105.547 -15.5369
104.473686 105.598 -15.2919
105.230743 105.652 -14.8996
105.993286 105.678 -14.4708
106.761360 105.655 -14.1163
107.534996 105.576 -13.9679
108.314240 105.455 -14.1078
109.099129 105.332 -14.5960
109.889709 105.263 -15.5039
110.686012 105.285 -16.8123
111.488091 105.393 -18.2609
112.295982 105.547 -19.3502
113.109726 105.688 -19.4980
113.929367 105.770 -18.0649
114.754944 105.810 -14.7371
115.586502 105.840 -10.0232
116.424088 105.877 -4.3746
117.267746 106.016 3.1410
118.117516 106.463 15.1449
118.973442 107.316 28.8688
119.835571 108.160 32.4267
120.703949 108.372 24.8142
121.578621 107.744 12.2032
122.459633 106.609 -0.5986
123.347023 105.665 -10.7944
124.240845 105.496 -17.0228
125.141144 106.104 -19.4326
126.047966 107.080 -19.8810
126.961365 107.962 -20.9306
127.881378 108.352 -23.4412
128.808060 108.091 -25.5797
129.741455 107.362 -25.3768
130.681610 106.496 -23.3824
131.628586 105.689 -21.3251
132.582428 105.007 -19.6210
133.543182 104.517 -17.8440
134.510895 104.294 -15.8077
135.485611 104.331 -14.1879
136.467392 104.462 -13.7111
137.456284 104.534 -13.9584
138.452347 104.549 -14.6133
139.455627 104.522 -16.0779
140.466187 104.441 -18.2860
141.484070 104.347 -20.6644
142.509323 104.300 -22.8136
143.542007 104.295 -24.6605
144.582169 104.258 -25.8400
145.629868 104.180 -25.6130
146.685165 104.147 -24.2346
147.748108 104.175 -22.8777
148.818756 104.218 -22.1072
149.897156 104.252 -21.9905
150.983368 104.257 -22.6117
152.077454 104.190 -23.8699
153.179474 104.018 -25.0894
154.289474 103.796 -25.4396
155.407516 103.640 -24.6334
156.533661 103.642 -23.3597
157.667969 103.758 -22.4777
158.810501 103.889 -21.9866
159.961304 103.977 -21.5349
161.120453 104.010 -20.9695
162.287994 103.994 -20.5292
163.464005 103.931 -20.5181
164.648529 103.832 -20.9224
165.841644 103.745 -21.4927
167.043396 103.716 -22.1169
168.253860 103.725 -22.7043
169.473099 103.720 -22.9856
170.701172 103.677 -22.8093
171.938141 103.615 -22.5090
173.184082 103.572 -22.5721
174.439041 103.603 -23.0876
175.703094 103.771 -23.4985
176.976318 104.121 -22.7755
178.258759 104.685 -19.9594
179.550491 105.484 -15.1525
180.851593 106.425 -10.4944
182.162125 107.202 -9.1506
183.482147 107.401 -12.1458
184.811737 106.813 -16.6667
186.150955 105.697 -19.7577
187.499878 104.606 -21.3971
188.858582 103.964 -21.8326
190.227127 103.773 -20.4801
191.605591 103.783 -17.1582
192.994049 103.783 -13.2440
194.392563 103.596 -11.6547
195.801208 103.056 -13.9653
197.220062 102.249 -19.0095
198.649200 101.587 -23.8355
200.088699 101.516 -24.7742
201.538620 101.997 -23.6184
202.999054 102.537 -23.7743
204.470062 102.841 -24.3712
205.951736 102.907 -24.5761
207.444153 102.852 -24.4801
208.947372 102.800 -24.4000
210.461487 102.797 -24.3409
211.986572 102.826 -23.8745
213.522720 102.865 -22.8963
215.069992 102.897 -21.8852
216.628479 102.903 -21.5720
218.198257 102.844 -22.2648
219.779419 102.716 -23.3021
221.372025 102.577 -23.9771
222.976181 102.481 -24.1443
224.591965 102.430 -24.0657
226.219452 102.393 -24.0208
227.858734 102.340 -24.1143
229.509888 102.262 -24.2643
231.173004 102.180 -24.3549
232.848175 102.121 -24.2983
234.535492 102.108 -24.1394
236.235031 102.126 -24.0351
237.946884 102.144 -23.9666
239.671143 102.139 -23.9193
241.407898 102.105 -23.9321
243.157242 102.045 -23.9954
244.919266 101.975 -24.0879
246.694046 101.902 -24.1969
248.481689 101.825 -24.2781
250.282288 101.750 -24.2642
252.095932 101.684 -24.1017
253.922729 101.636 -23.8274
255.762756 101.602 -23.5315
257.616119 101.577 -23.3151
259.482910 101.565 -23.2427
261.363220 101.572 -23.2794
263.257172 101.597 -23.2471
265.164856 101.622 -23.0688
267.086365 101.608 -22.9431
269.021790 101.521 -23.0129
270.971222 101.383 -23.1618
272.934784 101.259 -23.3079
274.912567 101.192 -23.3384
276.904694 101.184 -23.1636
278.911255 101.201 -22.9145
280.932373 101.205 -22.6973
282.968140 101.185 -22.5024
285.018646 101.155 -22.2621
287.084015 101.135 -22.0065
289.164337 101.130 -21.8773
291.259735 101.128 -21.9479
293.370331 101.118 -22.1292
295.496216 101.095 -22.2913
297.637512 101.060 -22.3765
299.794312 101.018 -22.3998
301.966736 100.974 -22.3872
304.154907 100.928 -22.3401
306.358948 100.883 -22.2644
308.578949 100.841 -22.1770
310.815033 100.804 -22.0991
313.067322 100.768 -22.0475
315.335938 100.731 -22.0212
317.621002 100.686 -22.0001
319.922607 100.637 -21.9547
322.240906 100.587 -21.8661
324.575989 100.542 -21.7323
326.928009 100.500 -21.5765
329.297058 100.458 -21.4238
331.683289 100.416 -21.2878
334.086792 100.379 -21.1475
336.507721 100.349 -20.9988
338.946198 100.319 -20.8626
341.402344 100.283 -20.7311
343.876282 100.241 -20.5865
346.368164 100.198 -20.4275
348.878082 100.157 -20.2588
351.406189 100.120 -20.1150
353.952637 100.084 -20.0143
356.517517 100.047 -19.9259
359.100983 100.009 -19.8149
361.703186 99.969 -19.6703
364.324249 99.929 -19.5067
366.964294 99.891 -19.3430
369.623474 99.855 -19.1792
372.301910 99.821 -19.0005
374.999756 99.787 -18.8071
377.717163 99.752 -18.6174
380.454254 99.717 -18.4520
383.211182 99.681 -18.3170
385.988098 99.643 -18.1835
388.785126 99.604 -18.0167
391.602417 99.565 -17.8160
394.440125 99.531 -17.5974
397.298401 99.502 -17.3750
400.177399 99.472 -17.1699
403.077240 99.440 -16.9811
405.998108 99.407 -16.7949
408.940125 99.377 -16.6278
411.903473 99.349 -16.4728
414.888306 99.318 -16.2831
417.894745 99.281 -16.0334
420.922974 99.237 -15.7524
423.973145 99.189 -15.4803
427.045441 99.146 -15.2213
430.139984 99.112 -14.9589
433.256958 99.085 -14.6959
436.396515 99.061 -14.4410
439.558838 99.036 -14.1860
442.744049 99.009 -13.9174
445.952362 98.983 -13.6348
449.183929 98.961 -13.3522
452.438904 98.945 -13.1086
455.717468 98.931 -12.9327
459.019775 98.911 -12.8071
462.346008 98.881 -12.6912
465.696350 98.845 -12.5474
469.070984 98.808 -12.3540
472.470062 98.771 -12.1093
475.893768 98.736 -11.8251
479.342285 98.707 -11.5219
482.815796 98.681 -11.2389
486.314484 98.652 -10.9988
489.838531 98.617 -10.7773
493.388092 98.576 -10.5208
496.963379 98.537 -10.2003
500.564575 98.503 -9.8367
504.191864 98.475 -9.4690
507.845459 98.450 -9.1294
511.525513 98.425 -8.8264
515.232239 98.399 -8.5425
518.965820 98.371 -8.2534
522.726440 98.342 -7.9478
526.514343 98.310 -7.6117
530.329712 98.277 -7.2322
534.172729 98.249 -6.8307
538.043579 98.227 -6.4495
541.942444 98.208 -6.0941
545.869568 98.188 -5.7299
549.825134 98.167 -5.3393
553.809387 98.150 -4.9390
557.822510 98.137 -4.5464
561.864746 98.123 -4.1689
565.936279 98.107 -3.8077
570.037292 98.088 -3.4569
574.168030 98.068 -3.0945
578.328674 98.050 -2.7015
582.519470 98.035 -2.2952
586.740662 98.022 -1.9014
590.992432 98.007 -1.5046
595.275024 97.992 -1.0734
599.588623 97.979 -0.6103
603.933472 97.970 -0.1510
608.309814 97.963 0.2806
612.717896 97.958 0.6857
617.157898 97.951 1.0757
621.630066 97.942 1.4752
626.134644 97.932 1.9186
630.671875 97.925 2.4231
635.242004 97.925 2.9506
639.845215 97.929 3.4449
644.481812 97.934 3.9099
649.151978 97.938 4.3843
653.856018 97.944 4.8892
658.594116 97.958 5.4149
663.366577 97.981 5.9111
668.173584 98.009 6.3269
673.015442 98.036 6.6747
677.892395 98.057 7.0074
682.804688 98.073 7.3555
687.752563 98.087 7.7117
692.736328 98.098 8.0620
697.756165 98.107 8.4222
702.812378 98.117 8.8090
707.905273 98.131 9.2177
713.035034 98.149 9.6323
718.201965 98.169 10.0302
723.406372 98.187 10.4106
728.648499 98.204 10.7931
733.928589 98.221 11.1873
739.246948 98.238 11.5889
744.603821 98.256 11.9860
749.999512 98.276 12.3760
755.434326 98.296 12.7682
760.908508 98.318 13.1689
766.422363 98.340 13.5758
771.976196 98.364 13.9896
777.570251 98.388 14.4061
783.204834 98.414 14.8126
788.880249 98.440 15.2047
794.596802 98.466 15.6001
800.354797 98.492 16.0221
806.154480 98.521 16.4744
811.996216 98.555 16.9324
817.880249 98.595 17.3793
823.806946 98.642 17.8093
829.776611 98.693 18.1930
835.789490 98.743 18.5051
841.845947 98.785 18.7787
847.946289 98.822 19.0624
854.090881 98.857 19.3712
860.279968 98.892 19.6810
866.513916 98.924 19.9824
872.793030 98.955 20.3080
879.117676 98.988 20.6682
885.488098 99.026 21.0322
891.904724 99.067 21.3754
898.367859 99.108 21.7036
904.877808 99.147 22.0442
911.434937 99.187 22.4075
918.039551 99.230 22.7766
924.692017 99.274 23.1456
931.392700 99.321 23.5078
938.141968 99.371 23.8464
944.940125 99.422 24.1581
951.787537 99.472 24.4576
958.684570 99.522 24.7535
965.631592 99.570 25.0463
972.628967 99.617 25.3575
979.677063 99.667 25.6886
986.776184 99.718 26.0052
993.926758 99.768 26.2917
1001.129150 99.816 26.5793
1008.383728 99.863 26.9050
1015.690918 99.913 27.2531
1023.051025 99.966 27.6080
1030.464478 100.026 27.9852
1037.931641 100.095 28.3672
1045.452881 100.173 28.6915
1053.028687 100.250 28.9386
1060.659424 100.322 29.1363
1068.345459 100.388 29.3081
1076.087158 100.450 29.4829
1083.884888 100.510 29.6830
1091.739136 100.572 29.8965
1099.650269 100.635 30.1060
1107.618774 100.698 30.3109
1115.645020 100.759 30.5108
1123.729492 100.820 30.7057
1131.872559 100.881 30.9003
1140.074585 100.942 31.1017
1148.336060 101.004 31.3114
1156.657349 101.067 31.5192
1165.038940 101.130 31.7181
1173.481323 101.193 31.9228
1181.984863 101.258 32.1553
1190.550049 101.329 32.4140
1199.177246 101.409 32.6691
1207.866943 101.497 32.8695
1216.619629 101.585 32.9895
1225.435791 101.667 33.0655
1234.315796 101.742 33.1288
1243.260132 101.813 33.1837
1252.269287 101.880 33.2523
1261.343750 101.947 33.3391
1270.484009 102.014 33.4237
1279.690430 102.079 33.5090
1288.963623 102.142 33.6129
1298.303955 102.207 33.7331
1307.712036 102.274 33.8642
1317.188232 102.345 33.9935
1326.733154 102.416 34.1115
1336.347168 102.487 34.2206
1346.030884 102.556 34.3262
1355.784790 102.625 34.4386
1365.609375 102.695 34.5512
1375.505127 102.763 34.6653
1385.472656 102.831 34.8080
1395.512329 102.903 34.9892
1405.624756 102.981 35.2061
1415.810547 103.071 35.4323
1426.070068 103.171 35.6044
1436.403931 103.274 35.6988
1446.812744 103.373 35.7368
1457.296997 103.468 35.7538
1467.857178 103.562 35.7685
1478.493896 103.656 35.7794
1489.207642 103.750 35.7885
1499.999023 103.843 35.7990
1510.868652 103.935 35.8106
1521.817017 104.027 35.8194
1532.844727 104.119 35.8224
1543.952393 104.212 35.8256
1555.140503 104.305 35.8517
1566.409668 104.405 35.9169
1577.760498 104.516 35.9922
1589.193604 104.637 36.0126
1600.709595 104.763 35.9476
1612.308960 104.887 35.8174
1623.992432 105.007 35.6483
1635.760498 105.125 35.4654
1647.613892 105.241 35.2654
1659.553223 105.356 35.0476
1671.578979 105.471 34.8250
1683.691895 105.587 34.5980
1695.892578 105.706 34.3502
1708.181763 105.826 34.0641
1720.559937 105.947 33.7411
1733.027832 106.065 33.3896
1745.586060 106.180 33.0081
1758.235352 106.291 32.6085
1770.976196 106.400 32.2269
1783.809448 106.512 31.8837
1796.735718 106.635 31.5551
1809.755615 106.767 31.1725
1822.869873 106.902 30.6995
1836.079102 107.036 30.1494
1849.384033 107.166 29.5429
1862.785400 107.293 28.8836
1876.283936 107.416 28.1734
1889.880249 107.534 27.4183
1903.575073 107.647 26.6251
1917.369141 107.754 25.8013
1931.263184 107.855 24.9666
1945.257935 107.954 24.1470
1959.354126 108.056 23.3210
1973.552368 108.163 22.4258
1987.853516 108.268 21.4336
2002.258301 108.364 20.3556
2016.767456 108.448 19.2170
2031.381836 108.521 18.0323
2046.102051 108.581 16.8234
2060.928955 108.628 15.6101
2075.863281 108.666 14.3914
2090.905762 108.694 13.1553
2106.057373 108.711 11.9042
2121.318848 108.713 10.6532
2136.690918 108.699 9.4277
2152.174316 108.672 8.2769
2167.769775 108.638 7.2330
2183.478271 108.609 6.2649
2199.300537 108.585 5.3077
2215.237549 108.562 4.3304
2231.290039 108.536 3.3301
2247.458984 108.504 2.3051
2263.745117 108.463 1.2603
2280.149170 108.409 0.2136
2296.672119 108.342 -0.8065
2313.314697 108.262 -1.7565
2330.077881 108.174 -2.5945
2346.962646 108.088 -3.3347
2363.969727 108.006 -4.0264
2381.100098 107.928 -4.6949
2398.354492 107.850 -5.3424
2415.733887 107.772 -5.9701
2433.239258 107.695 -6.5726
2450.871582 107.621 -7.1548
2468.631592 107.548 -7.7413
2486.520264 107.474 -8.3519
2504.538574 107.393 -8.9893
2522.687500 107.301 -9.6231
2540.968018 107.197 -10.1887
2559.380859 107.090 -10.6521
2577.927246 106.986 -11.0446
2596.607910 106.885 -11.3984
2615.424072 106.786 -11.7240
2634.376465 106.687 -12.0251
2653.466309 106.587 -12.2992
2672.694336 106.483 -12.5327
2692.061768 106.377 -12.6929
2711.569580 106.271 -12.7379
2731.218750 106.177 -12.6799
2751.010254 106.098 -12.5747
2770.945312 106.032 -12.4642
2791.024658 105.977 -12.3662
2811.249512 105.931 -12.2783
2831.621094 105.893 -12.1954
2852.140137 105.865 -12.1367
2872.807861 105.842 -12.1302
2893.625488 105.820 -12.1846
2914.593994 105.794 -12.2600
2935.714355 105.767 -12.3004
2956.987793 105.746 -12.3074
2978.415283 105.733 -12.3154
2999.998047 105.727 -12.3478
3021.737305 105.727 -12.4195
3043.634033 105.728 -12.5339
3065.689453 105.726 -12.6711
3087.904785 105.724 -12.7839
3110.281006 105.727 -12.8489
3132.819336 105.742 -12.8982
3155.520996 105.771 -12.9789
3178.387207 105.811 -13.1205
3201.419189 105.859 -13.3282
3224.617920 105.914 -13.6079
3247.984863 105.976 -13.9828
3271.520996 106.037 -14.4747
3295.227783 106.091 -15.0582
3319.106445 106.138 -15.6711
3343.157959 106.185 -16.2890
3367.383789 106.238 -16.9310
3391.785156 106.298 -17.6348
3416.363525 106.363 -18.4348
3441.119873 106.428 -19.3424
3466.055664 106.489 -20.3296
3491.172119 106.548 -21.3594
3516.470703 106.612 -22.4453
3541.952393 106.685 -23.6335
3567.618896 106.764 -24.9639
3593.471436 106.846 -26.4573
3619.511230 106.929 -28.1432
3645.739746 107.008 -30.0656
3672.158203 107.070 -32.2435
3698.768066 107.106 -34.6340
3725.570801 107.115 -37.1912
3752.567871 107.098 -39.9032
3779.760498 107.052 -42.7792
3807.150146 106.972 -45.8278
3834.738281 106.849 -49.0264
3862.526367 106.676 -52.3018
3890.515869 106.457 -55.5840
3918.708252 106.196 -58.8416
3947.104736 105.898 -62.0634
3975.707031 105.566 -65.2405
4004.516602 105.205 -68.3785
4033.534912 104.816 -71.5117
4062.763672 104.397 -74.6599
4092.204102 103.943 -77.7894
4121.857910 103.461 -80.8729
4151.726562 102.957 -83.9226
4181.811523 102.437 -86.9937
4212.114746 101.899 -90.1580
4242.637695 101.337 -93.4476
4273.381836 100.751 -96.8639
4304.348633 100.148 -100.4410
4335.539551 99.534 -104.2632
4366.956543 98.917 -108.4288
4398.601074 98.303 -113.0638
4430.475098 97.701 -118.3317
4462.580078 97.117 -124.3810
4494.917969 96.564 -131.3337
4527.490234 96.075 -139.3088
4560.298340 95.689 -148.4032
4593.344238 95.447 -158.6216
4626.629395 95.382 -169.7785
4660.155762 95.510 178.5031
4693.925293 95.829 166.6793
4727.939453 96.313 155.1591
4762.200195 96.916 144.2106
4796.708984 97.584 133.9253
4831.467773 98.259 124.2841
4866.478516 98.897 115.2430
4901.743164 99.471 106.7559
4937.263184 99.966 98.7836
4973.040527 100.370 91.2853
5009.077148 100.674 84.2570
5045.375000 100.878 77.7531
5081.936035 100.989 71.8330
5118.761719 101.021 66.5305
5155.854492 100.991 61.8533
5193.215820 100.917 57.7595
5230.848145 100.809 54.1904
5268.752930 100.672 51.1301
5306.932617 100.519 48.5757
5345.388672 100.359 46.4698
5384.123535 100.198 44.7204
5423.139160 100.032 43.2806
5462.437500 99.862 42.1453
5502.020508 99.690 41.3162
5541.890625 99.523 40.7941
5582.049316 99.370 40.5394
5622.499023 99.232 40.4885
5663.242188 99.106 40.6141
5704.280273 98.994 40.9094
5745.615723 98.901 41.3363
5787.250977 98.822 41.8392
5829.187988 98.753 42.4033
5871.428711 98.690 43.0463
5913.975586 98.634 43.8051
5956.830566 98.591 44.6980
5999.996094 98.562 45.6921
6043.474609 98.547 46.7634
6087.268066 98.547 47.9154
6131.378906 98.565 49.1289
6175.809570 98.601 50.3561
6220.562012 98.651 51.5772
6265.638672 98.711 52.8090
6311.041992 98.782 54.0895
6356.774414 98.867 55.4292
6402.838379 98.967 56.8047
6449.235840 99.085 58.2140
6495.969727 99.222 59.6699
6543.041992 99.382 61.1472
6590.455566 99.563 62.6052
6638.212891 99.762 64.0270
6686.315918 99.976 65.4306
6734.767578 100.209 66.8382
6783.570312 100.463 68.2433
6832.727051 100.740 69.6451
6882.239746 101.047 71.0456
6932.111328 101.386 72.4086
6982.344238 101.759 73.6827
7032.941406 102.161 74.8391
7083.904785 102.593 75.8831
7135.237793 103.059 76.8182
7186.942871 103.561 77.6219
7239.022461 104.103 78.2780
7291.479492 104.694 78.7458
7344.316406 105.339 78.9337
7397.536133 106.036 78.7359
7451.141602 106.781 78.0651
7505.135742 107.568 76.8413
7559.520996 108.392 74.9503
7614.300293 109.236 72.2729
7669.476562 110.081 68.6981
7725.052734 110.896 64.1038
7781.031738 111.632 58.4190
7837.416504 112.233 51.7057
7894.209473 112.651 44.1933
7951.414062 112.850 36.2263
8009.033203 112.816 28.2323
8067.069824 112.565 20.6558
8125.527344 112.138 13.8369
8184.408203 111.586 7.9559
8243.715820 110.960 3.0651
8303.453125 110.303 -0.8676
8363.623047 109.649 -3.9476
8424.229492 109.019 -6.2883
8485.275391 108.434 -7.9969
8546.763672 107.908 -9.2214
8608.697266 107.448 -10.1354
8671.079102 107.050 -10.8694
8733.913086 106.707 -11.5198
8797.202148 106.410 -12.1446
8860.950195 106.153 -12.7540
8925.160156 105.938 -13.3740
8989.835938 105.765 -14.0751
9054.980469 105.629 -14.9233
9120.596680 105.525 -15.9708
9186.688477 105.446 -17.2509
9253.258789 105.387 -18.7600
9320.311523 105.354 -20.5238
9387.850586 105.351 -22.6525
9455.878906 105.375 -25.3035
9524.400391 105.408 -28.6506
9593.417969 105.414 -32.8309
9662.935547 105.351 -37.8760
9732.957031 105.176 -43.7280
9803.486328 104.845 -50.2648
9874.526367 104.320 -57.2789
9946.081055 103.568 -64.5081
10018.154297 102.560 -71.6328
10090.750000 101.272 -78.2746
10163.872070 99.690 -84.0206
10237.523438 97.797 -88.3380
10311.708984 95.577 -90.2447
10386.431641 93.072 -87.2382
10461.696289 90.607 -71.5147
10537.505859 89.230 -31.2533
10613.865234 89.810 0.1235
10690.777344 91.418 9.8940
10768.247070 93.040 11.3231
10846.278320 94.385 9.5634
10924.875000 95.446 6.3929
11004.041016 96.273 2.5142
11083.781250 96.916 -1.7851
11164.098633 97.409 -6.4029
11244.998047 97.772 -11.2773
11326.484375 98.020 -16.3494
11408.560547 98.167 -21.5901
11491.231445 98.226 -27.0171
11574.501953 98.201 -32.6893
11658.375977 98.080 -38.6319
11742.857422 97.846 -44.7966
11827.951172 97.485 -51.0689
11913.661133 96.993 -57.3124
11999.992188 96.367 -63.3964
12086.949219 95.606 -69.1617
12174.536133 94.719 -74.4290
12262.757812 93.723 -79.0293
12351.619141 92.650 -82.8787
12441.124023 91.528 -85.9847
12531.277344 90.381 -88.3919
12622.083984 89.226 -90.1365
12713.548828 88.079 -91.2586
12805.676758 86.957 -91.8522
12898.471680 85.870 -92.0466
12991.939453 84.816 -91.9464
13086.083984 83.796 -91.5748
13180.911133 82.817 -90.9603
13276.425781 81.882 -90.1980
13372.631836 80.983 -89.3837
13469.535156 80.116 -88.5513
13567.140625 79.284 -87.7256
13665.454102 78.491 -86.9839
13764.479492 77.726 -86.4531
13864.222656 76.973 -86.2376
13964.688477 76.227 -86.4200
14065.882812 75.471 -87.1753
14167.809570 74.647 -88.6464
14270.475586 73.658 -90.4036
14373.885742 72.434 -90.3748
14478.044922 71.150 -82.6944
14582.958984 70.467 -62.9124
14688.632812 70.765 -48.3344
14795.072266 71.430 -45.9746
14902.283203 71.958 -48.4899
15010.271484 72.289 -51.8998
15119.041992 72.513 -55.0108
15228.600586 72.726 -57.7227
15338.953125 72.994 -60.1826
15450.105469 73.366 -62.5666
15562.063477 73.864 -65.0894
15674.833008 74.504 -68.0002
15788.418945 75.292 -71.5695
15902.828125 76.218 -76.0275
16018.066406 77.251 -81.5880
16134.139648 78.340 -88.4603
16251.054688 79.403 -96.8233
16368.816406 80.339 -106.6715
16487.431641 81.061 -117.7158
16606.906250 81.511 -129.4497
16727.246094 81.676 -141.1914
16848.458984 81.605 -152.2372
16970.550781 81.406 -162.1637
17093.527344 81.216 -171.0276
17217.394531 81.141 -179.3438
17342.158203 81.215 172.0918
17467.826172 81.378 162.5240
17594.404297 81.496 151.5559
17721.900391 81.404 139.2622
17850.320312 80.965 126.1550
17979.671875 80.098 113.1289
18109.960938 78.804 101.2136
18241.193359 77.156 91.2268
18373.376953 75.267 83.6104
18506.517578 73.251 78.4498
18640.623047 71.216 75.5774
18775.701172 69.243 74.7065
18911.757812 67.383 75.6816
19048.800781 65.680 78.3623
19186.835938 64.208 82.3931
19325.871094 63.051 87.0824
19465.914062 62.229 91.3733
19606.972656 61.645 94.7137
19749.052734 61.166 97.5347
19892.162109 60.776 100.2130
20036.308594 60.558 102.1106
