* Measurement data measured by REW V5.31
* Source: EXCL: Microphone (USB Sound Device        ), MICROPHONE (Master Volume), L, volume: 0.390
* Format: 256k Log Swept Sine, 1 sweep at -4.0 dBFS with no timing reference
* Dated: Aug 23, 2024 12:56:01 AM
* REW Settings:
*  C-weighting compensation: Off
*  Target level: 75.0 dB
* Note: KZ AS24 Pro 1100 L
* Measurement: L AS24 Pro 1100
* Smoothing: 1/12 octave
* Frequency Step: 96 ppo
* Start Frequency: 0.36621094 Hz
*
* Freq(Hz) SPL(dB) Phase(degrees)
0.366211 86.455 160.2319
0.368865 86.446 160.2142
0.371538 86.433 160.1876
0.374230 86.416 160.1541
0.376942 86.398 160.1153
0.379673 86.378 160.0725
0.382424 86.357 160.0264
0.385196 86.336 159.9777
0.387987 86.314 159.9264
0.390798 86.292 159.8729
0.393630 86.270 159.8171
0.396483 86.248 159.7591
0.399356 86.225 159.6988
0.402250 86.202 159.6364
0.405165 86.179 159.5717
0.408101 86.156 159.5047
0.411058 86.133 159.4355
0.414037 86.110 159.3639
0.417037 86.086 159.2901
0.420059 86.063 159.2139
0.423103 86.039 159.1353
0.426169 86.015 159.0543
0.429257 85.990 158.9709
0.432368 85.966 158.8851
0.435501 85.941 158.7968
0.438656 85.917 158.7061
0.441835 85.892 158.6129
0.445037 85.866 158.5171
0.448262 85.841 158.4188
0.451510 85.816 158.3180
0.454782 85.790 158.2146
0.458077 85.764 158.1086
0.461397 85.738 158.0000
0.464740 85.712 157.8888
0.468108 85.685 157.7750
0.471500 85.659 157.6585
0.474917 85.632 157.5393
0.478358 85.605 157.4175
0.481825 85.578 157.2930
0.485316 85.550 157.1658
0.488833 85.523 157.0359
0.492375 85.495 156.9033
0.495943 85.467 156.7679
0.499537 85.439 156.6298
0.503157 85.410 156.4890
0.506803 85.382 156.3455
0.510475 85.353 156.1992
0.514175 85.324 156.0502
0.517900 85.295 155.8985
0.521653 85.265 155.7440
0.525434 85.235 155.5869
0.529241 85.206 155.4270
0.533076 85.175 155.2645
0.536939 85.145 155.0992
0.540830 85.115 154.9313
0.544749 85.084 154.7608
0.548696 85.053 154.5876
0.552673 85.022 154.4118
0.556677 84.990 154.2335
0.560711 84.959 154.0527
0.564774 84.927 153.8694
0.568867 84.895 153.6836
0.572989 84.862 153.4955
0.577141 84.830 153.3049
0.581324 84.797 153.1121
0.585536 84.764 152.9171
0.589779 84.730 152.7199
0.594053 84.697 152.5206
0.598358 84.663 152.3193
0.602694 84.629 152.1160
0.607061 84.595 151.9109
0.611460 84.560 151.7041
0.615891 84.525 151.4956
0.620354 84.490 151.2856
0.624849 84.455 151.0742
0.629377 84.420 150.8615
0.633938 84.384 150.6477
0.638532 84.348 150.4328
0.643159 84.311 150.2171
0.647819 84.275 150.0008
0.652514 84.238 149.7840
0.657242 84.201 149.5669
0.662005 84.163 149.3497
0.666802 84.126 149.1325
0.671634 84.088 148.9158
0.676501 84.050 148.6996
0.681403 84.011 148.4843
0.686341 83.972 148.2701
0.691314 83.933 148.0572
0.696324 83.894 147.8460
0.701370 83.853 147.6367
0.706452 83.813 147.4296
0.711571 83.770 147.2248
0.716728 83.727 147.0224
0.721921 83.680 146.8221
0.727153 83.630 146.6236
0.732422 83.575 146.4260
0.737729 83.515 146.2285
0.743075 83.449 146.0297
0.748460 83.378 145.8288
0.753883 83.303 145.6250
0.759346 83.225 145.4178
0.764849 83.145 145.2067
0.770391 83.062 144.9915
0.775974 82.977 144.7722
0.781597 82.889 144.5484
0.787261 82.800 144.3202
0.792966 82.709 144.0875
0.798712 82.615 143.8501
0.804500 82.520 143.6080
0.810329 82.423 143.3612
0.816201 82.324 143.1096
0.822116 82.222 142.8532
0.828073 82.119 142.5918
0.834074 82.014 142.3255
0.840118 81.907 142.0542
0.846206 81.797 141.7779
0.852338 81.686 141.4965
0.858514 81.573 141.2101
0.864735 81.458 140.9186
0.871001 81.341 140.6219
0.877313 81.222 140.3203
0.883670 81.101 140.0135
0.890074 80.978 139.7018
0.896524 80.853 139.3850
0.903020 80.726 139.0634
0.909564 80.597 138.7370
0.916155 80.466 138.4059
0.922794 80.334 138.0703
0.929481 80.199 137.7303
0.936216 80.063 137.3861
0.943000 79.925 137.0380
0.949834 79.785 136.6862
0.956717 79.643 136.3311
0.963649 79.499 135.9731
0.970632 79.354 135.6125
0.977666 79.207 135.2498
0.984750 79.058 134.8857
0.991886 78.908 134.5207
0.999074 78.756 134.1556
1.006314 78.602 133.7913
1.013606 78.447 133.4286
1.020951 78.290 133.0686
1.028349 78.132 132.7124
1.035801 77.972 132.3616
1.043307 77.811 132.0174
1.050867 77.649 131.6817
1.058482 77.485 131.3562
1.066152 77.319 131.0429
1.073878 77.151 130.7440
1.081660 76.982 130.4616
1.089498 76.809 130.1979
1.097393 76.632 129.9550
1.105345 76.449 129.7346
1.113355 76.260 129.5384
1.121423 76.062 129.3682
1.129549 75.855 129.2259
1.137734 75.639 129.1138
1.145979 75.414 129.0345
1.154283 75.179 128.9911
1.162647 74.936 128.9875
1.171072 74.685 129.0283
1.179558 74.425 129.1187
1.188106 74.159 129.2653
1.196715 73.886 129.4760
1.205387 73.607 129.7605
1.214122 73.324 130.1304
1.222920 73.036 130.6006
1.231782 72.746 131.1896
1.240708 72.453 131.9207
1.249699 72.158 132.8241
1.258754 71.864 133.9392
1.267876 71.570 135.3177
1.277063 71.278 137.0293
1.286318 70.989 139.1685
1.295639 70.704 141.8657
1.305027 70.424 145.3023
1.314484 70.152 149.7297
1.324009 69.888 155.4881
1.333604 69.634 163.0020
1.343268 69.391 172.6916
1.353002 69.161 -175.3077
1.362806 68.946 -161.6003
1.372681 68.747 -147.6677
1.382628 68.567 -135.1284
1.392647 68.408 -124.8318
1.402739 68.271 -116.7893
1.412904 68.160 -110.6177
1.423142 68.075 -105.8798
1.433455 68.020 -102.2118
1.443843 67.998 -99.3416
1.454305 68.009 -97.0733
1.464844 68.058 -95.2665
1.475459 68.145 -93.8206
1.486150 68.271 -92.6619
1.496920 68.437 -91.7356
1.507767 68.642 -90.9996
1.518693 68.885 -90.4211
1.529698 69.164 -89.9737
1.540783 69.478 -89.6366
1.551948 69.825 -89.3924
1.563194 70.201 -89.2272
1.574521 70.604 -89.1293
1.585931 71.033 -89.0892
1.597423 71.484 -89.0987
1.608999 71.954 -89.1510
1.620658 72.441 -89.2405
1.632402 72.942 -89.3623
1.644232 73.453 -89.5123
1.656146 73.972 -89.6868
1.668147 74.496 -89.8828
1.680235 75.021 -90.0976
1.692411 75.544 -90.3291
1.704675 76.061 -90.5751
1.717028 76.570 -90.8341
1.729470 77.067 -91.1046
1.742003 77.548 -91.3853
1.754626 78.010 -91.6754
1.767341 78.451 -91.9742
1.780147 78.868 -92.2815
1.793047 79.259 -92.5977
1.806040 79.622 -92.9238
1.819128 79.958 -93.2614
1.832310 80.268 -93.6129
1.845587 80.554 -93.9810
1.858961 80.818 -94.3677
1.872432 81.064 -94.7742
1.886001 81.293 -95.2001
1.899667 81.507 -95.6447
1.913433 81.706 -96.1062
1.927299 81.892 -96.5828
1.941265 82.065 -97.0723
1.955332 82.226 -97.5726
1.969501 82.377 -98.0816
1.983773 82.517 -98.5974
1.998148 82.648 -99.1178
2.012627 82.771 -99.6411
2.027212 82.886 -100.1654
2.041902 82.995 -100.6891
2.056698 83.098 -101.2104
2.071602 83.198 -101.7279
2.086614 83.294 -102.2402
2.101734 83.387 -102.7459
2.116964 83.480 -103.2440
2.132304 83.573 -103.7339
2.147756 83.667 -104.2153
2.163320 83.761 -104.6890
2.178996 83.857 -105.1564
2.194786 83.954 -105.6202
2.210690 84.049 -106.0838
2.226710 84.144 -106.5508
2.242845 84.235 -107.0237
2.259098 84.323 -107.5042
2.275468 84.406 -107.9926
2.291957 84.485 -108.4887
2.308566 84.560 -108.9914
2.325295 84.630 -109.4995
2.342145 84.697 -110.0112
2.359117 84.759 -110.5248
2.376212 84.818 -111.0387
2.393431 84.873 -111.5507
2.410775 84.925 -112.0589
2.428244 84.974 -112.5613
2.445840 85.020 -113.0558
2.463564 85.064 -113.5406
2.481416 85.106 -114.0138
2.499397 85.146 -114.4739
2.517509 85.185 -114.9200
2.535752 85.221 -115.3518
2.554127 85.256 -115.7702
2.572635 85.289 -116.1769
2.591277 85.318 -116.5744
2.610055 85.345 -116.9650
2.628968 85.369 -117.3505
2.648019 85.389 -117.7317
2.667208 85.405 -118.1090
2.686535 85.419 -118.4821
2.706003 85.429 -118.8504
2.725612 85.437 -119.2129
2.745363 85.442 -119.5684
2.765257 85.445 -119.9156
2.785295 85.446 -120.2529
2.805478 85.445 -120.5789
2.825808 85.443 -120.8916
2.846285 85.440 -121.1895
2.866910 85.436 -121.4708
2.887685 85.431 -121.7341
2.908611 85.425 -121.9781
2.929688 85.418 -122.2021
2.950917 85.410 -122.4060
2.972301 85.401 -122.5900
2.993839 85.389 -122.7547
3.015534 85.376 -122.9007
3.037386 85.360 -123.0286
3.059396 85.344 -123.1393
3.081565 85.326 -123.2331
3.103896 85.307 -123.3109
3.126388 85.287 -123.3731
3.149043 85.268 -123.4204
3.171862 85.250 -123.4531
3.194847 85.232 -123.4717
3.217998 85.215 -123.4762
3.241317 85.201 -123.4664
3.264805 85.188 -123.4415
3.288463 85.178 -123.4003
3.312293 85.169 -123.3412
3.336295 85.163 -123.2627
3.360471 85.158 -123.1639
3.384822 85.154 -123.0454
3.409350 85.152 -122.9085
3.434056 85.152 -122.7553
3.458940 85.153 -122.5888
3.484005 85.156 -122.4123
3.509252 85.162 -122.2292
3.534681 85.169 -122.0431
3.560295 85.179 -121.8576
3.586094 85.192 -121.6756
3.612081 85.207 -121.4994
3.638255 85.226 -121.3301
3.664620 85.248 -121.1679
3.691175 85.274 -121.0117
3.717923 85.303 -120.8605
3.744864 85.335 -120.7136
3.772001 85.371 -120.5717
3.799335 85.410 -120.4361
3.826866 85.451 -120.3088
3.854597 85.494 -120.1924
3.882529 85.539 -120.0893
3.910664 85.585 -120.0025
3.939002 85.632 -119.9344
3.967546 85.679 -119.8873
3.996296 85.727 -119.8628
4.025255 85.775 -119.8621
4.054423 85.824 -119.8851
4.083804 85.874 -119.9315
4.113396 85.924 -120.0003
4.143204 85.975 -120.0905
4.173227 86.026 -120.2010
4.203468 86.077 -120.3308
4.233928 86.127 -120.4789
4.264609 86.176 -120.6446
4.295512 86.224 -120.8274
4.326639 86.270 -121.0273
4.357992 86.314 -121.2447
4.389572 86.355 -121.4802
4.421380 86.393 -121.7347
4.453419 86.430 -122.0088
4.485691 86.463 -122.3019
4.518196 86.495 -122.6127
4.550936 86.523 -122.9388
4.583914 86.550 -123.2771
4.617131 86.573 -123.6248
4.650589 86.594 -123.9786
4.684289 86.612 -124.3362
4.718233 86.627 -124.6959
4.752424 86.638 -125.0571
4.786862 86.646 -125.4204
4.821549 86.651 -125.7864
4.856488 86.652 -126.1554
4.891680 86.650 -126.5265
4.927127 86.645 -126.8980
4.962831 86.637 -127.2673
4.998794 86.627 -127.6314
5.035017 86.614 -127.9872
5.071503 86.600 -128.3321
5.108253 86.583 -128.6640
5.145270 86.564 -128.9819
5.182555 86.543 -129.2857
5.220110 86.521 -129.5757
5.257937 86.496 -129.8522
5.296038 86.470 -130.1152
5.334415 86.444 -130.3644
5.373071 86.417 -130.5993
5.412006 86.390 -130.8191
5.451224 86.364 -131.0226
5.490725 86.339 -131.2087
5.530514 86.315 -131.3768
5.570590 86.292 -131.5269
5.610957 86.271 -131.6597
5.651616 86.251 -131.7771
5.692570 86.233 -131.8816
5.733821 86.218 -131.9755
5.775370 86.205 -132.0611
5.817221 86.195 -132.1401
5.859375 86.189 -132.2139
5.901834 86.187 -132.2840
5.944602 86.188 -132.3535
5.987679 86.193 -132.4257
6.031068 86.201 -132.5041
6.074771 86.212 -132.5918
6.118792 86.226 -132.6912
6.163131 86.244 -132.8043
6.207792 86.264 -132.9325
6.252776 86.286 -133.0766
6.298086 86.312 -133.2369
6.343725 86.340 -133.4135
6.389694 86.370 -133.6061
6.435996 86.402 -133.8145
6.482634 86.434 -134.0393
6.529610 86.468 -134.2814
6.576926 86.501 -134.5424
6.624585 86.535 -134.8238
6.672590 86.568 -135.1262
6.720942 86.601 -135.4486
6.769645 86.633 -135.7890
6.818700 86.664 -136.1446
6.868111 86.694 -136.5129
6.917881 86.723 -136.8918
6.968010 86.749 -137.2800
7.018504 86.774 -137.6764
7.069362 86.796 -138.0794
7.120590 86.817 -138.4869
7.172189 86.836 -138.8959
7.224161 86.853 -139.3030
7.276511 86.868 -139.7055
7.329239 86.882 -140.1009
7.382350 86.894 -140.4879
7.435845 86.905 -140.8653
7.489729 86.915 -141.2321
7.544002 86.924 -141.5869
7.598669 86.933 -141.9279
7.653732 86.941 -142.2536
7.709194 86.950 -142.5629
7.765058 86.960 -142.8554
7.821327 86.970 -143.1313
7.878004 86.981 -143.3914
7.935091 86.994 -143.6368
7.992592 87.009 -143.8684
8.050510 87.025 -144.0872
8.108847 87.044 -144.2941
8.167607 87.066 -144.4901
8.226793 87.090 -144.6772
8.286408 87.116 -144.8574
8.346454 87.144 -145.0333
8.406936 87.176 -145.2070
8.467856 87.209 -145.3799
8.529218 87.244 -145.5534
8.591024 87.282 -145.7285
8.653278 87.321 -145.9065
8.715983 87.362 -146.0886
8.779143 87.403 -146.2758
8.842760 87.445 -146.4686
8.906839 87.488 -146.6671
8.971381 87.531 -146.8707
9.036392 87.574 -147.0787
9.101873 87.616 -147.2904
9.167829 87.658 -147.5048
9.234263 87.699 -147.7213
9.301178 87.738 -147.9384
9.368578 87.777 -148.1548
9.436467 87.814 -148.3689
9.504847 87.850 -148.5791
9.573723 87.885 -148.7841
9.643099 87.918 -148.9830
9.712976 87.949 -149.1749
9.783361 87.977 -149.3587
9.854255 88.003 -149.5338
9.925663 88.026 -149.6995
9.997588 88.046 -149.8557
10.070035 88.063 -150.0026
10.143007 88.078 -150.1405
10.216507 88.092 -150.2700
10.290540 88.104 -150.3917
10.365109 88.114 -150.5061
10.440219 88.124 -150.6143
10.515873 88.133 -150.7172
10.592076 88.142 -150.8160
10.668830 88.151 -150.9115
10.746141 88.159 -151.0045
10.824012 88.167 -151.0956
10.902447 88.174 -151.1856
10.981451 88.182 -151.2749
11.061027 88.188 -151.3639
11.141180 88.194 -151.4527
11.221913 88.199 -151.5413
11.303232 88.203 -151.6297
11.385140 88.206 -151.7177
11.467641 88.208 -151.8052
11.550741 88.210 -151.8920
11.634442 88.210 -151.9781
11.718750 88.210 -152.0632
11.803669 88.210 -152.1474
11.889203 88.209 -152.2309
11.975357 88.208 -152.3140
12.062136 88.206 -152.3969
12.149543 88.204 -152.4802
12.237583 88.202 -152.5643
12.326262 88.200 -152.6499
12.415583 88.197 -152.7375
12.505552 88.193 -152.8279
12.596172 88.189 -152.9213
12.687449 88.185 -153.0182
12.779387 88.179 -153.1190
12.871992 88.173 -153.2237
12.965268 88.166 -153.3325
13.059220 88.159 -153.4451
13.153852 88.151 -153.5613
13.249170 88.142 -153.6809
13.345179 88.133 -153.8037
13.441884 88.124 -153.9293
13.539289 88.115 -154.0574
13.637401 88.106 -154.1881
13.736223 88.097 -154.3214
13.835761 88.088 -154.4575
13.936021 88.079 -154.5968
14.037007 88.070 -154.7399
14.138725 88.062 -154.8874
14.241180 88.055 -155.0401
14.344377 88.048 -155.1988
14.448323 88.041 -155.3641
14.553021 88.035 -155.5366
14.658478 88.029 -155.7167
14.764700 88.024 -155.9045
14.871691 88.019 -156.0999
14.979457 88.015 -156.3022
15.088005 88.011 -156.5109
15.197339 88.007 -156.7249
15.307465 88.003 -156.9430
15.418389 87.999 -157.1640
15.530117 87.996 -157.3866
15.642655 87.993 -157.6096
15.756008 87.990 -157.8320
15.870182 87.989 -158.0530
15.985184 87.987 -158.2720
16.101019 87.987 -158.4888
16.217694 87.988 -158.7034
16.335214 87.990 -158.9161
16.453586 87.994 -159.1273
16.572815 87.999 -159.3374
16.692909 88.005 -159.5469
16.813872 88.013 -159.7560
16.935713 88.022 -159.9649
17.058436 88.032 -160.1734
17.182048 88.043 -160.3812
17.306556 88.055 -160.5874
17.431967 88.067 -160.7914
17.558286 88.080 -160.9921
17.685521 88.092 -161.1884
17.813677 88.104 -161.3795
17.942762 88.117 -161.5644
18.072783 88.129 -161.7425
18.203746 88.141 -161.9133
18.335658 88.153 -162.0768
18.468526 88.166 -162.2328
18.602356 88.178 -162.3816
18.737156 88.191 -162.5236
18.872934 88.204 -162.6592
19.009695 88.217 -162.7888
19.147447 88.229 -162.9129
19.286197 88.242 -163.0318
19.425953 88.254 -163.1458
19.566721 88.266 -163.2553
19.708510 88.278 -163.3607
19.851326 88.289 -163.4625
19.995177 88.299 -163.5611
20.140070 88.308 -163.6573
20.286013 88.317 -163.7517
20.433014 88.325 -163.8452
20.581080 88.332 -163.9386
20.730219 88.339 -164.0325
20.880439 88.345 -164.1276
21.031747 88.350 -164.2241
21.184152 88.354 -164.3226
21.337661 88.358 -164.4229
21.492282 88.360 -164.5253
21.648024 88.363 -164.6299
21.804895 88.364 -164.7367
21.962902 88.365 -164.8461
22.122054 88.366 -164.9586
22.282360 88.366 -165.0750
22.443827 88.366 -165.1960
22.606464 88.367 -165.3225
22.770280 88.367 -165.4553
22.935283 88.366 -165.5948
23.101481 88.366 -165.7412
23.268884 88.366 -165.8944
23.437500 88.365 -166.0537
23.607338 88.364 -166.2183
23.778406 88.363 -166.3870
23.950714 88.362 -166.5590
24.124271 88.361 -166.7331
24.299086 88.361 -166.9088
24.475167 88.361 -167.0857
24.652524 88.362 -167.2640
24.831166 88.364 -167.4437
25.011103 88.367 -167.6255
25.192344 88.371 -167.8096
25.374898 88.376 -167.9960
25.558775 88.381 -168.1845
25.743984 88.387 -168.3742
25.930536 88.393 -168.5638
26.118439 88.399 -168.7514
26.307704 88.405 -168.9352
26.498341 88.411 -169.1129
26.690359 88.417 -169.2830
26.883768 88.423 -169.4442
27.078579 88.429 -169.5959
27.274801 88.436 -169.7384
27.472446 88.443 -169.8729
27.671522 88.452 -170.0009
27.872042 88.461 -170.1246
28.074014 88.470 -170.2460
28.277450 88.479 -170.3669
28.482360 88.488 -170.4884
28.688755 88.497 -170.6111
28.896645 88.505 -170.7346
29.106042 88.512 -170.8584
29.316957 88.518 -170.9817
29.529400 88.523 -171.1037
29.743382 88.527 -171.2244
29.958915 88.530 -171.3442
30.176009 88.533 -171.4642
30.394677 88.536 -171.5858
30.614929 88.539 -171.7106
30.836778 88.541 -171.8398
31.060234 88.542 -171.9738
31.285309 88.543 -172.1127
31.512015 88.543 -172.2557
31.740364 88.542 -172.4018
31.970368 88.541 -172.5500
32.202039 88.540 -172.6996
32.435388 88.538 -172.8504
32.670428 88.537 -173.0029
32.907171 88.536 -173.1575
33.145630 88.536 -173.3150
33.385817 88.536 -173.4756
33.627745 88.537 -173.6390
33.871425 88.537 -173.8047
34.116871 88.538 -173.9713
34.364096 88.539 -174.1377
34.613113 88.540 -174.3028
34.863934 88.541 -174.4659
35.116572 88.543 -174.6268
35.371041 88.545 -174.7859
35.627354 88.548 -174.9435
35.885525 88.551 -175.1001
36.145566 88.553 -175.2557
36.407492 88.556 -175.4100
36.671316 88.558 -175.5624
36.937051 88.560 -175.7122
37.204712 88.561 -175.8590
37.474313 88.562 -176.0027
37.745867 88.563 -176.1439
38.019389 88.564 -176.2835
38.294893 88.565 -176.4227
38.572394 88.565 -176.5623
38.851905 88.565 -176.7031
39.133442 88.565 -176.8447
39.417019 88.564 -176.9869
39.702651 88.562 -177.1288
39.990353 88.560 -177.2697
40.280140 88.557 -177.4088
40.572026 88.554 -177.5457
40.866028 88.551 -177.6799
41.162160 88.548 -177.8111
41.460438 88.545 -177.9399
41.760877 88.544 -178.0677
42.063494 88.543 -178.1972
42.368303 88.542 -178.3311
42.675322 88.542 -178.4719
42.984565 88.542 -178.6201
43.296048 88.540 -178.7736
43.609789 88.537 -178.9284
43.925804 88.532 -179.0793
44.244108 88.527 -179.2223
44.564719 88.522 -179.3564
44.887654 88.517 -179.4838
45.212928 88.514 -179.6094
45.540560 88.512 -179.7384
45.870565 88.510 -179.8743
46.202962 88.508 179.9821
46.537768 88.506 179.8328
46.875000 88.503 179.6807
47.214676 88.500 179.5284
47.556813 88.497 179.3764
47.901429 88.494 179.2240
48.248542 88.492 179.0698
48.598171 88.489 178.9129
48.950334 88.486 178.7539
49.305048 88.482 178.5949
49.662333 88.478 178.4384
50.022206 88.472 178.2869
50.384688 88.466 178.1422
50.749796 88.459 178.0055
51.117550 88.452 177.8779
51.487969 88.443 177.7613
51.861072 88.434 177.6580
52.236879 88.425 177.5697
52.615409 88.417 177.4960
52.996681 88.411 177.4328
53.380717 88.406 177.3722
53.767536 88.404 177.3053
54.157158 88.403 177.2253
54.549603 88.401 177.1314
54.944892 88.398 177.0286
55.343045 88.393 176.9260
55.744084 88.387 176.8317
56.148028 88.381 176.7499
56.554900 88.377 176.6791
56.964720 88.376 176.6146
57.377510 88.377 176.5508
57.793291 88.382 176.4839
58.212085 88.389 176.4120
58.633914 88.398 176.3333
59.058799 88.410 176.2450
59.486764 88.425 176.1422
59.917829 88.442 176.0190
60.352019 88.460 175.8706
60.789354 88.477 175.6950
61.229859 88.493 175.4941
61.673556 88.506 175.2726
62.120468 88.515 175.0364
62.570618 88.521 174.7915
63.024031 88.524 174.5426
63.480729 88.524 174.2937
63.940736 88.521 174.0475
64.404077 88.516 173.8062
64.870776 88.510 173.5709
65.340856 88.502 173.3421
65.814343 88.494 173.1202
66.291261 88.485 172.9055
66.771635 88.475 172.6985
67.255489 88.465 172.4988
67.742850 88.455 172.3053
68.233743 88.445 172.1162
68.728193 88.435 171.9297
69.226226 88.424 171.7447
69.727867 88.413 171.5609
70.233144 88.401 171.3779
70.742083 88.389 171.1953
71.254709 88.377 171.0115
71.771050 88.365 170.8253
72.291132 88.353 170.6362
72.814984 88.342 170.4446
73.342631 88.330 170.2518
73.874102 88.320 170.0587
74.409424 88.309 169.8673
74.948626 88.299 169.6814
75.491734 88.289 169.5062
76.038779 88.279 169.3453
76.589787 88.270 169.1985
77.144788 88.261 169.0617
77.703811 88.253 168.9297
78.266885 88.243 168.7997
78.834039 88.232 168.6718
79.405303 88.218 168.5483
79.980706 88.204 168.4309
80.560280 88.190 168.3155
81.144053 88.177 168.1881
81.732056 88.168 168.0273
82.324320 88.159 167.8167
82.920876 88.147 167.5569
83.521755 88.132 167.2661
84.126988 88.112 166.9677
84.736607 88.089 166.6794
85.350643 88.065 166.4110
85.969129 88.041 166.1675
86.592097 88.018 165.9506
87.219579 87.996 165.7578
87.851608 87.975 165.5832
88.488217 87.954 165.4208
89.129439 87.933 165.2664
89.775308 87.911 165.1175
90.425856 87.888 164.9714
91.081119 87.866 164.8251
91.741131 87.843 164.6765
92.405925 87.821 164.5254
93.075536 87.799 164.3743
93.750000 87.779 164.2262
94.429351 87.761 164.0831
95.113625 87.745 163.9448
95.802858 87.729 163.8100
96.497085 87.713 163.6787
97.196342 87.695 163.5530
97.900667 87.674 163.4365
98.610096 87.651 163.3329
99.324665 87.626 163.2412
100.044413 87.601 163.1542
100.769376 87.577 163.0606
101.499592 87.557 162.9513
102.235100 87.541 162.8217
102.975938 87.530 162.6693
103.722144 87.527 162.4920
104.473757 87.531 162.2862
105.230817 87.542 162.0456
105.993363 87.560 161.7652
106.761435 87.580 161.4447
107.535072 87.598 161.0893
108.314315 87.607 160.7194
109.099206 87.602 160.3897
109.889783 87.582 160.1733
110.686090 87.556 160.1020
111.488167 87.530 160.1400
112.296056 87.503 160.2276
113.109800 87.473 160.3208
113.929440 87.435 160.3866
114.755020 87.388 160.3954
115.586582 87.328 160.3256
116.424170 87.255 160.1744
117.267827 87.171 159.9683
118.117598 87.082 159.7597
118.973527 87.001 159.6048
119.835658 86.945 159.5206
120.704037 86.925 159.4540
121.578708 86.937 159.3285
122.459718 86.967 159.1205
123.347111 87.000 158.8665
124.240935 87.025 158.6202
125.141236 87.036 158.4199
126.048061 87.034 158.2766
126.961458 87.020 158.1745
127.881473 86.997 158.0836
128.808154 86.971 157.9702
129.741551 86.941 157.8071
130.681712 86.911 157.5875
131.628686 86.879 157.3270
132.582521 86.847 157.0479
133.543269 86.817 156.7654
134.510979 86.788 156.4797
135.485701 86.759 156.1827
136.467486 86.727 155.8809
137.456386 86.690 155.5985
138.452451 86.651 155.3531
139.455735 86.613 155.1449
140.466288 86.576 154.9678
141.484165 86.541 154.8150
142.509418 86.506 154.6779
143.542100 86.470 154.5464
144.582265 86.434 154.4110
145.629968 86.395 154.2646
146.685262 86.355 154.1035
147.748204 86.314 153.9288
148.818849 86.273 153.7463
149.897251 86.230 153.5654
150.983469 86.185 153.3971
152.077557 86.140 153.2485
153.179574 86.093 153.1186
154.289576 86.045 153.0000
155.407622 85.997 152.8827
156.533770 85.950 152.7568
157.668078 85.902 152.6167
158.810606 85.855 152.4638
159.961413 85.808 152.3033
161.120559 85.761 152.1404
162.288105 85.713 151.9784
163.464112 85.663 151.8185
164.648640 85.612 151.6615
165.841752 85.559 151.5085
167.043510 85.504 151.3618
168.253976 85.447 151.2247
169.473213 85.389 151.1011
170.701286 85.331 150.9943
171.938258 85.273 150.9042
173.184194 85.215 150.8274
174.439158 85.158 150.7599
175.703216 85.100 150.6986
176.976434 85.043 150.6420
178.258878 84.984 150.5892
179.550615 84.924 150.5385
180.851713 84.864 150.4879
182.162239 84.803 150.4357
183.482262 84.741 150.3815
184.811850 84.679 150.3272
186.151073 84.617 150.2755
187.500000 84.554 150.2294
188.858702 84.491 150.1920
190.227250 84.429 150.1655
191.605715 84.367 150.1495
192.994169 84.305 150.1415
194.392685 84.244 150.1385
195.801334 84.183 150.1385
197.220191 84.122 150.1428
198.649330 84.061 150.1562
200.088825 83.998 150.1847
201.538751 83.936 150.2305
202.999184 83.874 150.2910
204.470200 83.813 150.3600
205.951875 83.752 150.4298
207.444287 83.692 150.4938
208.947514 83.632 150.5484
210.461634 83.571 150.5934
211.986726 83.508 150.6300
213.522869 83.444 150.6599
215.070144 83.379 150.6857
216.628631 83.315 150.7126
218.198411 83.252 150.7475
219.779567 83.189 150.7980
221.372180 83.125 150.8705
222.976334 83.059 150.9711
224.592112 82.990 151.1040
226.219600 82.918 151.2655
227.858880 82.846 151.4394
229.510039 82.775 151.6058
231.173164 82.707 151.7545
232.848340 82.639 151.8872
234.535655 82.573 152.0136
236.235197 82.508 152.1469
237.947054 82.440 152.3004
239.671317 82.371 152.4822
241.408074 82.301 152.6910
243.157416 82.229 152.9172
244.919435 82.157 153.1519
246.694223 82.084 153.3938
248.481871 82.011 153.6473
250.282473 81.939 153.9187
252.096123 81.869 154.2117
253.922915 81.800 154.5248
255.762945 81.735 154.8514
257.616309 81.673 155.1815
259.483103 81.615 155.5052
261.363424 81.557 155.8174
263.257372 81.500 156.1193
265.165043 81.441 156.4173
267.086538 81.381 156.7201
269.021957 81.321 157.0351
270.971401 81.261 157.3668
272.934972 81.201 157.7161
274.912771 81.144 158.0814
276.904902 81.090 158.4605
278.911469 81.037 158.8516
280.932577 80.987 159.2526
282.968330 80.940 159.6593
285.018835 80.896 160.0646
287.084199 80.855 160.4603
289.164530 80.815 160.8398
291.259935 80.775 161.2019
293.370525 80.734 161.5520
295.496408 80.692 161.9006
297.637697 80.648 162.2578
299.794503 80.603 162.6297
301.966937 80.559 163.0175
304.155114 80.515 163.4191
306.359147 80.472 163.8307
308.579152 80.431 164.2488
310.815244 80.390 164.6696
313.067539 80.351 165.0905
315.336156 80.311 165.5122
317.621211 80.272 165.9391
319.922826 80.233 166.3769
322.241118 80.195 166.8290
324.576210 80.160 167.2942
326.928223 80.127 167.7688
329.297280 80.096 168.2489
331.683504 80.069 168.7309
334.087019 80.043 169.2108
336.507952 80.020 169.6843
338.946427 79.996 170.1487
341.402572 79.974 170.6046
343.876516 79.952 171.0565
346.368387 79.930 171.5089
348.878315 79.909 171.9640
351.406431 79.889 172.4219
353.952867 79.870 172.8814
356.517756 79.852 173.3407
359.101230 79.835 173.7981
361.703426 79.820 174.2530
364.324478 79.806 174.7054
366.964523 79.792 175.1561
369.623699 79.780 175.6054
372.302145 79.768 176.0538
375.000000 79.757 176.5012
377.717405 79.748 176.9474
380.454501 79.740 177.3914
383.211431 79.732 177.8327
385.988339 79.726 178.2711
388.785369 79.721 178.7068
391.602668 79.716 179.1400
394.440383 79.713 179.5708
397.298660 79.710 179.9994
400.177650 79.709 -179.5751
403.077502 79.709 -179.1544
405.998368 79.709 -178.7406
408.940400 79.710 -178.3354
411.903750 79.711 -177.9376
414.888575 79.711 -177.5438
417.895028 79.712 -177.1493
420.923268 79.713 -176.7504
423.973452 79.715 -176.3453
427.045738 79.719 -175.9355
430.140287 79.724 -175.5249
433.257261 79.732 -175.1188
436.396822 79.742 -174.7213
439.559133 79.753 -174.3337
442.744360 79.765 -173.9560
445.952668 79.778 -173.5900
449.184225 79.792 -173.2405
452.439199 79.806 -172.9136
455.717760 79.820 -172.6121
459.020079 79.832 -172.3320
462.346327 79.841 -172.0623
465.696680 79.847 -171.7910
469.071310 79.851 -171.5107
472.470394 79.853 -171.2196
475.894109 79.856 -170.9196
479.342634 79.858 -170.6156
482.816148 79.860 -170.3136
486.314833 79.861 -170.0159
489.838871 79.860 -169.7184
493.388445 79.859 -169.4131
496.963741 79.858 -169.0955
500.564945 79.859 -168.7689
504.192245 79.862 -168.4406
507.845830 79.866 -168.1174
511.525890 79.870 -167.8026
515.232618 79.874 -167.4954
518.966206 79.878 -167.1925
522.726849 79.880 -166.8895
526.514743 79.881 -166.5819
530.330086 79.882 -166.2673
534.173076 79.884 -165.9473
538.043915 79.887 -165.6254
541.942803 79.890 -165.3030
545.869944 79.893 -164.9789
549.825542 79.897 -164.6533
553.809805 79.901 -164.3300
557.822939 79.906 -164.0135
561.865154 79.912 -163.7061
565.936660 79.917 -163.4062
570.037671 79.921 -163.1095
574.168399 79.924 -162.8109
578.329060 79.926 -162.5075
582.519870 79.927 -162.1997
586.741049 79.928 -161.8882
590.992817 79.929 -161.5707
595.275394 79.929 -161.2448
599.589005 79.930 -160.9119
603.933874 79.931 -160.5767
608.310228 79.934 -160.2432
612.718295 79.936 -159.9120
617.158304 79.938 -159.5795
621.630488 79.938 -159.2390
626.135079 79.938 -158.8846
630.672311 79.939 -158.5151
635.242423 79.941 -158.1357
639.845651 79.944 -157.7527
644.482237 79.949 -157.3674
649.152421 79.956 -156.9781
653.856447 79.966 -156.5857
658.594560 79.978 -156.1971
663.367008 79.992 -155.8238
668.174039 80.008 -155.4746
673.015903 80.022 -155.1487
677.892854 80.035 -154.8372
682.805145 80.045 -154.5300
687.753032 80.052 -154.2201
692.736774 80.058 -153.9025
697.756631 80.061 -153.5723
702.812863 80.064 -153.2271
707.905735 80.068 -152.8688
713.035511 80.072 -152.5017
718.202461 80.076 -152.1297
723.406852 80.081 -151.7538
728.648956 80.085 -151.3736
733.929047 80.090 -150.9880
739.247399 80.094 -150.5962
744.604290 80.099 -150.1970
750.000000 80.105 -149.7900
755.434809 80.110 -149.3755
760.909001 80.117 -148.9547
766.422861 80.124 -148.5281
771.976677 80.132 -148.0966
777.570739 80.140 -147.6606
783.205337 80.150 -147.2202
788.880766 80.160 -146.7741
794.597321 80.171 -146.3189
800.355301 80.184 -145.8517
806.155005 80.200 -145.3733
811.996736 80.219 -144.8900
817.880799 80.242 -144.4108
823.807501 80.268 -143.9458
829.777150 80.296 -143.5037
835.790057 80.325 -143.0870
841.846536 80.351 -142.6893
847.946903 80.376 -142.2995
854.091476 80.398 -141.9089
860.280575 80.418 -141.5128
866.514523 80.437 -141.1080
872.793644 80.455 -140.6909
879.118267 80.474 -140.2618
885.488720 80.493 -139.8246
891.905336 80.513 -139.3835
898.368450 80.534 -138.9394
904.878398 80.556 -138.4906
911.435520 80.579 -138.0361
918.040157 80.605 -137.5776
924.692655 80.633 -137.1180
931.393359 80.662 -136.6604
938.142619 80.694 -136.2083
944.940787 80.727 -135.7626
951.788218 80.760 -135.3221
958.685268 80.794 -134.8846
965.632296 80.827 -134.4490
972.629666 80.862 -134.0139
979.677741 80.897 -133.5783
986.776890 80.933 -133.1416
993.927482 80.970 -132.7006
1001.129891 81.007 -132.2497
1008.384491 81.046 -131.7850
1015.691660 81.087 -131.3087
1023.051781 81.132 -130.8272
1030.465236 81.180 -130.3494
1037.932411 81.233 -129.8872
1045.453698 81.288 -129.4530
1053.029486 81.345 -129.0524
1060.660172 81.401 -128.6817
1068.346153 81.456 -128.3314
1076.087829 81.508 -127.9909
1083.885605 81.559 -127.6527
1091.739887 81.608 -127.3139
1099.651084 81.656 -126.9737
1107.619609 81.703 -126.6312
1115.645878 81.749 -126.2847
1123.730308 81.795 -125.9320
1131.873321 81.840 -125.5710
1140.075341 81.886 -125.1996
1148.336797 81.932 -124.8168
1156.658119 81.979 -124.4217
1165.039741 82.028 -124.0136
1173.482099 82.080 -123.5914
1181.985634 82.136 -123.1570
1190.550789 82.197 -122.7198
1199.178011 82.265 -122.2963
1207.867749 82.338 -121.9040
1216.620457 82.413 -121.5541
1225.436590 82.489 -121.2468
1234.316609 82.564 -120.9752
1243.260976 82.635 -120.7298
1252.270157 82.703 -120.4998
1261.344623 82.767 -120.2766
1270.484846 82.828 -120.0542
1279.691303 82.886 -119.8274
1288.964474 82.941 -119.5913
1298.304842 82.995 -119.3441
1307.712894 83.048 -119.0867
1317.189120 83.101 -118.8216
1326.734016 83.154 -118.5508
1336.348077 83.207 -118.2735
1346.031806 83.261 -117.9869
1355.785708 83.316 -117.6873
1365.610290 83.372 -117.3706
1375.506065 83.430 -117.0321
1385.473549 83.491 -116.6671
1395.513261 83.556 -116.2754
1405.625726 83.627 -115.8641
1415.811469 83.702 -115.4468
1426.071023 83.783 -115.0391
1436.404921 83.868 -114.6505
1446.813703 83.954 -114.2814
1457.297912 84.040 -113.9262
1467.858093 84.126 -113.5788
1478.494798 84.211 -113.2350
1489.208581 84.295 -112.8918
1500.000000 84.378 -112.5458
1510.869618 84.458 -112.1941
1521.818002 84.535 -111.8347
1532.845723 84.610 -111.4660
1543.953355 84.683 -111.0869
1555.141477 84.757 -110.6976
1566.410674 84.833 -110.3029
1577.761531 84.913 -109.9146
1589.194642 84.997 -109.5471
1600.710601 85.084 -109.2102
1612.310010 85.172 -108.9046
1623.993473 85.260 -108.6249
1635.761599 85.348 -108.3638
1647.615002 85.436 -108.1151
1659.554299 85.525 -107.8742
1671.580114 85.614 -107.6383
1683.693072 85.704 -107.4075
1695.893807 85.795 -107.1844
1708.182952 85.887 -106.9716
1720.561150 85.979 -106.7694
1733.029045 86.071 -106.5752
1745.587288 86.162 -106.3840
1758.236533 86.253 -106.1895
1770.977440 86.345 -105.9865
1783.810673 86.440 -105.7767
1796.736900 86.540 -105.5707
1809.756796 86.645 -105.3839
1822.871040 86.754 -105.2278
1836.080315 86.866 -105.1058
1849.385310 86.980 -105.0160
1862.786718 87.096 -104.9546
1876.285239 87.213 -104.9171
1889.881575 87.333 -104.8990
1903.576436 87.455 -104.8955
1917.370535 87.582 -104.9026
1931.264593 87.714 -104.9179
1945.259332 87.854 -104.9440
1959.355483 88.001 -104.9909
1973.553781 88.154 -105.0732
1987.854965 88.312 -105.2015
2002.259781 88.471 -105.3787
2016.768981 88.630 -105.6008
2031.383320 88.788 -105.8613
2046.103561 88.944 -106.1522
2060.930471 89.098 -106.4670
2075.864823 89.251 -106.8025
2090.907395 89.403 -107.1569
2106.058972 89.555 -107.5285
2121.320344 89.707 -107.9146
2136.692305 89.860 -108.3132
2152.175658 90.016 -108.7270
2167.771210 90.176 -109.1682
2183.479774 90.343 -109.6602
2199.302169 90.514 -110.2307
2215.239219 90.687 -110.9018
2231.291755 90.858 -111.6853
2247.460615 91.024 -112.5819
2263.746641 91.179 -113.5822
2280.150683 91.322 -114.6693
2296.673595 91.451 -115.8225
2313.316238 91.566 -117.0208
2330.079481 91.668 -118.2484
2346.964198 91.757 -119.4981
2363.971268 91.835 -120.7679
2381.101578 91.900 -122.0551
2398.356022 91.952 -123.3526
2415.735498 91.991 -124.6498
2433.240913 92.017 -125.9339
2450.873180 92.030 -127.1927
2468.633217 92.031 -128.4162
2486.521951 92.022 -129.5955
2504.540314 92.003 -130.7213
2522.689246 91.977 -131.7838
2540.969692 91.945 -132.7764
2559.382606 91.913 -133.7018
2577.928947 91.881 -134.5739
2596.609683 91.851 -135.4112
2615.425787 91.823 -136.2301
2634.378241 91.795 -137.0407
2653.468031 91.766 -137.8452
2672.696154 91.734 -138.6382
2692.063613 91.700 -139.4110
2711.571415 91.664 -140.1568
2731.220579 91.628 -140.8770
2751.012130 91.594 -141.5806
2770.947098 91.561 -142.2791
2791.026522 91.529 -142.9821
2811.251451 91.497 -143.6954
2831.622938 91.464 -144.4223
2852.142045 91.429 -145.1647
2872.809842 91.391 -145.9220
2893.627406 91.348 -146.6885
2914.595823 91.300 -147.4539
2935.716186 91.248 -148.2081
2956.989596 91.192 -148.9479
2978.417161 91.135 -149.6773
3000.000000 91.075 -150.4028
3021.739237 91.014 -151.1296
3043.636005 90.950 -151.8585
3065.691446 90.881 -152.5844
3087.906710 90.810 -153.2997
3110.282955 90.735 -153.9998
3132.821347 90.658 -154.6863
3155.523062 90.578 -155.3639
3178.389283 90.496 -156.0356
3201.421202 90.410 -156.7009
3224.620020 90.320 -157.3553
3247.986946 90.225 -157.9918
3271.523198 90.124 -158.5999
3295.230004 90.018 -159.1641
3319.108599 89.908 -159.6696
3343.160228 89.799 -160.1094
3367.386145 89.692 -160.4892
3391.787613 89.592 -160.8235
3416.365904 89.499 -161.1304
3441.122300 89.412 -161.4259
3466.058091 89.332 -161.7200
3491.174576 89.257 -162.0197
3516.473066 89.187 -162.3335
3541.954880 89.121 -162.6711
3567.621345 89.056 -163.0399
3593.473800 88.990 -163.4422
3619.513592 88.921 -163.8748
3645.742080 88.848 -164.3293
3672.160630 88.768 -164.7909
3698.770620 88.683 -165.2407
3725.573436 88.593 -165.6642
3752.570477 88.501 -166.0581
3779.763150 88.410 -166.4310
3807.152872 88.320 -166.7979
3834.741071 88.232 -167.1728
3862.529185 88.143 -167.5648
3890.518664 88.053 -167.9808
3918.710966 87.962 -168.4286
3947.107561 87.867 -168.9162
3975.709929 87.767 -169.4477
4004.519563 87.659 -170.0223
4033.537962 87.540 -170.6318
4062.766641 87.405 -171.2579
4092.207123 87.253 -171.8716
4121.860942 87.083 -172.4402
4151.729646 86.896 -172.9338
4181.814790 86.692 -173.3264
4212.117944 86.475 -173.5926
4242.640687 86.246 -173.7040
4273.384610 86.010 -173.6337
4304.351317 85.772 -173.3642
4335.542421 85.540 -172.8928
4366.959549 85.321 -172.2324
4398.604338 85.120 -171.4103
4430.478438 84.944 -170.4638
4462.583511 84.795 -169.4318
4494.921231 84.675 -168.3531
4527.493283 84.585 -167.2690
4560.301365 84.525 -166.2248
4593.347189 84.492 -165.2636
4626.632476 84.481 -164.4169
4660.158962 84.487 -163.7018
4693.928395 84.505 -163.1265
4727.942535 84.532 -162.6946
4762.203156 84.563 -162.4078
4796.712043 84.595 -162.2657
4831.470996 84.623 -162.2621
4866.481826 84.643 -162.3808
4901.746360 84.653 -162.5989
4937.266434 84.649 -162.8929
4973.043902 84.630 -163.2410
5009.080628 84.595 -163.6184
5045.378492 84.544 -163.9949
5081.939384 84.477 -164.3394
5118.765212 84.397 -164.6259
5155.857894 84.308 -164.8388
5193.219366 84.213 -164.9738
5230.851574 84.116 -165.0335
5268.756481 84.019 -165.0215
5306.936062 83.923 -164.9432
5345.392309 83.830 -164.8080
5384.127225 83.742 -164.6268
5423.142830 83.657 -164.4054
5462.441159 83.576 -164.1434
5502.024259 83.499 -163.8394
5541.894195 83.429 -163.4964
5582.053045 83.368 -163.1250
5622.502902 83.316 -162.7412
5663.245876 83.274 -162.3610
5704.284090 83.242 -161.9992
5745.619684 83.219 -161.6708
5787.254813 83.203 -161.3873
5829.191647 83.190 -161.1519
5871.432373 83.178 -160.9601
5913.979192 83.166 -160.8035
5956.834323 83.152 -160.6749
6000.000000 83.135 -160.5695
6043.478473 83.112 -160.4786
6087.272010 83.081 -160.3829
6131.382892 83.040 -160.2481
6175.813420 82.990 -160.0251
6220.565910 82.936 -159.6606
6265.642695 82.889 -159.1236
6311.046124 82.862 -158.4287
6356.778566 82.864 -157.6381
6402.842404 82.898 -156.8356
6449.240040 82.961 -156.0949
6495.973891 83.047 -155.4601
6543.046396 83.148 -154.9447
6590.460007 83.257 -154.5370
6638.217197 83.372 -154.2078
6686.320456 83.490 -153.9209
6734.772290 83.615 -153.6443
6783.575226 83.750 -153.3588
6832.731809 83.901 -153.0613
6882.244600 84.072 -152.7652
6932.116181 84.267 -152.4999
6982.349153 84.489 -152.3051
7032.946133 84.738 -152.2233
7083.909760 85.015 -152.2956
7135.242690 85.317 -152.5618
7186.947600 85.643 -153.0605
7239.027185 85.989 -153.8281
7291.484160 86.348 -154.8986
7344.321260 86.715 -156.3015
7397.541239 87.082 -158.0575
7451.146872 87.438 -160.1736
7505.140954 87.777 -162.6442
7559.526299 88.089 -165.4546
7614.305743 88.368 -168.5832
7669.482141 88.608 -172.0038
7725.058371 88.802 -175.6876
7781.037328 88.945 -179.6005
7837.421932 89.029 176.3015
7894.215122 89.049 172.0743
7951.419859 89.001 167.7830
8009.039125 88.883 163.4974
8067.075924 88.696 159.2875
8125.533282 88.444 155.2167
8184.414245 88.130 151.3397
8243.721885 87.761 147.7056
8303.459292 87.340 144.3593
8363.629581 86.876 141.3404
8424.235888 86.375 138.6826
8485.281374 85.846 136.4087
8546.769221 85.299 134.5265
8608.702634 84.743 133.0295
8671.084842 84.186 131.9030
8733.919097 83.636 131.1285
8797.208675 83.098 130.6875
8860.956876 82.577 130.5600
8925.167022 82.079 130.7192
8989.842461 81.609 131.1292
9054.986566 81.172 131.7492
9120.602731 80.768 132.5394
9186.694378 80.398 133.4660
9253.264952 80.062 134.5032
9320.317925 79.761 135.6276
9387.856790 79.494 136.8126
9455.885071 79.262 138.0270
9524.406312 79.065 139.2391
9593.424086 78.900 140.4227
9662.941992 78.766 141.5605
9732.963653 78.663 142.6377
9803.492719 78.589 143.6333
9874.532869 78.542 144.5181
9946.087805 78.521 145.2582
10018.161257 78.521 145.8226
10090.756983 78.537 146.1858
10163.878768 78.564 146.3241
10237.530423 78.595 146.2143
10311.715789 78.620 145.8385
10386.438732 78.632 145.1933
10461.703149 78.617 144.2979
10537.512962 78.567 143.1931
10613.872125 78.472 141.9353
10690.784618 78.327 140.5917
10768.254450 78.126 139.2404
10846.285661 77.867 137.9729
10924.882318 77.550 136.8894
11004.048518 77.182 136.0872
11083.788390 76.771 135.6473
11164.106090 76.332 135.6240
11245.005805 75.880 136.0427
11326.491752 75.432 136.8970
11408.568180 75.003 138.1467
11491.239368 74.606 139.7199
11574.509626 74.250 141.5257
11658.383294 73.938 143.4737
11742.864745 73.670 145.4879
11827.958384 73.443 147.5065
11913.668646 73.255 149.4765
12000.000000 73.098 151.3513
12086.956947 72.968 153.0939
12174.544019 72.856 154.6797
12262.765784 72.757 156.0958
12351.626840 72.662 157.3372
12441.131819 72.564 158.4087
12531.285389 72.457 159.3279
12622.092249 72.335 160.1252
12713.557132 72.193 160.8370
12805.684808 72.030 161.5010
12898.480079 71.843 162.1564
12991.947783 71.633 162.8463
13086.092792 71.402 163.6144
13180.920015 71.152 164.4957
13276.434395 70.887 165.5138
13372.640911 70.612 166.6828
13469.544580 70.330 168.0123
13567.150452 70.046 169.5039
13665.463617 69.764 171.1504
13764.489200 69.486 172.9398
13864.232362 69.216 174.8615
13964.698305 68.955 176.9038
14065.892266 68.707 179.0521
14167.819519 68.473 -178.7076
14270.485380 68.253 -176.3828
14373.895200 68.051 -173.9782
14478.054370 67.867 -171.4991
14582.968320 67.703 -168.9467
14688.642520 67.561 -166.3111
14795.082478 67.446 -163.5761
14902.293745 67.364 -160.7271
15010.281908 67.325 -157.7565
15119.052599 67.341 -154.6706
15228.611486 67.429 -151.5056
15338.964283 67.602 -148.3418
15450.116741 67.874 -145.3068
15562.074656 68.247 -142.5689
15674.843864 68.713 -140.3162
15788.430244 69.256 -138.7244
15902.839718 69.852 -137.9227
16018.078250 70.475 -137.9785
16134.151848 71.104 -138.9080
16251.066563 71.719 -140.7010
16368.828491 72.299 -143.3420
16487.443769 72.827 -146.8167
16606.918584 73.279 -151.1046
16727.259161 73.628 -156.1598
16848.471777 73.845 -161.8906
16970.562748 73.904 -168.1473
17093.538442 73.781 -174.7210
17217.405268 73.463 178.6447
17342.169684 72.948 172.2251
17467.838194 72.246 166.2848
17594.417350 71.373 161.0594
17721.913751 70.351 156.7513
17850.334044 69.205 153.5369
17979.684923 67.961 151.5859
18109.973131 66.653 151.0718
18241.205462 65.321 152.1384
18373.388756 64.024 154.7816
18506.529905 62.830 158.6775
18640.635849 61.799 163.1438
18775.713581 60.949 167.4349
18911.770141 60.254 171.1406
19048.812624 59.671 174.2173
19186.848172 59.166 176.7195
19325.883983 58.712 178.6296
19465.927305 58.289 179.9243
19606.985439 57.882 -179.3050
19749.065738 57.508 -178.8772
19892.175609 57.211 -178.6357
20036.322514 57.044 -178.5145
