* Measurement data measured by REW V5.31
* Source: EXCL: Microphone (USB Sound Device        ), no input selected, L, volume: no control
* Format: 256k Log Swept Sine, 1 sweep at -4.0 dBFS with no timing reference
* Dated: Jul 14, 2024 1:15:52 PM
* REW Settings:
*  C-weighting compensation: Off
*  Target level: 75.0 dB
* Note: KZ EDC Pro L
* Measurement: L KZ EDC Pro
* Smoothing: 1/12 octave
* Frequency Step: 96 ppo
* Start Frequency: 0.36621094 Hz
*
* Freq(Hz) SPL(dB) Phase(degrees)
0.366211 79.653 -85.2942
0.368865 79.663 -85.3696
0.371538 79.679 -85.4822
0.374230 79.698 -85.6233
0.376942 79.720 -85.7852
0.379673 79.744 -85.9623
0.382424 79.768 -86.1508
0.385196 79.793 -86.3486
0.387987 79.819 -86.5542
0.390798 79.845 -86.7670
0.393630 79.871 -86.9864
0.396483 79.897 -87.2124
0.399356 79.923 -87.4448
0.402250 79.950 -87.6835
0.405165 79.977 -87.9284
0.408101 80.004 -88.1796
0.411058 80.031 -88.4371
0.414037 80.059 -88.7007
0.417037 80.087 -88.9704
0.420059 80.115 -89.2463
0.423103 80.143 -89.5282
0.426169 80.171 -89.8162
0.429257 80.199 -90.1101
0.432368 80.228 -90.4099
0.435501 80.257 -90.7156
0.438656 80.286 -91.0271
0.441835 80.316 -91.3442
0.445037 80.345 -91.6671
0.448262 80.375 -91.9954
0.451510 80.405 -92.3293
0.454782 80.435 -92.6685
0.458077 80.465 -93.0130
0.461397 80.496 -93.3627
0.464740 80.527 -93.7176
0.468108 80.558 -94.0773
0.471500 80.589 -94.4420
0.474917 80.621 -94.8114
0.478358 80.653 -95.1854
0.481825 80.685 -95.5640
0.485316 80.717 -95.9469
0.488833 80.749 -96.3341
0.492375 80.782 -96.7254
0.495943 80.815 -97.1207
0.499537 80.848 -97.5198
0.503157 80.882 -97.9227
0.506803 80.915 -98.3291
0.510475 80.949 -98.7389
0.514175 80.983 -99.1519
0.517900 81.018 -99.5681
0.521653 81.052 -99.9872
0.525434 81.087 -100.4092
0.529241 81.122 -100.8338
0.533076 81.158 -101.2608
0.536939 81.193 -101.6903
0.540830 81.229 -102.1219
0.544749 81.266 -102.5555
0.548696 81.302 -102.9911
0.552673 81.339 -103.4284
0.556677 81.376 -103.8672
0.560711 81.413 -104.3075
0.564774 81.450 -104.7491
0.568867 81.488 -105.1918
0.572989 81.526 -105.6355
0.577141 81.565 -106.0801
0.581324 81.603 -106.5254
0.585536 81.642 -106.9713
0.589779 81.681 -107.4177
0.594053 81.721 -107.8644
0.598358 81.760 -108.3113
0.602694 81.801 -108.7583
0.607061 81.841 -109.2054
0.611460 81.881 -109.6523
0.615891 81.922 -110.0990
0.620354 81.964 -110.5453
0.624849 82.005 -110.9913
0.629377 82.047 -111.4369
0.633938 82.089 -111.8818
0.638532 82.131 -112.3261
0.643159 82.174 -112.7698
0.647819 82.217 -113.2127
0.652514 82.260 -113.6548
0.657242 82.304 -114.0960
0.662005 82.348 -114.5364
0.666802 82.392 -114.9759
0.671634 82.437 -115.4145
0.676501 82.482 -115.8521
0.681403 82.527 -116.2889
0.686341 82.573 -116.7247
0.691314 82.618 -117.1597
0.696324 82.664 -117.5939
0.701370 82.711 -118.0274
0.706452 82.757 -118.4604
0.711571 82.803 -118.8932
0.716728 82.848 -119.3261
0.721921 82.892 -119.7600
0.727153 82.933 -120.1957
0.732422 82.973 -120.6346
0.737729 83.009 -121.0779
0.743075 83.042 -121.5272
0.748460 83.073 -121.9835
0.753883 83.102 -122.4476
0.759346 83.130 -122.9198
0.764849 83.156 -123.4005
0.770391 83.183 -123.8896
0.775974 83.208 -124.3870
0.781597 83.233 -124.8925
0.787261 83.257 -125.4060
0.792966 83.281 -125.9273
0.798712 83.304 -126.4561
0.804500 83.327 -126.9922
0.810329 83.349 -127.5354
0.816201 83.371 -128.0852
0.822116 83.392 -128.6416
0.828073 83.412 -129.2041
0.834074 83.432 -129.7726
0.840118 83.451 -130.3467
0.846206 83.470 -130.9261
0.852338 83.488 -131.5106
0.858514 83.505 -132.0997
0.864735 83.522 -132.6932
0.871001 83.538 -133.2908
0.877313 83.553 -133.8922
0.883670 83.567 -134.4970
0.890074 83.581 -135.1049
0.896524 83.594 -135.7155
0.903020 83.606 -136.3286
0.909564 83.618 -136.9439
0.916155 83.628 -137.5609
0.922794 83.638 -138.1794
0.929481 83.647 -138.7990
0.936216 83.655 -139.4195
0.943000 83.662 -140.0405
0.949834 83.669 -140.6617
0.956717 83.674 -141.2827
0.963649 83.679 -141.9034
0.970632 83.682 -142.5233
0.977666 83.685 -143.1423
0.984750 83.687 -143.7600
0.991886 83.687 -144.3761
0.999074 83.687 -144.9904
1.006314 83.686 -145.6027
1.013606 83.683 -146.2126
1.020951 83.680 -146.8200
1.028349 83.675 -147.4247
1.035801 83.669 -148.0264
1.043307 83.662 -148.6250
1.050867 83.654 -149.2205
1.058482 83.645 -149.8129
1.066152 83.635 -150.4026
1.073878 83.623 -150.9900
1.081660 83.610 -151.5764
1.089498 83.596 -152.1633
1.097393 83.581 -152.7533
1.105345 83.564 -153.3494
1.113355 83.546 -153.9549
1.121423 83.526 -154.5726
1.129549 83.506 -155.2046
1.137734 83.483 -155.8526
1.145979 83.460 -156.5177
1.154283 83.435 -157.2005
1.162647 83.408 -157.9017
1.171072 83.380 -158.6214
1.179558 83.350 -159.3600
1.188106 83.319 -160.1177
1.196715 83.286 -160.8946
1.205387 83.251 -161.6907
1.214122 83.215 -162.5060
1.222920 83.177 -163.3406
1.231782 83.137 -164.1943
1.240708 83.095 -165.0670
1.249699 83.051 -165.9585
1.258754 83.005 -166.8684
1.267876 82.957 -167.7964
1.277063 82.907 -168.7421
1.286318 82.855 -169.7047
1.295639 82.801 -170.6838
1.305027 82.744 -171.6784
1.314484 82.685 -172.6877
1.324009 82.624 -173.7108
1.333604 82.561 -174.7463
1.343268 82.495 -175.7931
1.353002 82.426 -176.8497
1.362806 82.355 -177.9147
1.372681 82.281 -178.9862
1.382628 82.204 179.9374
1.392647 82.125 178.8582
1.402739 82.042 177.7777
1.412904 81.957 176.6979
1.423142 81.868 175.6199
1.433455 81.776 174.5444
1.443843 81.679 173.4707
1.454305 81.578 172.3963
1.464844 81.471 171.3165
1.475459 81.357 170.2250
1.486150 81.235 169.1142
1.496920 81.105 167.9771
1.507767 80.967 166.8077
1.518693 80.819 165.6011
1.529698 80.663 164.3530
1.540783 80.499 163.0602
1.551948 80.328 161.7194
1.563194 80.149 160.3278
1.574521 79.965 158.8826
1.585931 79.775 157.3810
1.597423 79.580 155.8204
1.608999 79.382 154.1980
1.620658 79.181 152.5111
1.632402 78.979 150.7572
1.644232 78.776 148.9337
1.656146 78.574 147.0382
1.668147 78.373 145.0685
1.680235 78.175 143.0226
1.692411 77.982 140.8987
1.704675 77.794 138.6955
1.717028 77.613 136.4117
1.729470 77.440 134.0467
1.742003 77.278 131.5998
1.754626 77.127 129.0707
1.767341 76.989 126.4586
1.780147 76.866 123.7617
1.793047 76.758 120.9767
1.806040 76.669 118.0966
1.819128 76.597 115.1099
1.832310 76.544 111.9998
1.845587 76.510 108.7450
1.858961 76.493 105.3231
1.872432 76.493 101.7156
1.886001 76.510 97.9106
1.899667 76.543 93.9052
1.913433 76.591 89.7056
1.927299 76.654 85.3288
1.941265 76.730 80.8017
1.955332 76.819 76.1609
1.969501 76.920 71.4500
1.983773 77.033 66.7180
1.998148 77.157 62.0149
2.012627 77.291 57.3885
2.027212 77.434 52.8815
2.041902 77.585 48.5285
2.056698 77.743 44.3555
2.071602 77.908 40.3789
2.086614 78.079 36.6066
2.101734 78.254 33.0392
2.116964 78.432 29.6706
2.132304 78.614 26.4901
2.147756 78.799 23.4822
2.163320 78.987 20.6285
2.178996 79.178 17.9080
2.194786 79.375 15.2980
2.210690 79.578 12.7770
2.226710 79.789 10.3268
2.242845 80.010 7.9352
2.259098 80.241 5.5960
2.275468 80.482 3.3071
2.291957 80.732 1.0692
2.308566 80.990 -1.1154
2.325295 81.255 -3.2443
2.342145 81.526 -5.3149
2.359117 81.802 -7.3253
2.376212 82.080 -9.2739
2.393431 82.359 -11.1602
2.410775 82.637 -12.9838
2.428244 82.914 -14.7451
2.445840 83.186 -16.4456
2.463564 83.453 -18.0869
2.481416 83.713 -19.6719
2.499397 83.965 -21.2046
2.517509 84.207 -22.6904
2.535752 84.438 -24.1368
2.554127 84.659 -25.5529
2.572635 84.870 -26.9489
2.591277 85.071 -28.3348
2.610055 85.263 -29.7184
2.628968 85.447 -31.1034
2.648019 85.623 -32.4910
2.667208 85.793 -33.8795
2.686535 85.956 -35.2661
2.706003 86.113 -36.6466
2.725612 86.264 -38.0167
2.745363 86.410 -39.3718
2.765257 86.550 -40.7077
2.785295 86.685 -42.0199
2.805478 86.816 -43.3048
2.825808 86.943 -44.5591
2.846285 87.066 -45.7806
2.866910 87.185 -46.9685
2.887685 87.300 -48.1237
2.908611 87.411 -49.2493
2.929688 87.518 -50.3513
2.950917 87.620 -51.4370
2.972301 87.718 -52.5135
2.993839 87.810 -53.5864
3.015534 87.896 -54.6586
3.037386 87.977 -55.7303
3.059396 88.053 -56.8005
3.081565 88.124 -57.8663
3.103896 88.189 -58.9240
3.126388 88.250 -59.9695
3.149043 88.307 -60.9982
3.171862 88.359 -62.0054
3.194847 88.408 -62.9867
3.217998 88.453 -63.9382
3.241317 88.494 -64.8571
3.264805 88.532 -65.7424
3.288463 88.566 -66.5952
3.312293 88.596 -67.4185
3.336295 88.622 -68.2170
3.360471 88.642 -68.9946
3.384822 88.658 -69.7542
3.409350 88.669 -70.4967
3.434056 88.675 -71.2220
3.458940 88.678 -71.9283
3.484005 88.678 -72.6134
3.509252 88.674 -73.2736
3.534681 88.669 -73.9052
3.560295 88.661 -74.5040
3.586094 88.653 -75.0656
3.612081 88.644 -75.5858
3.638255 88.633 -76.0614
3.664620 88.622 -76.4897
3.691175 88.609 -76.8701
3.717923 88.595 -77.2028
3.744864 88.578 -77.4890
3.772001 88.560 -77.7307
3.799335 88.541 -77.9303
3.826866 88.521 -78.0901
3.854597 88.503 -78.2125
3.882529 88.486 -78.2996
3.910664 88.473 -78.3535
3.939002 88.463 -78.3755
3.967546 88.458 -78.3661
3.996296 88.459 -78.3248
4.025255 88.466 -78.2496
4.054423 88.479 -78.1383
4.083804 88.499 -77.9895
4.113396 88.524 -77.8038
4.143204 88.554 -77.5847
4.173227 88.590 -77.3381
4.203468 88.632 -77.0718
4.233928 88.680 -76.7946
4.264609 88.733 -76.5151
4.295512 88.793 -76.2422
4.326639 88.859 -75.9825
4.357992 88.932 -75.7411
4.389572 89.012 -75.5200
4.421380 89.100 -75.3189
4.453419 89.195 -75.1367
4.485691 89.298 -74.9731
4.518196 89.408 -74.8296
4.550936 89.523 -74.7094
4.583914 89.643 -74.6168
4.617131 89.766 -74.5566
4.650589 89.891 -74.5339
4.684289 90.017 -74.5527
4.718233 90.144 -74.6163
4.752424 90.271 -74.7263
4.786862 90.399 -74.8826
4.821549 90.526 -75.0833
4.856488 90.654 -75.3257
4.891680 90.781 -75.6065
4.927127 90.908 -75.9225
4.962831 91.034 -76.2708
4.998794 91.157 -76.6488
5.035017 91.277 -77.0551
5.071503 91.393 -77.4888
5.108253 91.506 -77.9502
5.145270 91.613 -78.4397
5.182555 91.717 -78.9573
5.220110 91.815 -79.5019
5.257937 91.909 -80.0701
5.296038 91.999 -80.6572
5.334415 92.084 -81.2581
5.373071 92.165 -81.8672
5.412006 92.240 -82.4802
5.451224 92.311 -83.0939
5.490725 92.377 -83.7073
5.530514 92.438 -84.3206
5.570590 92.493 -84.9341
5.610957 92.544 -85.5474
5.651616 92.589 -86.1580
5.692570 92.631 -86.7621
5.733821 92.668 -87.3552
5.775370 92.702 -87.9327
5.817221 92.733 -88.4907
5.859375 92.761 -89.0270
5.901834 92.785 -89.5406
5.944602 92.807 -90.0320
5.987679 92.826 -90.5015
6.031068 92.844 -90.9492
6.074771 92.860 -91.3745
6.118792 92.876 -91.7764
6.163131 92.892 -92.1536
6.207792 92.908 -92.5048
6.252776 92.926 -92.8292
6.298086 92.945 -93.1270
6.343725 92.966 -93.3998
6.389694 92.989 -93.6506
6.435996 93.014 -93.8834
6.482634 93.042 -94.1017
6.529610 93.073 -94.3091
6.576926 93.109 -94.5081
6.624585 93.148 -94.7002
6.672590 93.192 -94.8870
6.720942 93.240 -95.0709
6.769645 93.291 -95.2559
6.818700 93.346 -95.4463
6.868111 93.405 -95.6472
6.917881 93.466 -95.8624
6.968010 93.531 -96.0951
7.018504 93.598 -96.3464
7.069362 93.667 -96.6173
7.120590 93.739 -96.9081
7.172189 93.811 -97.2198
7.224161 93.885 -97.5535
7.276511 93.958 -97.9104
7.329239 94.031 -98.2910
7.382350 94.103 -98.6953
7.435845 94.173 -99.1222
7.489729 94.242 -99.5695
7.544002 94.310 -100.0344
7.598669 94.375 -100.5142
7.653732 94.437 -101.0067
7.709194 94.496 -101.5101
7.765058 94.552 -102.0228
7.821327 94.605 -102.5428
7.878004 94.655 -103.0671
7.935091 94.701 -103.5922
7.992592 94.745 -104.1143
8.050510 94.786 -104.6306
8.108847 94.825 -105.1393
8.167607 94.860 -105.6389
8.226793 94.894 -106.1282
8.286408 94.926 -106.6055
8.346454 94.956 -107.0691
8.406936 94.986 -107.5176
8.467856 95.015 -107.9502
8.529218 95.044 -108.3669
8.591024 95.073 -108.7684
8.653278 95.103 -109.1561
8.715983 95.133 -109.5314
8.779143 95.165 -109.8953
8.842760 95.198 -110.2493
8.906839 95.233 -110.5950
8.971381 95.269 -110.9346
9.036392 95.308 -111.2709
9.101873 95.348 -111.6064
9.167829 95.390 -111.9435
9.234263 95.433 -112.2841
9.301178 95.478 -112.6293
9.368578 95.523 -112.9808
9.436467 95.570 -113.3398
9.504847 95.616 -113.7075
9.573723 95.663 -114.0845
9.643099 95.710 -114.4709
9.712976 95.755 -114.8660
9.783361 95.800 -115.2689
9.854255 95.844 -115.6786
9.925663 95.886 -116.0941
9.997588 95.927 -116.5140
10.070035 95.966 -116.9368
10.143007 96.003 -117.3607
10.216507 96.039 -117.7837
10.290540 96.073 -118.2041
10.365109 96.105 -118.6208
10.440219 96.136 -119.0326
10.515873 96.165 -119.4384
10.592076 96.194 -119.8374
10.668830 96.221 -120.2291
10.746141 96.248 -120.6134
10.824012 96.275 -120.9906
10.902447 96.301 -121.3613
10.981451 96.328 -121.7264
11.061027 96.354 -122.0867
11.141180 96.381 -122.4431
11.221913 96.408 -122.7970
11.303232 96.435 -123.1498
11.385140 96.462 -123.5024
11.467641 96.489 -123.8560
11.550741 96.516 -124.2112
11.634442 96.542 -124.5686
11.718750 96.568 -124.9285
11.803669 96.594 -125.2912
11.889203 96.618 -125.6564
11.975357 96.642 -126.0237
12.062136 96.665 -126.3923
12.149543 96.687 -126.7618
12.237583 96.707 -127.1315
12.326262 96.727 -127.5006
12.415583 96.745 -127.8684
12.505552 96.763 -128.2344
12.596172 96.780 -128.5983
12.687449 96.796 -128.9600
12.779387 96.812 -129.3198
12.871992 96.828 -129.6780
12.965268 96.843 -130.0350
13.059220 96.858 -130.3917
13.153852 96.873 -130.7490
13.249170 96.887 -131.1077
13.345179 96.902 -131.4686
13.441884 96.916 -131.8323
13.539289 96.930 -132.1994
13.637401 96.943 -132.5702
13.736223 96.956 -132.9447
13.835761 96.968 -133.3226
13.936021 96.979 -133.7034
14.037007 96.989 -134.0865
14.138725 96.998 -134.4710
14.241180 97.006 -134.8560
14.344377 97.014 -135.2406
14.448323 97.020 -135.6241
14.553021 97.026 -136.0059
14.658478 97.032 -136.3857
14.764700 97.037 -136.7635
14.871691 97.043 -137.1396
14.979457 97.048 -137.5146
15.088005 97.054 -137.8893
15.197339 97.060 -138.2644
15.307465 97.067 -138.6411
15.418389 97.074 -139.0203
15.530117 97.081 -139.4027
15.642655 97.088 -139.7888
15.756008 97.095 -140.1788
15.870182 97.101 -140.5724
15.985184 97.108 -140.9692
16.101019 97.113 -141.3684
16.217694 97.118 -141.7689
16.335214 97.123 -142.1695
16.453586 97.127 -142.5690
16.572815 97.130 -142.9664
16.692909 97.134 -143.3608
16.813872 97.136 -143.7518
16.935713 97.139 -144.1391
17.058436 97.143 -144.5228
17.182048 97.146 -144.9035
17.306556 97.150 -145.2817
17.431967 97.154 -145.6584
17.558286 97.159 -146.0344
17.685521 97.164 -146.4104
17.813677 97.169 -146.7869
17.942762 97.174 -147.1642
18.072783 97.179 -147.5421
18.203746 97.184 -147.9205
18.335658 97.189 -148.2986
18.468526 97.192 -148.6760
18.602356 97.196 -149.0518
18.737156 97.199 -149.4254
18.872934 97.201 -149.7963
19.009695 97.203 -150.1642
19.147447 97.205 -150.5291
19.286197 97.207 -150.8910
19.425953 97.208 -151.2502
19.566721 97.209 -151.6071
19.708510 97.210 -151.9620
19.851326 97.210 -152.3150
19.995177 97.210 -152.6663
20.140070 97.209 -153.0159
20.286013 97.208 -153.3636
20.433014 97.207 -153.7094
20.581080 97.205 -154.0532
20.730219 97.203 -154.3950
20.880439 97.200 -154.7352
21.031747 97.197 -155.0743
21.184152 97.195 -155.4128
21.337661 97.191 -155.7516
21.492282 97.188 -156.0914
21.648024 97.185 -156.4326
21.804895 97.181 -156.7756
21.962902 97.176 -157.1207
22.122054 97.171 -157.4673
22.282360 97.165 -157.8151
22.443827 97.159 -158.1633
22.606464 97.152 -158.5115
22.770280 97.145 -158.8589
22.935283 97.137 -159.2054
23.101481 97.129 -159.5510
23.268884 97.121 -159.8961
23.437500 97.113 -160.2410
23.607338 97.106 -160.5865
23.778406 97.098 -160.9329
23.950714 97.090 -161.2805
24.124271 97.082 -161.6291
24.299086 97.074 -161.9783
24.475167 97.066 -162.3272
24.652524 97.057 -162.6750
24.831166 97.048 -163.0208
25.011103 97.040 -163.3638
25.192344 97.031 -163.7037
25.374898 97.023 -164.0403
25.558775 97.015 -164.3739
25.743984 97.008 -164.7051
25.930536 97.001 -165.0345
26.118439 96.995 -165.3628
26.307704 96.989 -165.6907
26.498341 96.983 -166.0186
26.690359 96.978 -166.3467
26.883768 96.973 -166.6752
27.078579 96.968 -167.0042
27.274801 96.963 -167.3335
27.472446 96.958 -167.6630
27.671522 96.952 -167.9926
27.872042 96.946 -168.3217
28.074014 96.939 -168.6502
28.277450 96.932 -168.9775
28.482360 96.924 -169.3031
28.688755 96.916 -169.6265
28.896645 96.907 -169.9474
29.106042 96.898 -170.2659
29.316957 96.888 -170.5818
29.529400 96.878 -170.8954
29.743382 96.867 -171.2070
29.958915 96.856 -171.5167
30.176009 96.845 -171.8246
30.394677 96.833 -172.1307
30.614929 96.821 -172.4348
30.836778 96.809 -172.7372
31.060234 96.797 -173.0379
31.285309 96.785 -173.3376
31.512015 96.773 -173.6372
31.740364 96.762 -173.9375
31.970368 96.750 -174.2394
32.202039 96.739 -174.5438
32.435388 96.728 -174.8512
32.670428 96.717 -175.1615
32.907171 96.706 -175.4746
33.145630 96.694 -175.7900
33.385817 96.683 -176.1072
33.627745 96.671 -176.4252
33.871425 96.658 -176.7435
34.116871 96.646 -177.0613
34.364096 96.633 -177.3781
34.613113 96.620 -177.6935
34.863934 96.606 -178.0072
35.116572 96.593 -178.3190
35.371041 96.579 -178.6288
35.627354 96.565 -178.9364
35.885525 96.551 -179.2416
36.145566 96.536 -179.5440
36.407492 96.521 -179.8435
36.671316 96.506 179.8600
36.937051 96.491 179.5663
37.204712 96.476 179.2751
37.474313 96.461 178.9855
37.745867 96.445 178.6971
38.019389 96.429 178.4099
38.294893 96.413 178.1238
38.572394 96.396 177.8398
38.851905 96.378 177.5586
39.133442 96.360 177.2807
39.417019 96.343 177.0061
39.702651 96.325 176.7340
39.990353 96.307 176.4635
40.280140 96.289 176.1934
40.572026 96.272 175.9229
40.866028 96.254 175.6519
41.162160 96.236 175.3809
41.460438 96.217 175.1110
41.760877 96.198 174.8433
42.063494 96.179 174.5784
42.368303 96.161 174.3163
42.675322 96.142 174.0565
42.984565 96.123 173.7979
43.296048 96.105 173.5394
43.609789 96.087 173.2803
43.925804 96.069 173.0200
44.244108 96.051 172.7589
44.564719 96.032 172.4978
44.887654 96.012 172.2378
45.212928 95.993 171.9798
45.540560 95.973 171.7245
45.870565 95.952 171.4722
46.202962 95.932 171.2225
46.537768 95.912 170.9751
46.875000 95.892 170.7291
47.214676 95.872 170.4837
47.556813 95.852 170.2380
47.901429 95.831 169.9918
48.248542 95.811 169.7451
48.598171 95.790 169.4984
48.950334 95.769 169.2529
49.305048 95.747 169.0096
49.662333 95.725 168.7693
50.022206 95.702 168.5327
50.384688 95.679 168.2998
50.749796 95.656 168.0706
51.117550 95.633 167.8450
51.487969 95.610 167.6227
51.861072 95.587 167.4037
52.236879 95.563 167.1877
52.615409 95.540 166.9741
52.996681 95.517 166.7625
53.380717 95.495 166.5524
53.767536 95.472 166.3436
54.157158 95.450 166.1355
54.549603 95.428 165.9280
54.944892 95.406 165.7206
55.343045 95.385 165.5128
55.744084 95.364 165.3038
56.148028 95.343 165.0927
56.554900 95.322 164.8787
56.964720 95.302 164.6613
57.377510 95.281 164.4407
57.793291 95.259 164.2175
58.212085 95.237 163.9934
58.633914 95.214 163.7699
59.058799 95.189 163.5486
59.486764 95.165 163.3302
59.917829 95.139 163.1147
60.352019 95.113 162.9016
60.789354 95.087 162.6906
61.229859 95.060 162.4816
61.673556 95.032 162.2751
62.120468 95.004 162.0719
62.570618 94.976 161.8719
63.024031 94.948 161.6747
63.480729 94.920 161.4797
63.940736 94.891 161.2862
64.404077 94.863 161.0942
64.870776 94.835 160.9039
65.340856 94.807 160.7157
65.814343 94.779 160.5295
66.291261 94.751 160.3454
66.771635 94.723 160.1633
67.255489 94.694 159.9833
67.742850 94.666 159.8060
68.233743 94.636 159.6311
68.728193 94.607 159.4584
69.226226 94.577 159.2875
69.727867 94.547 159.1185
70.233144 94.516 158.9516
70.742083 94.485 158.7872
71.254709 94.454 158.6255
71.771050 94.423 158.4658
72.291132 94.392 158.3069
72.814984 94.362 158.1468
73.342631 94.333 157.9833
73.874102 94.304 157.8164
74.409424 94.274 157.6488
74.948626 94.245 157.4851
75.491734 94.215 157.3282
76.038779 94.187 157.1773
76.589787 94.160 157.0284
77.144788 94.134 156.8776
77.703811 94.108 156.7231
78.266885 94.082 156.5660
78.834039 94.055 156.4075
79.405303 94.028 156.2479
79.980706 94.001 156.0859
80.560280 93.973 155.9193
81.144053 93.944 155.7463
81.732056 93.914 155.5665
82.324320 93.883 155.3816
82.920876 93.849 155.1945
83.521755 93.813 155.0085
84.126988 93.775 154.8269
84.736607 93.736 154.6519
85.350643 93.695 154.4847
85.969129 93.653 154.3264
86.592097 93.610 154.1774
87.219579 93.567 154.0374
87.851608 93.524 153.9049
88.488217 93.481 153.7788
89.129439 93.438 153.6589
89.775308 93.395 153.5466
90.425856 93.352 153.4431
91.081119 93.310 153.3479
91.741131 93.269 153.2587
92.405925 93.229 153.1728
93.075536 93.189 153.0886
93.750000 93.150 153.0062
94.429351 93.110 152.9274
95.113625 93.069 152.8545
95.802858 93.026 152.7906
96.497085 92.981 152.7395
97.196342 92.934 152.7053
97.900667 92.886 152.6910
98.610096 92.835 152.6979
99.324665 92.785 152.7256
100.044413 92.734 152.7728
100.769376 92.684 152.8365
101.499592 92.635 152.9150
102.235100 92.589 153.0087
102.975938 92.547 153.1160
103.722144 92.509 153.2292
104.473757 92.476 153.3388
105.230817 92.448 153.4418
105.993363 92.422 153.5411
106.761435 92.399 153.6407
107.535072 92.379 153.7427
108.314315 92.361 153.8475
109.099206 92.344 153.9531
109.889783 92.331 154.0546
110.686090 92.320 154.1429
111.488167 92.313 154.2059
112.296056 92.308 154.2314
113.109800 92.305 154.2122
113.929440 92.304 154.1481
114.755020 92.302 154.0457
115.586582 92.300 153.9157
116.424170 92.297 153.7689
117.267827 92.292 153.6104
118.117598 92.285 153.4398
118.973527 92.273 153.2571
119.835658 92.253 153.0720
120.704037 92.224 152.9030
121.578708 92.187 152.7635
122.459718 92.146 152.6510
123.347111 92.102 152.5538
124.240935 92.057 152.4617
125.141236 92.013 152.3691
126.048061 91.969 152.2752
126.961458 91.927 152.1835
127.881473 91.886 152.0999
128.808154 91.848 152.0285
129.741551 91.812 151.9697
130.681712 91.778 151.9219
131.628686 91.745 151.8829
132.582521 91.712 151.8492
133.543269 91.680 151.8159
134.510979 91.647 151.7781
135.485701 91.613 151.7334
136.467486 91.577 151.6819
137.456386 91.539 151.6275
138.452451 91.500 151.5771
139.455735 91.459 151.5364
140.466288 91.417 151.5072
141.484165 91.376 151.4879
142.509418 91.336 151.4764
143.542100 91.296 151.4712
144.582265 91.255 151.4706
145.629968 91.215 151.4737
146.685262 91.173 151.4788
147.748204 91.131 151.4849
148.818849 91.088 151.4921
149.897251 91.043 151.5017
150.983469 90.999 151.5166
152.077557 90.953 151.5405
153.179574 90.909 151.5768
154.289576 90.865 151.6275
155.407622 90.823 151.6931
156.533770 90.782 151.7715
157.668078 90.743 151.8583
158.810606 90.706 151.9477
159.961413 90.670 152.0347
161.120559 90.635 152.1171
162.288105 90.601 152.1964
163.464112 90.566 152.2750
164.648640 90.531 152.3558
165.841752 90.496 152.4410
167.043510 90.460 152.5330
168.253976 90.425 152.6329
169.473213 90.391 152.7399
170.701286 90.360 152.8512
171.938258 90.331 152.9632
173.184194 90.305 153.0724
174.439158 90.281 153.1764
175.703216 90.258 153.2731
176.976434 90.235 153.3611
178.258878 90.211 153.4395
179.550615 90.186 153.5072
180.851713 90.160 153.5636
182.162239 90.133 153.6085
183.482262 90.105 153.6436
184.811850 90.077 153.6718
186.151073 90.047 153.6964
187.500000 90.016 153.7211
188.858702 89.983 153.7492
190.227250 89.950 153.7833
191.605715 89.915 153.8240
192.994169 89.880 153.8707
194.392685 89.844 153.9219
195.801334 89.806 153.9767
197.220191 89.768 154.0346
198.649330 89.729 154.0958
200.088825 89.691 154.1616
201.538751 89.654 154.2349
202.999184 89.618 154.3179
204.470200 89.584 154.4117
205.951875 89.550 154.5154
207.444287 89.516 154.6266
208.947514 89.483 154.7406
210.461634 89.448 154.8522
211.986726 89.413 154.9602
213.522869 89.376 155.0682
215.070144 89.339 155.1825
216.628631 89.302 155.3091
218.198411 89.266 155.4501
219.779567 89.230 155.6027
221.372180 89.197 155.7607
222.976334 89.164 155.9193
224.592112 89.131 156.0751
226.219600 89.099 156.2266
227.858880 89.068 156.3735
229.510039 89.037 156.5171
231.173164 89.006 156.6575
232.848340 88.976 156.7935
234.535655 88.947 156.9238
236.235197 88.917 157.0475
237.947054 88.887 157.1650
239.671317 88.857 157.2780
241.408074 88.825 157.3892
243.157416 88.791 157.5024
244.919435 88.756 157.6214
246.694223 88.720 157.7501
248.481871 88.683 157.8922
250.282473 88.645 158.0509
252.096123 88.608 158.2277
253.922915 88.572 158.4207
255.762945 88.539 158.6234
257.616309 88.508 158.8259
259.483103 88.479 159.0182
261.363424 88.452 159.1958
263.257372 88.423 159.3606
265.165043 88.393 159.5197
267.086538 88.361 159.6815
269.021957 88.328 159.8530
270.971401 88.294 160.0386
272.934972 88.260 160.2398
274.912771 88.227 160.4552
276.904902 88.195 160.6825
278.911469 88.164 160.9196
280.932577 88.136 161.1652
282.968330 88.110 161.4167
285.018835 88.087 161.6689
287.084199 88.067 161.9142
289.164530 88.050 162.1447
291.259935 88.034 162.3560
293.370525 88.017 162.5498
295.496408 88.000 162.7314
297.637697 87.982 162.9060
299.794503 87.963 163.0760
301.966937 87.943 163.2417
304.155114 87.923 163.4028
306.359147 87.901 163.5595
308.579152 87.878 163.7117
310.815244 87.854 163.8596
313.067539 87.828 164.0043
315.336156 87.801 164.1499
317.621211 87.771 164.3027
319.922826 87.740 164.4690
322.241118 87.709 164.6519
324.576210 87.678 164.8501
326.928223 87.648 165.0601
329.297280 87.619 165.2777
331.683504 87.590 165.4987
334.087019 87.563 165.7199
336.507952 87.537 165.9388
338.946427 87.511 166.1546
341.402572 87.485 166.3687
343.876516 87.458 166.5839
346.368387 87.431 166.8032
348.878315 87.404 167.0286
351.406431 87.377 167.2606
353.952867 87.350 167.4984
356.517756 87.323 167.7404
359.101230 87.297 167.9849
361.703426 87.271 168.2308
364.324478 87.246 168.4783
366.964523 87.220 168.7275
369.623699 87.195 168.9794
372.302145 87.171 169.2345
375.000000 87.146 169.4928
377.717405 87.122 169.7534
380.454501 87.098 170.0161
383.211431 87.075 170.2809
385.988339 87.052 170.5485
388.785369 87.030 170.8190
391.602668 87.008 171.0925
394.440383 86.986 171.3685
397.298660 86.965 171.6465
400.177650 86.944 171.9257
403.077502 86.924 172.2053
405.998368 86.904 172.4843
408.940400 86.884 172.7623
411.903750 86.864 173.0403
414.888575 86.843 173.3210
417.895028 86.822 173.6074
420.923268 86.800 173.9019
423.973452 86.780 174.2054
427.045738 86.760 174.5171
430.140287 86.743 174.8336
433.257261 86.727 175.1500
436.396822 86.712 175.4633
439.559133 86.699 175.7734
442.744360 86.687 176.0807
445.952668 86.677 176.3830
449.184225 86.668 176.6750
452.439199 86.659 176.9507
455.717760 86.650 177.2067
459.020079 86.638 177.4463
462.346327 86.623 177.6801
465.696680 86.606 177.9201
469.071310 86.586 178.1742
472.470394 86.566 178.4440
475.894109 86.546 178.7272
479.342634 86.526 179.0185
482.816148 86.507 179.3126
486.314833 86.488 179.6068
489.838871 86.468 179.9054
493.388445 86.447 -179.7839
496.963741 86.427 -179.4572
500.564945 86.408 -179.1180
504.192245 86.391 -178.7748
507.845830 86.376 -178.4347
511.525890 86.362 -178.1008
515.232618 86.348 -177.7717
518.966206 86.333 -177.4427
522.726849 86.318 -177.1089
526.514743 86.302 -176.7656
530.330086 86.287 -176.4111
534.173076 86.273 -176.0480
538.043915 86.259 -175.6813
541.942803 86.247 -175.3138
545.869944 86.235 -174.9455
549.825542 86.224 -174.5753
553.809805 86.214 -174.2046
557.822939 86.205 -173.8364
561.865154 86.196 -173.4725
565.936660 86.188 -173.1123
570.037671 86.179 -172.7529
574.168399 86.169 -172.3907
578.329060 86.159 -172.0235
582.519870 86.150 -171.6512
586.741049 86.140 -171.2743
590.992817 86.130 -170.8906
595.275394 86.121 -170.4978
599.589005 86.112 -170.0967
603.933874 86.105 -169.6916
608.310228 86.099 -169.2864
612.718295 86.093 -168.8824
617.158304 86.087 -168.4778
621.630488 86.081 -168.0665
626.135079 86.075 -167.6422
630.672311 86.070 -167.2025
635.242423 86.067 -166.7517
639.845651 86.066 -166.2961
644.482237 86.067 -165.8380
649.152421 86.071 -165.3762
653.856447 86.077 -164.9120
658.594560 86.086 -164.4525
663.367008 86.097 -164.0081
668.174039 86.110 -163.5873
673.015903 86.123 -163.1899
677.892854 86.134 -162.8083
682.805145 86.143 -162.4329
687.753032 86.150 -162.0560
692.736774 86.156 -161.6721
697.756631 86.161 -161.2764
702.812863 86.166 -160.8676
707.905735 86.172 -160.4484
713.035511 86.179 -160.0234
718.202461 86.187 -159.5961
723.406852 86.196 -159.1672
728.648956 86.205 -158.7363
733.929047 86.215 -158.3022
739.247399 86.225 -157.8641
744.604290 86.237 -157.4220
750.000000 86.249 -156.9755
755.434809 86.262 -156.5245
760.909001 86.275 -156.0693
766.422861 86.290 -155.6107
771.976677 86.306 -155.1494
777.570739 86.323 -154.6855
783.205337 86.342 -154.2195
788.880766 86.361 -153.7504
794.597321 86.381 -153.2760
800.355301 86.404 -152.7944
806.155005 86.429 -152.3063
811.996736 86.456 -151.8173
817.880799 86.488 -151.3351
823.807501 86.522 -150.8682
829.777150 86.557 -150.4227
835.790057 86.592 -149.9989
841.846536 86.626 -149.5883
847.946903 86.659 -149.1790
854.091476 86.691 -148.7630
860.280575 86.724 -148.3380
866.514523 86.758 -147.9047
872.793644 86.795 -147.4656
879.118267 86.835 -147.0285
885.488720 86.878 -146.6049
891.905336 86.924 -146.2035
898.368450 86.970 -145.8260
904.878398 87.016 -145.4682
911.435520 87.062 -145.1237
918.040157 87.107 -144.7884
924.692655 87.152 -144.4601
931.393359 87.196 -144.1384
938.142619 87.241 -143.8242
944.940787 87.284 -143.5182
951.788218 87.327 -143.2187
958.685268 87.369 -142.9233
965.632296 87.409 -142.6297
972.629666 87.449 -142.3359
979.677741 87.487 -142.0416
986.776890 87.525 -141.7468
993.927482 87.563 -141.4503
1001.129891 87.600 -141.1477
1008.384491 87.637 -140.8351
1015.691660 87.675 -140.5120
1023.051781 87.716 -140.1818
1030.465236 87.759 -139.8508
1037.932411 87.805 -139.5297
1045.453698 87.854 -139.2294
1053.029486 87.903 -138.9553
1060.660172 87.950 -138.7036
1068.346153 87.995 -138.4657
1076.087829 88.038 -138.2324
1083.885605 88.079 -137.9974
1091.739887 88.118 -137.7588
1099.651084 88.157 -137.5164
1107.619609 88.195 -137.2698
1115.645878 88.233 -137.0182
1123.730308 88.270 -136.7612
1131.873321 88.308 -136.4978
1140.075341 88.345 -136.2279
1148.336797 88.383 -135.9517
1156.658119 88.422 -135.6691
1165.039741 88.462 -135.3798
1173.482099 88.503 -135.0823
1181.985634 88.547 -134.7778
1190.550789 88.594 -134.4725
1199.178011 88.644 -134.1779
1207.867749 88.697 -133.9070
1216.620457 88.751 -133.6662
1225.436590 88.804 -133.4524
1234.316609 88.854 -133.2572
1243.260976 88.901 -133.0719
1252.270157 88.946 -132.8889
1261.344623 88.990 -132.7039
1270.484846 89.033 -132.5158
1279.691303 89.074 -132.3231
1288.964474 89.115 -132.1237
1298.304842 89.157 -131.9177
1307.712894 89.198 -131.7075
1317.189120 89.240 -131.4972
1326.734016 89.282 -131.2893
1336.348077 89.323 -131.0840
1346.031806 89.363 -130.8787
1355.785708 89.402 -130.6697
1365.610290 89.440 -130.4532
1375.506065 89.478 -130.2248
1385.473549 89.516 -129.9792
1395.513261 89.556 -129.7148
1405.625726 89.599 -129.4367
1415.811469 89.646 -129.1563
1426.071023 89.697 -128.8880
1436.404921 89.750 -128.6414
1446.813703 89.803 -128.4174
1457.297912 89.855 -128.2108
1467.858093 89.907 -128.0155
1478.494798 89.957 -127.8270
1489.208581 90.007 -127.6417
1500.000000 90.055 -127.4561
1510.869618 90.102 -127.2666
1521.818002 90.149 -127.0706
1532.845723 90.196 -126.8654
1543.953355 90.244 -126.6490
1555.141477 90.293 -126.4208
1566.410674 90.346 -126.1845
1577.761531 90.402 -125.9507
1589.194642 90.461 -125.7332
1600.710601 90.523 -125.5413
1612.310010 90.584 -125.3761
1623.993473 90.644 -125.2322
1635.761599 90.703 -125.1024
1647.615002 90.759 -124.9805
1659.554299 90.814 -124.8615
1671.580114 90.869 -124.7419
1683.693072 90.922 -124.6205
1695.893807 90.975 -124.4989
1708.182952 91.028 -124.3790
1720.561150 91.080 -124.2602
1733.029045 91.131 -124.1395
1745.587288 91.181 -124.0118
1758.236533 91.230 -123.8708
1770.977440 91.280 -123.7112
1783.810673 91.332 -123.5339
1796.736900 91.388 -123.3477
1809.756796 91.448 -123.1667
1822.871040 91.510 -123.0017
1836.080315 91.575 -122.8569
1849.385310 91.639 -122.7311
1862.786718 91.704 -122.6213
1876.285239 91.768 -122.5233
1889.881575 91.830 -122.4315
1903.576436 91.893 -122.3403
1917.370535 91.955 -122.2441
1931.264593 92.018 -122.1398
1945.259332 92.084 -122.0283
1959.355483 92.153 -121.9185
1973.553781 92.226 -121.8243
1987.854965 92.301 -121.7572
2002.259781 92.377 -121.7216
2016.768981 92.453 -121.7157
2031.383320 92.527 -121.7350
2046.103561 92.600 -121.7738
2060.930471 92.672 -121.8276
2075.864823 92.742 -121.8945
2090.907395 92.811 -121.9740
2106.058972 92.878 -122.0640
2121.320344 92.942 -122.1594
2136.692305 93.005 -122.2527
2152.175658 93.066 -122.3362
2167.771210 93.128 -122.4078
2183.479774 93.192 -122.4747
2199.302169 93.259 -122.5490
2215.239219 93.328 -122.6404
2231.291755 93.397 -122.7540
2247.460615 93.465 -122.8904
2263.746641 93.533 -123.0464
2280.150683 93.598 -123.2156
2296.673595 93.662 -123.3902
2313.316238 93.726 -123.5641
2330.079481 93.790 -123.7361
2346.964198 93.857 -123.9137
2363.971268 93.926 -124.1091
2381.101578 93.996 -124.3325
2398.356022 94.066 -124.5882
2415.735498 94.135 -124.8766
2433.240913 94.202 -125.1949
2450.873180 94.266 -125.5402
2468.633217 94.328 -125.9104
2486.521951 94.386 -126.3027
2504.540314 94.440 -126.7115
2522.689246 94.490 -127.1279
2540.969692 94.537 -127.5427
2559.382606 94.582 -127.9530
2577.928947 94.627 -128.3641
2596.609683 94.671 -128.7847
2615.425787 94.714 -129.2217
2634.378241 94.755 -129.6780
2653.468031 94.792 -130.1511
2672.696154 94.826 -130.6342
2692.063613 94.856 -131.1182
2711.571415 94.884 -131.5964
2731.220579 94.911 -132.0702
2751.012130 94.938 -132.5475
2770.947098 94.965 -133.0370
2791.026522 94.990 -133.5452
2811.251451 95.012 -134.0741
2831.622938 95.032 -134.6236
2852.142045 95.047 -135.1920
2872.809842 95.058 -135.7759
2893.627406 95.063 -136.3680
2914.595823 95.062 -136.9572
2935.716186 95.057 -137.5331
2956.989596 95.048 -138.0919
2978.417161 95.036 -138.6360
3000.000000 95.022 -139.1703
3021.739237 95.005 -139.6979
3043.636005 94.984 -140.2177
3065.691446 94.959 -140.7228
3087.906710 94.930 -141.2042
3110.282955 94.900 -141.6567
3132.821347 94.868 -142.0829
3155.523062 94.837 -142.4899
3178.389283 94.806 -142.8861
3201.421202 94.774 -143.2772
3224.620020 94.740 -143.6665
3247.986946 94.704 -144.0549
3271.523198 94.665 -144.4389
3295.230004 94.621 -144.8090
3319.108599 94.573 -145.1524
3343.160228 94.521 -145.4597
3367.386145 94.468 -145.7275
3391.787613 94.413 -145.9556
3416.365904 94.357 -146.1435
3441.122300 94.301 -146.2863
3466.058091 94.244 -146.3741
3491.174576 94.189 -146.3981
3516.473066 94.139 -146.3575
3541.954880 94.098 -146.2617
3567.621345 94.066 -146.1281
3593.473800 94.046 -145.9784
3619.513592 94.038 -145.8373
3645.742080 94.040 -145.7291
3672.160630 94.050 -145.6728
3698.770620 94.066 -145.6783
3725.573436 94.086 -145.7507
3752.570477 94.108 -145.8941
3779.763150 94.128 -146.1099
3807.152872 94.145 -146.3937
3834.741071 94.154 -146.7318
3862.529185 94.156 -147.1019
3890.518664 94.149 -147.4811
3918.710966 94.136 -147.8528
3947.107561 94.118 -148.2092
3975.709929 94.096 -148.5491
4004.519563 94.072 -148.8767
4033.537962 94.046 -149.1974
4062.766641 94.018 -149.5131
4092.207123 93.986 -149.8195
4121.860942 93.952 -150.1116
4151.729646 93.916 -150.3882
4181.814790 93.878 -150.6512
4212.117944 93.837 -150.9007
4242.640687 93.795 -151.1307
4273.384610 93.750 -151.3324
4304.351317 93.705 -151.5005
4335.542421 93.661 -151.6366
4366.959549 93.620 -151.7484
4398.604338 93.583 -151.8486
4430.478438 93.548 -151.9500
4462.583511 93.515 -152.0592
4494.921231 93.483 -152.1766
4527.493283 93.451 -152.3016
4560.301365 93.420 -152.4351
4593.347189 93.387 -152.5778
4626.632476 93.352 -152.7250
4660.158962 93.315 -152.8669
4693.928395 93.277 -152.9944
4727.942535 93.238 -153.1038
4762.203156 93.201 -153.1985
4796.712043 93.166 -153.2887
4831.470996 93.133 -153.3857
4866.481826 93.101 -153.4963
4901.746360 93.069 -153.6233
4937.266434 93.036 -153.7689
4973.043902 93.001 -153.9360
5009.080628 92.963 -154.1230
5045.378492 92.919 -154.3211
5081.939384 92.870 -154.5176
5118.765212 92.816 -154.7011
5155.857894 92.758 -154.8654
5193.219366 92.696 -155.0101
5230.851574 92.631 -155.1365
5268.756481 92.561 -155.2417
5306.936062 92.486 -155.3196
5345.392309 92.408 -155.3640
5384.127225 92.324 -155.3675
5423.142830 92.236 -155.3179
5462.441159 92.145 -155.1993
5502.024259 92.052 -154.9973
5541.894195 91.960 -154.7050
5582.053045 91.874 -154.3278
5622.502902 91.796 -153.8801
5663.245876 91.728 -153.3796
5704.284090 91.669 -152.8441
5745.619684 91.621 -152.2921
5787.254813 91.581 -151.7382
5829.191647 91.548 -151.1879
5871.432373 91.521 -150.6379
5913.979192 91.499 -150.0813
5956.834323 91.483 -149.5139
6000.000000 91.474 -148.9380
6043.478473 91.472 -148.3591
6087.272010 91.477 -147.7828
6131.382892 91.489 -147.2161
6175.813420 91.507 -146.6650
6220.565910 91.531 -146.1314
6265.642695 91.558 -145.6104
6311.046124 91.590 -145.0935
6356.778566 91.627 -144.5739
6402.842404 91.670 -144.0493
6449.240040 91.720 -143.5214
6495.973891 91.779 -142.9949
6543.046396 91.846 -142.4778
6590.460007 91.923 -141.9785
6638.217197 92.008 -141.5016
6686.320456 92.102 -141.0471
6734.772290 92.204 -140.6138
6783.575226 92.318 -140.2029
6832.731809 92.442 -139.8194
6882.244600 92.580 -139.4725
6932.116181 92.732 -139.1769
6982.349153 92.898 -138.9493
7032.946133 93.078 -138.8043
7083.909760 93.271 -138.7534
7135.242690 93.479 -138.8079
7186.947600 93.700 -138.9822
7239.027185 93.936 -139.2952
7291.484160 94.186 -139.7724
7344.321260 94.449 -140.4455
7397.541239 94.722 -141.3480
7451.146872 95.002 -142.5104
7505.140954 95.285 -143.9583
7559.526299 95.565 -145.7142
7614.305743 95.838 -147.7979
7669.482141 96.096 -150.2263
7725.058371 96.332 -153.0128
7781.037328 96.537 -156.1617
7837.421932 96.702 -159.6597
7894.215122 96.815 -163.4712
7951.419859 96.868 -167.5385
8009.039125 96.855 -171.7845
8067.075924 96.770 -176.1189
8125.533282 96.613 179.5527
8184.414245 96.385 175.3224
8243.721885 96.087 171.2766
8303.459292 95.725 167.4949
8363.629581 95.304 164.0458
8424.235888 94.832 160.9843
8485.281374 94.320 158.3468
8546.769221 93.778 156.1478
8608.702634 93.217 154.3802
8671.084842 92.646 153.0239
8733.919097 92.073 152.0522
8797.208675 91.504 151.4374
8860.956876 90.945 151.1524
8925.167022 90.402 151.1666
8989.842461 89.878 151.4432
9054.986566 89.377 151.9425
9120.602731 88.901 152.6275
9186.694378 88.449 153.4695
9253.264952 88.022 154.4498
9320.317925 87.619 155.5538
9387.856790 87.241 156.7646
9455.885071 86.888 158.0623
9524.406312 86.560 159.4272
9593.424086 86.255 160.8457
9662.941992 85.972 162.3130
9732.963653 85.710 163.8279
9803.492719 85.471 165.3854
9874.532869 85.254 166.9751
9946.087805 85.059 168.5845
10018.161257 84.886 170.2054
10090.756983 84.733 171.8368
10163.878768 84.601 173.4775
10237.530423 84.492 175.1207
10311.715789 84.405 176.7529
10386.438732 84.341 178.3600
10461.703149 84.298 179.9341
10537.512962 84.277 -178.5291
10613.872125 84.278 -177.0372
10690.784618 84.303 -175.6047
10768.254450 84.350 -174.2502
10846.285661 84.419 -172.9893
10924.882318 84.509 -171.8325
11004.048518 84.620 -170.7916
11083.788390 84.752 -169.8844
11164.106090 84.902 -169.1343
11245.005805 85.069 -168.5630
11326.491752 85.250 -168.1869
11408.568180 85.443 -168.0209
11491.239368 85.644 -168.0829
11574.509626 85.850 -168.3928
11658.383294 86.054 -168.9661
11742.864745 86.251 -169.8092
11827.958384 86.435 -170.9219
11913.668646 86.600 -172.2999
12000.000000 86.737 -173.9327
12086.956947 86.839 -175.7961
12174.544019 86.900 -177.8489
12262.765784 86.912 179.9641
12351.626840 86.874 177.7039
12441.131819 86.783 175.4342
12531.285389 86.640 173.2209
12622.092249 86.448 171.1299
12713.557132 86.212 169.2190
12805.684808 85.939 167.5334
12898.480079 85.636 166.1060
12991.947783 85.313 164.9609
13086.092792 84.977 164.1125
13180.920015 84.638 163.5617
13276.434395 84.305 163.2941
13372.640911 83.987 163.2847
13469.544580 83.690 163.5002
13567.150452 83.420 163.8982
13665.463617 83.180 164.4308
13764.489200 82.972 165.0604
13864.232362 82.794 165.7717
13964.698305 82.650 166.5630
14065.892266 82.546 167.4238
14167.819519 82.489 168.3225
14270.485380 82.486 169.2070
14373.895200 82.545 170.0046
14478.054370 82.668 170.6229
14582.968320 82.858 170.9566
14688.642520 83.109 170.8981
14795.082478 83.415 170.3419
14902.293745 83.761 169.1886
15010.281908 84.131 167.3525
15119.052599 84.501 164.7719
15228.611486 84.845 161.4163
15338.964283 85.132 157.2976
15450.116741 85.331 152.4831
15562.074656 85.411 147.1027
15674.843864 85.349 141.3446
15788.430244 85.131 135.4406
15902.839718 84.750 129.6414
16018.078250 84.215 124.1888
16134.151848 83.541 119.2891
16251.066563 82.752 115.0956
16368.828491 81.875 111.7058
16487.443769 80.939 109.1643
16606.918584 79.972 107.4678
16727.259161 79.000 106.5752
16848.471777 78.047 106.4204
16970.562748 77.131 106.9200
17093.538442 76.267 107.9816
17217.405268 75.467 109.5134
17342.169684 74.736 111.4312
17467.838194 74.080 113.6589
17594.417350 73.501 116.1329
17721.913751 73.002 118.8011
17850.334044 72.590 121.6121
17979.684923 72.269 124.5007
18109.973131 72.049 127.3750
18241.205462 71.938 130.1053
18373.388756 71.941 132.5260
18506.529905 72.056 134.4487
18640.635849 72.273 135.6772
18775.713581 72.574 136.0225
18911.770141 72.928 135.3259
19048.812624 73.295 133.4821
19186.848172 73.631 130.4627
19325.883983 73.891 126.3464
19465.927305 74.040 121.3562
19606.985439 74.062 115.9017
19749.065738 73.978 110.6121
19892.175609 73.850 106.3124
20036.322514 73.756 103.8687
