* Measurement data measured by REW V5.20.4
* Source: Mic in at front panel (Pink) (Realtek(R) Audio), MICROPHONE (Master Volume), L, volume: 0.250
* Format: 256k Log Swept Sine, 1 sweep at -12.0 dBFS with no timing reference
* Dated: Jun 6, 2022 2:47:01 PM
* REW Settings:
*  C-weighting compensation: Off
*  Target level: 75.0 dB
* Note: KZ ESX L
* Measurement: EJ07M R Jun 6
* Smoothing: 1/12 octave
* Frequency Step: 1/48 octave
* Start Frequency: 20.000 Hz
*
* Freq(Hz)	SPL(dB)	Phase(degrees)
20.000000	90.466	47.7092
20.299999	90.513	47.1299
20.600000	90.558	46.5727
20.900000	90.604	46.0157
21.200001	90.650	45.4397
21.400000	90.681	45.0389
21.799999	90.744	44.1969
22.000000	90.775	43.7591
22.400000	90.832	42.8660
22.700001	90.870	42.1984
23.000000	90.906	41.5473
23.299999	90.941	40.9170
23.600000	90.978	40.3046
24.000000	91.029	39.5048
24.299999	91.069	38.9074
24.700001	91.122	38.1083
25.000000	91.159	37.5098
25.400000	91.207	36.7216
25.799999	91.253	35.9538
26.200001	91.300	35.2086
26.500000	91.334	34.6633
26.900000	91.376	33.9532
27.200001	91.404	33.4345
27.600000	91.438	32.7641
28.000000	91.470	32.1180
28.500000	91.508	31.3354
29.000000	91.547	30.5643
29.500000	91.581	29.7971
30.000000	91.610	29.0408
30.400000	91.630	28.4509
30.700001	91.645	28.0183
31.100000	91.666	27.4513
31.500000	91.687	26.8893
32.000000	91.713	26.1854
32.500000	91.735	25.4773
33.000000	91.757	24.7710
33.500000	91.780	24.0742
34.000000	91.807	23.3895
34.500000	91.835	22.7129
35.000000	91.865	22.0415
35.500000	91.894	21.3800
36.000000	91.923	20.7399
36.500000	91.949	20.1301
37.000000	91.972	19.5481
37.500000	91.991	18.9816
38.200001	92.005	18.1939
38.700001	92.005	17.6342
39.500000	91.993	16.7667
40.000000	91.985	16.2499
40.599998	91.982	15.6505
41.200001	91.985	15.0604
41.799999	91.994	14.4704
42.500000	92.006	13.7867
43.099998	92.019	13.2217
43.700001	92.033	12.6862
44.400002	92.050	12.0855
45.000000	92.064	11.5693
45.500000	92.074	11.1318
46.200001	92.083	10.5136
46.799999	92.086	9.9796
47.500000	92.083	9.3433
48.200001	92.068	8.7004
48.700001	92.052	8.2546
49.400002	92.029	7.6649
50.000000	92.014	7.1813
50.799999	92.007	6.5404
51.500000	92.008	5.9786
52.200001	92.011	5.4197
53.000000	92.014	4.7827
53.799999	92.013	4.1651
54.500000	92.011	3.6676
55.200001	92.012	3.2116
56.000000	92.015	2.7128
57.000000	92.016	2.0908
58.000000	92.007	1.4749
59.000000	91.992	0.8554
60.000000	91.971	0.2040
60.799999	91.949	-0.3314
61.500000	91.928	-0.7950
62.200001	91.910	-1.2530
63.000000	91.893	-1.7742
64.000000	91.876	-2.4093
65.000000	91.859	-2.9949
66.000000	91.842	-3.5136
67.000000	91.824	-3.9654
68.000000	91.802	-4.3672
69.000000	91.768	-4.7359
70.000000	91.721	-5.0576
71.000000	91.674	-5.3194
72.000000	91.648	-5.6427
73.000000	91.639	-6.1984
74.000000	91.624	-6.9527
75.000000	91.597	-7.7376
76.199997	91.557	-8.5829
77.500000	91.518	-9.3254
78.800003	91.488	-9.9211
80.000000	91.467	-10.3980
81.199997	91.448	-10.8559
82.500000	91.429	-11.3966
83.800003	91.406	-12.0089
85.000000	91.373	-12.5975
86.199997	91.324	-13.1253
87.500000	91.261	-13.5576
88.500000	91.213	-13.7925
90.000000	91.157	-14.1000
91.199997	91.120	-14.4288
92.500000	91.076	-14.8752
93.800003	91.024	-15.3141
95.000000	90.981	-15.6718
96.199997	90.945	-16.0109
97.500000	90.909	-16.3910
98.800003	90.864	-16.7686
100.000000	90.813	-17.0803
101.500000	90.747	-17.3984
103.000000	90.692	-17.6726
104.400002	90.656	-17.9589
106.000000	90.622	-18.3553
107.500000	90.586	-18.7569
109.000000	90.540	-19.1557
110.599998	90.482	-19.5819
112.000000	90.425	-19.9821
113.800003	90.350	-20.5667
115.000000	90.304	-20.9938
117.199997	90.237	-21.7875
118.000000	90.216	-22.0573
120.599998	90.128	-22.6317
122.000000	90.073	-22.6736
124.099998	89.998	-22.6254
125.000000	89.968	-22.6408
126.500000	89.918	-22.7525
128.000000	89.868	-22.9565
131.500000	89.762	-23.5291
132.000000	89.750	-23.6046
134.000000	89.706	-23.8973
136.000000	89.657	-24.1916
138.000000	89.585	-24.4385
140.000000	89.499	-24.6157
143.000000	89.377	-24.9180
145.000000	89.305	-25.1610
147.500000	89.214	-25.3951
150.000000	89.103	-25.4954
152.500000	88.976	-25.4929
155.000000	88.871	-25.4867
157.500000	88.812	-25.6344
160.000000	88.775	-25.8720
162.500000	88.739	-26.0748
165.000000	88.689	-26.2313
167.500000	88.614	-26.3572
170.000000	88.514	-26.4381
172.500000	88.397	-26.4640
175.000000	88.280	-26.4733
177.500000	88.173	-26.5038
180.000000	88.087	-26.5485
182.500000	88.025	-26.5939
185.000000	87.980	-26.6439
187.500000	87.940	-26.7045
190.000000	87.898	-26.7718
192.500000	87.849	-26.8314
195.000000	87.791	-26.8687
197.500000	87.722	-26.8707
200.000000	87.651	-26.8273
203.000000	87.573	-26.7223
206.000000	87.503	-26.6041
209.000000	87.438	-26.5080
212.000000	87.374	-26.4193
214.000000	87.328	-26.3578
218.000000	87.213	-26.2445
220.000000	87.147	-26.1785
224.000000	87.026	-25.9961
227.000000	86.952	-25.8306
230.000000	86.886	-25.6745
233.000000	86.825	-25.5639
236.000000	86.766	-25.5060
240.000000	86.677	-25.4582
243.000000	86.604	-25.4057
247.000000	86.504	-25.2838
250.000000	86.430	-25.1439
254.000000	86.341	-24.8949
258.000000	86.266	-24.6195
262.000000	86.199	-24.3865
265.000000	86.147	-24.2429
269.000000	86.070	-24.0513
272.000000	86.010	-23.8845
276.000000	85.932	-23.6266
280.000000	85.859	-23.3452
285.000000	85.779	-23.0025
290.000000	85.714	-22.7401
295.000000	85.651	-22.5737
300.000000	85.577	-22.4112
304.000000	85.515	-22.2414
307.000000	85.468	-22.0925
311.000000	85.404	-21.8761
315.000000	85.337	-21.6481
320.000000	85.250	-21.3406
325.000000	85.167	-20.9919
330.000000	85.089	-20.6097
335.000000	85.015	-20.2170
340.000000	84.942	-19.8274
345.000000	84.870	-19.4343
350.000000	84.805	-19.0217
355.000000	84.749	-18.5848
360.000000	84.698	-18.1350
365.000000	84.648	-17.6956
370.000000	84.599	-17.2843
375.000000	84.554	-16.9045
382.000000	84.497	-16.4159
387.000000	84.458	-16.0880
395.000000	84.392	-15.5797
400.000000	84.348	-15.2617
406.000000	84.292	-14.8797
412.000000	84.235	-14.4982
418.000000	84.176	-14.1023
425.000000	84.112	-13.5982
431.000000	84.065	-13.1359
437.000000	84.023	-12.6749
444.000000	83.977	-12.1602
450.000000	83.943	-11.7524
455.000000	83.915	-11.4512
462.000000	83.870	-11.0743
468.000000	83.825	-10.7405
475.000000	83.770	-10.3021
482.000000	83.716	-9.8329
487.000000	83.678	-9.4922
494.000000	83.622	-8.9925
500.000000	83.577	-8.5323
508.000000	83.525	-7.9084
515.000000	83.484	-7.3823
522.000000	83.441	-6.8623
530.000000	83.391	-6.2432
538.000000	83.345	-5.5982
545.000000	83.310	-5.0291
552.000000	83.278	-4.4608
560.000000	83.245	-3.8269
570.000000	83.207	-3.0666
580.000000	83.168	-2.3047
590.000000	83.125	-1.5175
600.000000	83.085	-0.7014
608.000000	83.059	-0.0453
615.000000	83.040	0.5213
622.000000	83.021	1.0939
630.000000	82.999	1.7769
640.000000	82.978	2.6629
650.000000	82.967	3.5515
660.000000	82.969	4.4178
670.000000	82.983	5.2085
680.000000	82.996	5.9186
690.000000	82.998	6.6043
700.000000	82.994	7.3098
710.000000	82.989	8.0447
720.000000	82.989	8.7902
730.000000	82.991	9.5368
740.000000	82.996	10.2888
750.000000	83.002	11.0489
762.000000	83.010	11.9710
775.000000	83.025	12.9790
788.000000	83.045	13.9934
800.000000	83.070	14.9505
812.000000	83.104	15.9308
825.000000	83.154	16.9660
838.000000	83.210	17.9231
850.000000	83.257	18.7730
862.000000	83.301	19.6451
875.000000	83.354	20.6246
885.000000	83.403	21.3826
900.000000	83.490	22.4765
912.000000	83.567	23.3017
925.000000	83.654	24.1433
938.000000	83.745	24.9237
950.000000	83.829	25.5901
962.000000	83.911	26.2187
975.000000	84.000	26.8775
988.000000	84.087	27.5260
1000.000000	84.168	28.1253
1015.000000	84.271	28.8926
1030.000000	84.384	29.6588
1044.000000	84.501	30.3103
1060.000000	84.640	30.9251
1075.000000	84.766	31.4080
1090.000000	84.886	31.8549
1106.000000	85.013	32.3136
1120.000000	85.122	32.7039
1138.000000	85.259	33.1992
1150.000000	85.348	33.5290
1172.000000	85.510	34.1404
1180.000000	85.571	34.3652
1206.000000	85.788	35.0351
1220.000000	85.911	35.3019
1241.000000	86.087	35.5931
1250.000000	86.157	35.7006
1265.000000	86.268	35.8780
1280.000000	86.374	36.0619
1315.000000	86.615	36.5232
1320.000000	86.650	36.5886
1340.000000	86.790	36.8402
1360.000000	86.927	37.0909
1380.000000	87.064	37.3731
1400.000000	87.208	37.7098
1430.000000	87.457	38.2143
1450.000000	87.639	38.4520
1475.000000	87.874	38.6516
1500.000000	88.121	38.8019
1525.000000	88.382	38.9429
1550.000000	88.656	39.1011
1575.000000	88.933	39.2622
1600.000000	89.180	39.3324
1625.000000	89.356	39.2555
1650.000000	89.449	39.0747
1675.000000	89.489	38.8396
1700.000000	89.527	38.5617
1725.000000	89.600	38.2331
1750.000000	89.723	37.8724
1775.000000	89.895	37.5174
1800.000000	90.108	37.1584
1825.000000	90.347	36.7206
1850.000000	90.593	36.1592
1875.000000	90.835	35.4863
1900.000000	91.071	34.7343
1925.000000	91.300	33.9352
1950.000000	91.526	33.0966
1975.000000	91.753	32.1781
2000.000000	91.974	31.1288
2030.000000	92.222	29.6902
2060.000000	92.444	28.0969
2090.000000	92.638	26.3834
2120.000000	92.802	24.5765
2140.000000	92.894	23.3458
2180.000000	93.049	20.8792
2200.000000	93.118	19.6281
2240.000000	93.230	17.0258
2270.000000	93.284	14.9973
2300.000000	93.307	12.9567
2330.000000	93.302	10.9492
2360.000000	93.273	8.9682
2400.000000	93.196	6.3101
2430.000000	93.103	4.3063
2470.000000	92.927	1.6767
2500.000000	92.756	-0.2203
2540.000000	92.480	-2.5540
2580.000000	92.160	-4.5804
2620.000000	91.809	-6.3057
2650.000000	91.528	-7.4077
2690.000000	91.132	-8.5906
2720.000000	90.825	-9.2444
2760.000000	90.413	-9.8253
2800.000000	90.003	-10.1101
2850.000000	89.499	-10.0548
2900.000000	89.016	-9.5333
2950.000000	88.568	-8.5499
3000.000000	88.177	-7.2080
3040.000000	87.912	-5.9888
3070.000000	87.741	-5.0213
3110.000000	87.549	-3.6724
3150.000000	87.401	-2.2863
3200.000000	87.273	-0.5838
3250.000000	87.192	1.0081
3300.000000	87.137	2.4741
3350.000000	87.095	3.8732
3400.000000	87.064	5.2369
3450.000000	87.038	6.5689
3500.000000	87.013	7.9118
3550.000000	86.999	9.2864
3600.000000	87.007	10.6494
3650.000000	87.037	11.9480
3700.000000	87.085	13.1754
3750.000000	87.151	14.3658
3820.000000	87.282	15.9785
3870.000000	87.403	17.0945
3950.000000	87.644	18.8436
4000.000000	87.824	19.8549
4060.000000	88.054	20.8992
4120.000000	88.280	21.7484
4180.000000	88.495	22.4261
4250.000000	88.725	23.0204
4310.000000	88.910	23.4128
4370.000000	89.102	23.6956
4440.000000	89.346	23.7820
4500.000000	89.564	23.5726
4550.000000	89.746	23.1840
4620.000000	89.990	22.3103
4680.000000	90.177	21.3012
4750.000000	90.367	19.9121
4820.000000	90.530	18.3510
4870.000000	90.629	17.1536
4940.000000	90.746	15.3910
5000.000000	90.825	13.7924
5080.000000	90.883	11.5487
5150.000000	90.876	9.5691
5220.000000	90.812	7.6635
5300.000000	90.668	5.6703
5380.000000	90.453	3.9771
5450.000000	90.210	2.8169
5520.000000	89.927	2.0245
5600.000000	89.579	1.5867
5700.000000	89.152	1.6254
5800.000000	88.768	2.1161
5900.000000	88.437	2.9006
6000.000000	88.153	3.9234
6080.000000	87.950	4.8892
6150.000000	87.786	5.8338
6220.000000	87.630	6.8718
6300.000000	87.462	8.1955
6400.000000	87.277	10.1041
6500.000000	87.139	12.2870
6600.000000	87.065	14.6617
6700.000000	87.061	17.1514
6800.000000	87.134	19.7290
6900.000000	87.293	22.3508
7000.000000	87.548	24.9254
7100.000000	87.906	27.3569
7200.000000	88.379	29.5563
7300.000000	88.991	31.3683
7400.000000	89.751	32.5213
7500.000000	90.645	32.6651
7620.000000	91.834	30.9395
7750.000000	93.123	25.7690
7880.000000	94.151	16.0996
8000.000000	94.596	3.3826
8120.000000	94.385	-10.8021
8250.000000	93.407	-24.1995
8380.000000	91.818	-32.8365
8500.000000	90.051	-36.1051
8620.000000	88.241	-35.6757
8750.000000	86.467	-32.3667
8850.000000	85.341	-28.5810
9000.000000	84.116	-21.9425
9120.000000	83.513	-16.4679
9250.000000	83.153	-10.7651
9380.000000	83.027	-5.4320
9500.000000	83.083	-0.9406
9620.000000	83.278	3.0068
9750.000000	83.611	6.5570
9880.000000	84.039	9.3255
10000.000000	84.508	11.2425
10150.000000	85.201	12.6967
10300.000000	85.975	12.6957
10440.000000	86.704	11.1331
10600.000000	87.481	7.4128
10750.000000	88.084	1.9124
10900.000000	88.475	-5.5828
11060.000000	88.562	-15.3013
11200.000000	88.302	-24.3577
11380.000000	87.487	-35.0273
11500.000000	86.679	-40.6975
11720.000000	84.824	-47.2562
11800.000000	84.082	-48.4430
12060.000000	81.643	-48.7213
12200.000000	80.407	-47.1483
12410.000000	78.749	-43.3457
12500.000000	78.119	-41.3603
12650.000000	77.168	-37.7239
12800.000000	76.327	-33.7576
13150.000000	74.733	-23.5324
13200.000000	74.543	-21.9838
13400.000000	73.868	-15.6360
13600.000000	73.303	-9.1036
13800.000000	72.840	-2.4590
14000.000000	72.518	4.2465
14300.000000	72.445	14.2949
14500.000000	72.728	20.8586
14750.000000	73.460	28.6765
15000.000000	74.587	35.7271
15250.000000	76.074	41.3833
15500.000000	77.831	44.3677
15750.000000	79.620	42.4059
16000.000000	81.040	33.0482
16250.000000	81.649	16.7310
16500.000000	81.212	-0.9977
16750.000000	79.868	-13.5079
17000.000000	78.032	-18.6066
17250.000000	76.189	-18.0235
17500.000000	74.769	-14.3633
17750.000000	74.033	-9.7742
18000.000000	74.018	-6.0798
18250.000000	74.535	-5.1825
18500.000000	75.197	-8.9372
18750.000000	75.551	-18.0055
19000.000000	75.233	-30.2668
19250.000000	74.089	-41.1415
19500.000000	72.183	-46.5767
19750.000000	69.706	-45.1816
20000.000000	66.883	-37.5592
