* Measurement data measured by REW V5.31
* Source: EXCL: Microphone (USB Sound Device        ), MICROPHONE (Master Volume), L, volume: 0.560
* Format: 256k Log Swept Sine, 1 sweep at -5.0 dBFS with no timing reference
* Dated: May 13, 2024 12:30:17 AM
* REW Settings:
*  C-weighting compensation: Off
*  Target level: 75.0 dB
* Note: KZ Vader 1111 L
* Measurement: L KZ Vader 1111
* Smoothing: 1/12 octave
* Frequency Step: 96 ppo
* Start Frequency: 0.36621094 Hz
*
* Freq(Hz) SPL(dB) Phase(degrees)
0.366211 83.875 163.3853
0.368865 83.871 163.3685
0.371538 83.865 163.3435
0.374230 83.858 163.3120
0.376942 83.850 163.2758
0.379673 83.842 163.2360
0.382424 83.832 163.1935
0.385196 83.823 163.1487
0.387987 83.814 163.1019
0.390798 83.804 163.0533
0.393630 83.794 163.0029
0.396483 83.785 162.9508
0.399356 83.775 162.8969
0.402250 83.765 162.8414
0.405165 83.755 162.7840
0.408101 83.745 162.7250
0.411058 83.735 162.6641
0.414037 83.724 162.6015
0.417037 83.714 162.5371
0.420059 83.704 162.4709
0.423103 83.693 162.4028
0.426169 83.683 162.3329
0.429257 83.672 162.2612
0.432368 83.662 162.1876
0.435501 83.651 162.1122
0.438656 83.640 162.0348
0.441835 83.629 161.9555
0.445037 83.618 161.8744
0.448262 83.607 161.7913
0.451510 83.596 161.7063
0.454782 83.585 161.6193
0.458077 83.573 161.5304
0.461397 83.562 161.4395
0.464740 83.551 161.3467
0.468108 83.539 161.2519
0.471500 83.527 161.1551
0.474917 83.516 161.0563
0.478358 83.504 160.9555
0.481825 83.492 160.8528
0.485316 83.480 160.7480
0.488833 83.468 160.6412
0.492375 83.456 160.5324
0.495943 83.444 160.4217
0.499537 83.431 160.3089
0.503157 83.419 160.1941
0.506803 83.406 160.0773
0.510475 83.394 159.9585
0.514175 83.381 159.8378
0.517900 83.368 159.7150
0.521653 83.355 159.5903
0.525434 83.342 159.4637
0.529241 83.329 159.3350
0.533076 83.316 159.2045
0.536939 83.303 159.0720
0.540830 83.290 158.9376
0.544749 83.276 158.8014
0.548696 83.263 158.6632
0.552673 83.249 158.5233
0.556677 83.235 158.3815
0.560711 83.221 158.2379
0.564774 83.207 158.0926
0.568867 83.193 157.9455
0.572989 83.179 157.7968
0.577141 83.165 157.6464
0.581324 83.151 157.4944
0.585536 83.136 157.3408
0.589779 83.122 157.1857
0.594053 83.107 157.0291
0.598358 83.092 156.8711
0.602694 83.077 156.7118
0.607061 83.062 156.5511
0.611460 83.047 156.3892
0.615891 83.032 156.2261
0.620354 83.017 156.0620
0.624849 83.001 155.8968
0.629377 82.986 155.7306
0.633938 82.970 155.5636
0.638532 82.955 155.3958
0.643159 82.939 155.2274
0.647819 82.923 155.0584
0.652514 82.907 154.8889
0.657242 82.890 154.7190
0.662005 82.874 154.5489
0.666802 82.858 154.3787
0.671634 82.841 154.2085
0.676501 82.824 154.0383
0.681403 82.807 153.8685
0.686341 82.791 153.6991
0.691314 82.773 153.5302
0.696324 82.756 153.3621
0.701370 82.739 153.1948
0.706452 82.721 153.0284
0.711571 82.703 152.8631
0.716728 82.685 152.6988
0.721921 82.666 152.5354
0.727153 82.646 152.3726
0.732422 82.625 152.2101
0.737729 82.604 152.0473
0.743075 82.581 151.8835
0.748460 82.557 151.7182
0.753883 82.532 151.5512
0.759346 82.507 151.3820
0.764849 82.481 151.2105
0.770391 82.454 151.0367
0.775974 82.427 150.8604
0.781597 82.400 150.6816
0.787261 82.372 150.5004
0.792966 82.344 150.3168
0.798712 82.315 150.1307
0.804500 82.286 149.9421
0.810329 82.256 149.7511
0.816201 82.226 149.5578
0.822116 82.195 149.3620
0.828073 82.164 149.1640
0.834074 82.133 148.9636
0.840118 82.101 148.7609
0.846206 82.068 148.5561
0.852338 82.036 148.3491
0.858514 82.002 148.1399
0.864735 81.969 147.9288
0.871001 81.934 147.7156
0.877313 81.900 147.5006
0.883670 81.864 147.2837
0.890074 81.829 147.0651
0.896524 81.793 146.8449
0.903020 81.756 146.6232
0.909564 81.719 146.4001
0.916155 81.681 146.1756
0.922794 81.643 145.9501
0.929481 81.605 145.7235
0.936216 81.566 145.4961
0.943000 81.527 145.2681
0.949834 81.487 145.0395
0.956717 81.446 144.8107
0.963649 81.405 144.5817
0.970632 81.364 144.3529
0.977666 81.322 144.1245
0.984750 81.280 143.8967
0.991886 81.237 143.6698
0.999074 81.194 143.4441
1.006314 81.151 143.2199
1.013606 81.107 142.9975
1.020951 81.062 142.7772
1.028349 81.017 142.5595
1.035801 80.972 142.3447
1.043307 80.926 142.1333
1.050867 80.880 141.9256
1.058482 80.833 141.7220
1.066152 80.786 141.5231
1.073878 80.738 141.3293
1.081660 80.690 141.1410
1.089498 80.641 140.9586
1.097393 80.592 140.7825
1.105345 80.542 140.6127
1.113355 80.491 140.4496
1.121423 80.439 140.2933
1.129549 80.386 140.1436
1.137734 80.333 140.0007
1.145979 80.278 139.8646
1.154283 80.222 139.7352
1.162647 80.166 139.6127
1.171072 80.108 139.4969
1.179558 80.050 139.3878
1.188106 79.991 139.2854
1.196715 79.930 139.1897
1.205387 79.869 139.1007
1.214122 79.808 139.0183
1.222920 79.745 138.9425
1.231782 79.682 138.8732
1.240708 79.618 138.8103
1.249699 79.554 138.7537
1.258754 79.489 138.7034
1.267876 79.423 138.6593
1.277063 79.357 138.6211
1.286318 79.291 138.5889
1.295639 79.224 138.5623
1.305027 79.157 138.5413
1.314484 79.090 138.5255
1.324009 79.023 138.5149
1.333604 78.956 138.5092
1.343268 78.888 138.5079
1.353002 78.821 138.5110
1.362806 78.754 138.5179
1.372681 78.687 138.5284
1.382628 78.620 138.5420
1.392647 78.554 138.5583
1.402739 78.488 138.5770
1.412904 78.422 138.5977
1.423142 78.358 138.6201
1.433455 78.294 138.6441
1.443843 78.230 138.6701
1.454305 78.167 138.6986
1.464844 78.104 138.7308
1.475459 78.042 138.7684
1.486150 77.980 138.8131
1.496920 77.918 138.8662
1.507767 77.855 138.9290
1.518693 77.793 139.0020
1.529698 77.730 139.0857
1.540783 77.667 139.1802
1.551948 77.604 139.2855
1.563194 77.541 139.4016
1.574521 77.478 139.5281
1.585931 77.415 139.6648
1.597423 77.353 139.8115
1.608999 77.291 139.9677
1.620658 77.230 140.1330
1.632402 77.169 140.3070
1.644232 77.109 140.4890
1.656146 77.050 140.6785
1.668147 76.991 140.8748
1.680235 76.935 141.0773
1.692411 76.879 141.2851
1.704675 76.825 141.4974
1.717028 76.772 141.7133
1.729470 76.722 141.9318
1.742003 76.673 142.1521
1.754626 76.626 142.3730
1.767341 76.582 142.5937
1.780147 76.540 142.8133
1.793047 76.501 143.0315
1.806040 76.465 143.2481
1.819128 76.432 143.4637
1.832310 76.402 143.6795
1.845587 76.375 143.8971
1.858961 76.351 144.1183
1.872432 76.330 144.3443
1.886001 76.313 144.5753
1.899667 76.299 144.8115
1.913433 76.288 145.0521
1.927299 76.280 145.2961
1.941265 76.275 145.5423
1.955332 76.272 145.7893
1.969501 76.272 146.0356
1.983773 76.275 146.2796
1.998148 76.280 146.5196
2.012627 76.288 146.7539
2.027212 76.297 146.9809
2.041902 76.308 147.1987
2.056698 76.322 147.4054
2.071602 76.336 147.5994
2.086614 76.353 147.7788
2.101734 76.370 147.9418
2.116964 76.389 148.0867
2.132304 76.409 148.2118
2.147756 76.429 148.3156
2.163320 76.451 148.3971
2.178996 76.473 148.4556
2.194786 76.497 148.4910
2.210690 76.523 148.5037
2.226710 76.550 148.4945
2.242845 76.580 148.4643
2.259098 76.612 148.4139
2.275468 76.646 148.3438
2.291957 76.682 148.2545
2.308566 76.721 148.1462
2.325295 76.762 148.0192
2.342145 76.804 147.8738
2.359117 76.848 147.7102
2.376212 76.893 147.5284
2.393431 76.940 147.3288
2.410775 76.986 147.1113
2.428244 77.034 146.8761
2.445840 77.081 146.6231
2.463564 77.128 146.3524
2.481416 77.175 146.0636
2.499397 77.220 145.7565
2.517509 77.265 145.4302
2.535752 77.309 145.0839
2.554127 77.352 144.7162
2.572635 77.393 144.3258
2.591277 77.434 143.9112
2.610055 77.475 143.4716
2.628968 77.515 143.0071
2.648019 77.554 142.5183
2.667208 77.593 142.0064
2.686535 77.632 141.4730
2.706003 77.671 140.9199
2.725612 77.709 140.3491
2.745363 77.747 139.7625
2.765257 77.784 139.1623
2.785295 77.821 138.5504
2.805478 77.857 137.9288
2.825808 77.892 137.2991
2.846285 77.926 136.6629
2.866910 77.960 136.0209
2.887685 77.992 135.3736
2.908611 78.024 134.7204
2.929688 78.054 134.0595
2.950917 78.083 133.3890
2.972301 78.110 132.7066
2.993839 78.137 132.0108
3.015534 78.162 131.3010
3.037386 78.186 130.5777
3.059396 78.210 129.8419
3.081565 78.232 129.0953
3.103896 78.253 128.3397
3.126388 78.274 127.5773
3.149043 78.294 126.8104
3.171862 78.313 126.0414
3.194847 78.332 125.2725
3.217998 78.350 124.5055
3.241317 78.368 123.7419
3.264805 78.385 122.9822
3.288463 78.402 122.2263
3.312293 78.419 121.4728
3.336295 78.435 120.7201
3.360471 78.450 119.9668
3.384822 78.464 119.2121
3.409350 78.478 118.4561
3.434056 78.491 117.6996
3.458940 78.503 116.9440
3.484005 78.516 116.1910
3.509252 78.529 115.4428
3.534681 78.543 114.7017
3.560295 78.557 113.9702
3.586094 78.572 113.2506
3.612081 78.587 112.5450
3.638255 78.604 111.8551
3.664620 78.622 111.1818
3.691175 78.641 110.5255
3.717923 78.661 109.8855
3.744864 78.682 109.2611
3.772001 78.703 108.6513
3.799335 78.726 108.0551
3.826866 78.750 107.4716
3.854597 78.776 106.9002
3.882529 78.804 106.3402
3.910664 78.834 105.7914
3.939002 78.866 105.2539
3.967546 78.901 104.7280
3.996296 78.940 104.2146
4.025255 78.981 103.7150
4.054423 79.026 103.2302
4.083804 79.074 102.7613
4.113396 79.125 102.3081
4.143204 79.180 101.8697
4.173227 79.237 101.4441
4.203468 79.298 101.0291
4.233928 79.362 100.6220
4.264609 79.429 100.2202
4.295512 79.499 99.8214
4.326639 79.573 99.4238
4.357992 79.650 99.0266
4.389572 79.731 98.6298
4.421380 79.816 98.2343
4.453419 79.905 97.8411
4.485691 79.997 97.4505
4.518196 80.093 97.0619
4.550936 80.193 96.6735
4.583914 80.295 96.2831
4.617131 80.400 95.8882
4.650589 80.507 95.4860
4.684289 80.616 95.0745
4.718233 80.726 94.6518
4.752424 80.838 94.2172
4.786862 80.952 93.7710
4.821549 81.067 93.3138
4.856488 81.184 92.8467
4.891680 81.302 92.3705
4.927127 81.422 91.8856
4.962831 81.542 91.3922
4.998794 81.662 90.8901
5.035017 81.782 90.3788
5.071503 81.901 89.8578
5.108253 82.019 89.3265
5.145270 82.136 88.7845
5.182555 82.253 88.2320
5.220110 82.368 87.6698
5.257937 82.482 87.0993
5.296038 82.595 86.5223
5.334415 82.706 85.9409
5.373071 82.816 85.3567
5.412006 82.923 84.7713
5.451224 83.029 84.1853
5.490725 83.132 83.5988
5.530514 83.233 83.0117
5.570590 83.331 82.4238
5.610957 83.427 81.8359
5.651616 83.521 81.2493
5.692570 83.612 80.6661
5.733821 83.701 80.0885
5.775370 83.788 79.5186
5.817221 83.872 78.9578
5.859375 83.955 78.4069
5.901834 84.035 77.8658
5.944602 84.113 77.3345
5.987679 84.189 76.8129
6.031068 84.262 76.3015
6.074771 84.334 75.8014
6.118792 84.405 75.3136
6.163131 84.474 74.8394
6.207792 84.543 74.3794
6.252776 84.610 73.9341
6.298086 84.676 73.5031
6.343725 84.742 73.0859
6.389694 84.806 72.6816
6.435996 84.870 72.2894
6.482634 84.934 71.9084
6.529610 84.998 71.5380
6.576926 85.062 71.1780
6.624585 85.126 70.8279
6.672590 85.191 70.4871
6.720942 85.256 70.1546
6.769645 85.321 69.8288
6.818700 85.387 69.5078
6.868111 85.453 69.1898
6.917881 85.519 68.8733
6.968010 85.585 68.5570
7.018504 85.653 68.2403
7.069362 85.720 67.9224
7.120590 85.787 67.6024
7.172189 85.855 67.2792
7.224161 85.922 66.9514
7.276511 85.988 66.6178
7.329239 86.054 66.2775
7.382350 86.119 65.9300
7.435845 86.183 65.5753
7.489729 86.247 65.2137
7.544002 86.308 64.8453
7.598669 86.368 64.4706
7.653732 86.427 64.0897
7.709194 86.483 63.7029
7.765058 86.537 63.3103
7.821327 86.589 62.9128
7.878004 86.639 62.5116
7.935091 86.686 62.1081
7.992592 86.731 61.7038
8.050510 86.774 61.2996
8.108847 86.814 60.8966
8.167607 86.851 60.4954
8.226793 86.886 60.0971
8.286408 86.919 59.7030
8.346454 86.950 59.3143
8.406936 86.979 58.9323
8.467856 87.006 58.5577
8.529218 87.031 58.1910
8.591024 87.055 57.8322
8.653278 87.078 57.4816
8.715983 87.100 57.1392
8.779143 87.122 56.8051
8.842760 87.143 56.4790
8.906839 87.164 56.1605
8.971381 87.185 55.8486
9.036392 87.206 55.5420
9.101873 87.228 55.2394
9.167829 87.250 54.9396
9.234263 87.274 54.6415
9.301178 87.297 54.3437
9.368578 87.322 54.0446
9.436467 87.348 53.7425
9.504847 87.374 53.4358
9.573723 87.401 53.1232
9.643099 87.428 52.8036
9.712976 87.455 52.4762
9.783361 87.481 52.1398
9.854255 87.505 51.7939
9.925663 87.527 51.4377
9.997588 87.547 51.0710
10.070035 87.564 50.6940
10.143007 87.580 50.3069
10.216507 87.593 49.9101
10.290540 87.604 49.5041
10.365109 87.614 49.0895
10.440219 87.622 48.6670
10.515873 87.628 48.2378
10.592076 87.634 47.8027
10.668830 87.638 47.3629
10.746141 87.642 46.9191
10.824012 87.645 46.4722
10.902447 87.647 46.0230
10.981451 87.650 45.5724
11.061027 87.651 45.1211
11.141180 87.653 44.6694
11.221913 87.654 44.2178
11.303232 87.656 43.7664
11.385140 87.658 43.3156
11.467641 87.660 42.8654
11.550741 87.662 42.4157
11.634442 87.666 41.9664
11.718750 87.670 41.5174
11.803669 87.675 41.0687
11.889203 87.681 40.6200
11.975357 87.688 40.1713
12.062136 87.696 39.7225
12.149543 87.704 39.2736
12.237583 87.714 38.8246
12.326262 87.724 38.3756
12.415583 87.735 37.9270
12.505552 87.746 37.4787
12.596172 87.757 37.0312
12.687449 87.768 36.5846
12.779387 87.780 36.1394
12.871992 87.792 35.6957
12.965268 87.804 35.2540
13.059220 87.816 34.8146
13.153852 87.828 34.3778
13.249170 87.841 33.9438
13.345179 87.854 33.5131
13.441884 87.867 33.0859
13.539289 87.880 32.6626
13.637401 87.893 32.2436
13.736223 87.905 31.8293
13.835761 87.918 31.4203
13.936021 87.930 31.0169
14.037007 87.942 30.6198
14.138725 87.953 30.2295
14.241180 87.963 29.8464
14.344377 87.973 29.4711
14.448323 87.982 29.1039
14.553021 87.992 28.7449
14.658478 88.000 28.3941
14.764700 88.009 28.0512
14.871691 88.018 27.7156
14.979457 88.027 27.3865
15.088005 88.036 27.0627
15.197339 88.046 26.7429
15.307465 88.056 26.4255
15.418389 88.067 26.1087
15.530117 88.078 25.7908
15.642655 88.088 25.4703
15.756008 88.098 25.1455
15.870182 88.108 24.8155
15.985184 88.117 24.4795
16.101019 88.124 24.1374
16.217694 88.130 23.7894
16.335214 88.135 23.4365
16.453586 88.137 23.0800
16.572815 88.137 22.7217
16.692909 88.136 22.3635
16.813872 88.132 22.0075
16.935713 88.127 21.6558
17.058436 88.121 21.3099
17.182048 88.113 20.9710
17.306556 88.106 20.6397
17.431967 88.098 20.3154
17.558286 88.090 19.9969
17.685521 88.083 19.6822
17.813677 88.078 19.3685
17.942762 88.073 19.0524
18.072783 88.070 18.7302
18.203746 88.069 18.3986
18.335658 88.068 18.0544
18.468526 88.069 17.6952
18.602356 88.069 17.3197
18.737156 88.070 16.9277
18.872934 88.069 16.5205
19.009695 88.068 16.1003
19.147447 88.064 15.6706
19.286197 88.059 15.2356
19.425953 88.052 14.8000
19.566721 88.043 14.3684
19.708510 88.033 13.9446
19.851326 88.022 13.5321
19.995177 88.011 13.1328
20.140070 88.000 12.7470
20.286013 87.992 12.3738
20.433014 87.985 12.0108
20.581080 87.981 11.6546
20.730219 87.980 11.3009
20.880439 87.981 10.9455
21.031747 87.985 10.5847
21.184152 87.991 10.2157
21.337661 87.999 9.8369
21.492282 88.006 9.4484
21.648024 88.014 9.0517
21.804895 88.020 8.6496
21.962902 88.025 8.2457
22.122054 88.028 7.8443
22.282360 88.030 7.4492
22.443827 88.030 7.0641
22.606464 88.029 6.6911
22.770280 88.027 6.3316
22.935283 88.025 5.9853
23.101481 88.022 5.6511
23.268884 88.021 5.3268
23.437500 88.019 5.0098
23.607338 88.018 4.6977
23.778406 88.017 4.3882
23.950714 88.015 4.0796
24.124271 88.013 3.7711
24.299086 88.010 3.4623
24.475167 88.006 3.1534
24.652524 88.001 2.8446
24.831166 87.995 2.5361
25.011103 87.988 2.2277
25.192344 87.981 1.9186
25.374898 87.974 1.6076
25.558775 87.966 1.2934
25.743984 87.957 0.9744
25.930536 87.948 0.6491
26.118439 87.939 0.3167
26.307704 87.928 -0.0231
26.498341 87.917 -0.3701
26.690359 87.905 -0.7234
26.883768 87.891 -1.0817
27.078579 87.876 -1.4434
27.274801 87.860 -1.8069
27.472446 87.844 -2.1707
27.671522 87.826 -2.5331
27.872042 87.808 -2.8930
28.074014 87.790 -3.2491
28.277450 87.772 -3.6003
28.482360 87.755 -3.9457
28.688755 87.737 -4.2846
28.896645 87.721 -4.6165
29.106042 87.706 -4.9415
29.316957 87.692 -5.2602
29.529400 87.680 -5.5734
29.743382 87.670 -5.8826
29.958915 87.662 -6.1893
30.176009 87.656 -6.4951
30.394677 87.652 -6.8016
30.614929 87.649 -7.1102
30.836778 87.647 -7.4222
31.060234 87.646 -7.7389
31.285309 87.646 -8.0613
31.512015 87.646 -8.3910
31.740364 87.645 -8.7289
31.970368 87.644 -9.0759
32.202039 87.642 -9.4321
32.435388 87.637 -9.7968
32.670428 87.630 -10.1679
32.907171 87.620 -10.5423
33.145630 87.607 -10.9160
33.385817 87.591 -11.2849
33.627745 87.571 -11.6448
33.871425 87.550 -11.9928
34.116871 87.527 -12.3275
34.364096 87.503 -12.6492
34.613113 87.479 -12.9599
34.863934 87.455 -13.2626
35.116572 87.432 -13.5610
35.371041 87.410 -13.8584
35.627354 87.388 -14.1573
35.885525 87.367 -14.4586
36.145566 87.346 -14.7623
36.407492 87.326 -15.0673
36.671316 87.305 -15.3723
36.937051 87.286 -15.6764
37.204712 87.267 -15.9797
37.474313 87.250 -16.2829
37.745867 87.234 -16.5876
38.019389 87.219 -16.8952
38.294893 87.205 -17.2067
38.572394 87.192 -17.5221
38.851905 87.180 -17.8406
39.133442 87.168 -18.1611
39.417019 87.156 -18.4828
39.702651 87.144 -18.8057
39.990353 87.133 -19.1307
40.280140 87.122 -19.4585
40.572026 87.110 -19.7893
40.866028 87.097 -20.1217
41.162160 87.084 -20.4534
41.460438 87.069 -20.7816
41.760877 87.053 -21.1041
42.063494 87.036 -21.4211
42.368303 87.020 -21.7344
42.675322 87.003 -22.0476
42.984565 86.986 -22.3636
43.296048 86.968 -22.6841
43.609789 86.948 -23.0082
43.925804 86.926 -23.3326
44.244108 86.901 -23.6526
44.564719 86.874 -23.9630
44.887654 86.846 -24.2594
45.212928 86.817 -24.5390
45.540560 86.787 -24.8018
45.870565 86.759 -25.0511
46.202962 86.733 -25.2930
46.537768 86.708 -25.5350
46.875000 86.685 -25.7837
47.214676 86.662 -26.0421
47.556813 86.639 -26.3092
47.901429 86.615 -26.5816
48.248542 86.590 -26.8563
48.598171 86.565 -27.1326
48.950334 86.540 -27.4120
49.305048 86.515 -27.6966
49.662333 86.490 -27.9869
50.022206 86.464 -28.2819
50.384688 86.438 -28.5803
50.749796 86.412 -28.8820
51.117550 86.386 -29.1867
51.487969 86.359 -29.4921
51.861072 86.331 -29.7935
52.236879 86.304 -30.0857
52.615409 86.279 -30.3681
52.996681 86.256 -30.6457
53.380717 86.235 -30.9254
53.767536 86.215 -31.2099
54.157158 86.196 -31.4946
54.549603 86.177 -31.7727
54.944892 86.160 -32.0441
55.343045 86.145 -32.3181
55.744084 86.131 -32.6049
56.148028 86.115 -32.9035
56.554900 86.096 -33.1994
56.964720 86.075 -33.4764
57.377510 86.054 -33.7324
57.793291 86.034 -33.9815
58.212085 86.015 -34.2370
58.633914 85.994 -34.4931
59.058799 85.969 -34.7282
59.486764 85.946 -34.9313
59.917829 85.928 -35.1236
60.352019 85.915 -35.3463
60.789354 85.901 -35.6210
61.229859 85.879 -35.9230
61.673556 85.849 -36.2023
62.120468 85.817 -36.4334
62.570618 85.791 -36.6428
63.024031 85.771 -36.8802
63.480729 85.748 -37.1615
63.940736 85.719 -37.4505
64.404077 85.687 -37.7031
64.870776 85.661 -37.9244
65.340856 85.643 -38.1700
65.814343 85.628 -38.4839
66.291261 85.605 -38.8447
66.771635 85.574 -39.1859
67.255489 85.542 -39.4714
67.742850 85.520 -39.7391
68.233743 85.507 -40.0591
68.728193 85.492 -40.4498
69.226226 85.466 -40.8527
69.727867 85.433 -41.1943
70.233144 85.407 -41.4677
70.742083 85.393 -41.7421
71.254709 85.385 -42.0863
71.771050 85.371 -42.4952
72.291132 85.344 -42.8976
72.814984 85.312 -43.2336
73.342631 85.285 -43.5155
73.874102 85.265 -43.8089
74.409424 85.244 -44.1560
74.948626 85.211 -44.5241
75.491734 85.167 -44.8341
76.038779 85.121 -45.0382
76.589787 85.085 -45.1703
77.144788 85.063 -45.3178
77.703811 85.046 -45.5429
78.266885 85.023 -45.8296
78.834039 84.991 -46.1093
79.405303 84.957 -46.3353
79.980706 84.931 -46.5340
80.560280 84.916 -46.7836
81.144053 84.903 -47.1410
81.732056 84.879 -47.5872
82.324320 84.839 -48.0399
82.920876 84.789 -48.4201
83.521755 84.743 -48.7148
84.126988 84.708 -48.9846
84.736607 84.683 -49.3076
85.350643 84.657 -49.7093
85.969129 84.620 -50.1407
86.592097 84.571 -50.5189
87.219579 84.519 -50.7945
87.851608 84.477 -50.9895
88.488217 84.446 -51.1781
89.129439 84.423 -51.4269
89.775308 84.396 -51.7457
90.425856 84.359 -52.0868
91.081119 84.312 -52.3864
91.741131 84.265 -52.6135
92.405925 84.224 -52.7915
93.075536 84.194 -52.9783
93.750000 84.170 -53.2232
94.429351 84.145 -53.5332
95.113625 84.112 -53.8731
95.802858 84.071 -54.1934
96.497085 84.027 -54.4618
97.196342 83.985 -54.6796
97.900667 83.949 -54.8755
98.610096 83.917 -55.0822
99.324665 83.887 -55.3151
100.044413 83.856 -55.5670
100.769376 83.823 -55.8201
101.499592 83.789 -56.0631
102.235100 83.756 -56.3001
102.975938 83.726 -56.5468
103.722144 83.697 -56.8156
104.473757 83.665 -57.1014
105.230817 83.627 -57.3794
105.993363 83.586 -57.6180
106.761435 83.546 -57.7982
107.535072 83.511 -57.9287
108.314315 83.488 -58.0502
109.099206 83.476 -58.2212
109.889783 83.469 -58.4911
110.686090 83.459 -58.8754
111.488167 83.436 -59.3464
112.296056 83.394 -59.8388
113.109800 83.333 -60.2669
113.929440 83.257 -60.5495
114.755020 83.177 -60.6359
115.586582 83.108 -60.5250
116.424170 83.062 -60.2709
117.267827 83.044 -59.9726
118.117598 83.054 -59.7490
118.973527 83.083 -59.7049
119.835658 83.117 -59.9012
120.704037 83.141 -60.3354
121.578708 83.143 -60.9454
122.459718 83.120 -61.6402
123.347111 83.072 -62.3337
124.240935 83.008 -62.9623
125.141236 82.933 -63.4886
126.048061 82.855 -63.8964
126.961458 82.778 -64.1858
127.881473 82.706 -64.3714
128.808154 82.642 -64.4787
129.741551 82.587 -64.5367
130.681712 82.540 -64.5735
131.628686 82.502 -64.6140
132.582521 82.471 -64.6765
133.543269 82.446 -64.7702
134.510979 82.425 -64.8963
135.485701 82.407 -65.0524
136.467486 82.391 -65.2336
137.456386 82.377 -65.4335
138.452451 82.363 -65.6448
139.455735 82.349 -65.8615
140.466288 82.334 -66.0803
141.484165 82.320 -66.3006
142.509418 82.304 -66.5195
143.542100 82.287 -66.7296
144.582265 82.268 -66.9231
145.629968 82.248 -67.0962
146.685262 82.225 -67.2492
147.748204 82.198 -67.3849
148.818849 82.165 -67.5098
149.897251 82.123 -67.6363
150.983469 82.074 -67.7851
152.077557 82.019 -67.9833
153.179574 81.961 -68.2580
154.289576 81.905 -68.6229
155.407622 81.855 -69.0634
156.533770 81.816 -69.5333
157.668078 81.793 -69.9679
158.810606 81.784 -70.3107
159.961413 81.788 -70.5350
161.120559 81.796 -70.6461
162.288105 81.798 -70.6765
163.464112 81.788 -70.6754
164.648640 81.763 -70.6952
165.841752 81.726 -70.7751
167.043510 81.684 -70.9299
168.253976 81.643 -71.1474
169.473213 81.609 -71.3952
170.701286 81.582 -71.6351
171.938258 81.562 -71.8387
173.184194 81.543 -71.9977
174.439158 81.521 -72.1249
175.703216 81.497 -72.2453
176.976434 81.470 -72.3827
178.258878 81.444 -72.5489
179.550615 81.419 -72.7408
180.851713 81.397 -72.9450
182.162239 81.375 -73.1464
183.482262 81.353 -73.3366
184.811850 81.329 -73.5161
186.151073 81.304 -73.6900
187.500000 81.279 -73.8625
188.858702 81.255 -74.0353
190.227250 81.233 -74.2086
191.605715 81.212 -74.3828
192.994169 81.192 -74.5592
194.392685 81.170 -74.7393
195.801334 81.147 -74.9227
197.220191 81.124 -75.1064
198.649330 81.100 -75.2849
200.088825 81.076 -75.4513
201.538751 81.054 -75.6016
202.999184 81.033 -75.7370
204.470200 81.014 -75.8647
205.951875 80.997 -75.9945
207.444287 80.981 -76.1334
208.947514 80.966 -76.2835
210.461634 80.951 -76.4424
211.986726 80.934 -76.6066
213.522869 80.916 -76.7716
215.070144 80.896 -76.9315
216.628631 80.875 -77.0806
218.198411 80.852 -77.2166
219.779567 80.831 -77.3418
221.372180 80.810 -77.4625
222.976334 80.791 -77.5854
224.592112 80.772 -77.7147
226.219600 80.754 -77.8510
227.858880 80.736 -77.9931
229.510039 80.717 -78.1395
231.173164 80.700 -78.2886
232.848340 80.683 -78.4388
234.535655 80.668 -78.5878
236.235197 80.655 -78.7335
237.947054 80.643 -78.8743
239.671317 80.631 -79.0092
241.408074 80.618 -79.1377
243.157416 80.604 -79.2604
244.919435 80.588 -79.3785
246.694223 80.570 -79.4930
248.481871 80.551 -79.6026
250.282473 80.531 -79.7037
252.096123 80.513 -79.7920
253.922915 80.498 -79.8655
255.762945 80.486 -79.9278
257.616309 80.476 -79.9889
259.483103 80.469 -80.0613
261.363424 80.462 -80.1534
263.257372 80.455 -80.2644
265.165043 80.447 -80.3856
267.086538 80.437 -80.5059
269.021957 80.427 -80.6169
270.971401 80.416 -80.7158
272.934972 80.406 -80.8040
274.912771 80.397 -80.8843
276.904902 80.390 -80.9581
278.911469 80.385 -81.0260
280.932577 80.382 -81.0893
282.968330 80.381 -81.1512
285.018835 80.382 -81.2173
287.084199 80.384 -81.2953
289.164530 80.387 -81.3923
291.259935 80.388 -81.5106
293.370525 80.387 -81.6456
295.496408 80.384 -81.7872
297.637697 80.378 -81.9245
299.794503 80.371 -82.0501
301.966937 80.364 -82.1606
304.155114 80.356 -82.2564
306.359147 80.348 -82.3406
308.579152 80.341 -82.4182
310.815244 80.335 -82.4943
313.067539 80.328 -82.5716
315.336156 80.321 -82.6490
317.621211 80.313 -82.7219
319.922826 80.304 -82.7848
322.241118 80.296 -82.8350
324.576210 80.290 -82.8739
326.928223 80.284 -82.9052
329.297280 80.280 -82.9328
331.683504 80.277 -82.9599
334.087019 80.274 -82.9891
336.507952 80.273 -83.0221
338.946427 80.271 -83.0595
341.402572 80.269 -83.1001
343.876516 80.268 -83.1412
346.368387 80.266 -83.1798
348.878315 80.263 -83.2137
351.406431 80.262 -83.2415
353.952867 80.260 -83.2629
356.517756 80.259 -83.2783
359.101230 80.258 -83.2889
361.703426 80.257 -83.2967
364.324478 80.257 -83.3034
366.964523 80.257 -83.3089
369.623699 80.257 -83.3119
372.302145 80.258 -83.3109
375.000000 80.259 -83.3058
377.717405 80.260 -83.2967
380.454501 80.262 -83.2841
383.211431 80.264 -83.2685
385.988339 80.266 -83.2499
388.785369 80.269 -83.2279
391.602668 80.272 -83.2026
394.440383 80.276 -83.1746
397.298660 80.281 -83.1439
400.177650 80.287 -83.1103
403.077502 80.294 -83.0746
405.998368 80.301 -83.0391
408.940400 80.309 -83.0055
411.903750 80.316 -82.9728
414.888575 80.323 -82.9381
417.895028 80.330 -82.8972
420.923268 80.338 -82.8480
423.973452 80.346 -82.7899
427.045738 80.355 -82.7246
430.140287 80.366 -82.6549
433.257261 80.379 -82.5839
436.396822 80.393 -82.5131
439.559133 80.408 -82.4417
442.744360 80.425 -82.3703
445.952668 80.442 -82.3022
449.184225 80.461 -82.2438
452.439199 80.481 -82.2020
455.717760 80.500 -82.1799
459.020079 80.517 -82.1737
462.346327 80.532 -82.1727
465.696680 80.544 -82.1644
469.071310 80.554 -82.1402
472.470394 80.564 -82.0990
475.894109 80.575 -82.0450
479.342634 80.585 -81.9850
482.816148 80.596 -81.9239
486.314833 80.607 -81.8613
489.838871 80.617 -81.7913
493.388445 80.626 -81.7064
496.963741 80.637 -81.6033
500.564945 80.648 -81.4862
504.192245 80.662 -81.3635
507.845830 80.677 -81.2426
511.525890 80.693 -81.1266
515.232618 80.709 -81.0145
518.966206 80.724 -80.9029
522.726849 80.739 -80.7869
526.514743 80.754 -80.6617
530.330086 80.769 -80.5248
534.173076 80.785 -80.3784
538.043915 80.802 -80.2277
541.942803 80.820 -80.0756
545.869944 80.840 -79.9214
549.825542 80.860 -79.7637
553.809805 80.882 -79.6041
557.822939 80.905 -79.4459
561.865154 80.929 -79.2917
565.936660 80.953 -79.1416
570.037671 80.976 -78.9927
574.168399 80.999 -78.8412
578.329060 81.021 -78.6844
582.519870 81.044 -78.5223
586.741049 81.067 -78.3552
590.992817 81.089 -78.1812
595.275394 81.113 -77.9977
599.589005 81.137 -77.8049
603.933874 81.163 -77.6062
608.310228 81.189 -77.4049
612.718295 81.216 -77.2021
617.158304 81.242 -76.9958
621.630488 81.268 -76.7808
626.135079 81.294 -76.5513
630.672311 81.321 -76.3058
635.242423 81.351 -76.0490
639.845651 81.383 -75.7882
644.482237 81.417 -75.5262
649.152421 81.455 -75.2625
653.856447 81.494 -74.9981
658.594560 81.537 -74.7392
663.367008 81.582 -74.4952
668.174039 81.628 -74.2735
673.015903 81.673 -74.0727
677.892854 81.717 -73.8846
682.805145 81.758 -73.6995
687.753032 81.798 -73.5104
692.736774 81.836 -73.3116
697.756631 81.873 -73.0990
702.812863 81.911 -72.8713
707.905735 81.949 -72.6311
713.035511 81.989 -72.3827
718.202461 82.029 -72.1302
723.406852 82.071 -71.8750
728.648956 82.113 -71.6172
733.929047 82.155 -71.3562
739.247399 82.198 -71.0910
744.604290 82.241 -70.8215
750.000000 82.286 -70.5478
755.434809 82.331 -70.2711
760.909001 82.377 -69.9930
766.422861 82.425 -69.7141
771.976677 82.473 -69.4346
777.570739 82.524 -69.1551
783.205337 82.575 -68.8760
788.880766 82.626 -68.5973
794.597321 82.679 -68.3177
800.355301 82.733 -68.0368
806.155005 82.788 -67.7567
811.996736 82.844 -67.4821
817.880799 82.902 -67.2187
823.807501 82.959 -66.9696
829.777150 83.016 -66.7347
835.790057 83.070 -66.5071
841.846536 83.122 -66.2744
847.946903 83.172 -66.0246
854.091476 83.222 -65.7533
860.280575 83.272 -65.4624
866.514523 83.324 -65.1555
872.793644 83.379 -64.8359
879.118267 83.436 -64.5092
885.488720 83.495 -64.1829
891.905336 83.557 -63.8620
898.368450 83.619 -63.5459
904.878398 83.682 -63.2309
911.435520 83.747 -62.9135
918.040157 83.813 -62.5934
924.692655 83.882 -62.2724
931.393359 83.953 -61.9536
938.142619 84.026 -61.6419
944.940787 84.101 -61.3412
951.788218 84.177 -61.0520
958.685268 84.254 -60.7724
965.632296 84.331 -60.4999
972.629666 84.409 -60.2316
979.677741 84.488 -59.9663
986.776890 84.567 -59.7038
993.927482 84.647 -59.4419
1001.129891 84.727 -59.1765
1008.384491 84.808 -58.9043
1015.691660 84.892 -58.6267
1023.051781 84.979 -58.3490
1030.465236 85.070 -58.0792
1037.932411 85.164 -57.8282
1045.453698 85.262 -57.6078
1053.029486 85.360 -57.4228
1060.660172 85.456 -57.2693
1068.346153 85.551 -57.1386
1076.087829 85.643 -57.0216
1083.885605 85.733 -56.9119
1091.739887 85.821 -56.8071
1099.651084 85.909 -56.7064
1107.619609 85.995 -56.6089
1115.645878 86.081 -56.5137
1123.730308 86.165 -56.4198
1131.873321 86.249 -56.3262
1140.075341 86.331 -56.2320
1148.336797 86.413 -56.1364
1156.658119 86.495 -56.0389
1165.039741 86.577 -55.9387
1173.482099 86.659 -55.8340
1181.985634 86.743 -55.7254
1190.550789 86.829 -55.6187
1199.178011 86.918 -55.5246
1207.867749 87.008 -55.4550
1216.620457 87.099 -55.4148
1225.436590 87.187 -55.4000
1234.316609 87.271 -55.4013
1243.260976 87.353 -55.4092
1252.270157 87.431 -55.4157
1261.344623 87.506 -55.4162
1270.484846 87.578 -55.4093
1279.691303 87.649 -55.3937
1288.964474 87.718 -55.3679
1298.304842 87.786 -55.3326
1307.712894 87.854 -55.2904
1317.189120 87.922 -55.2447
1326.734016 87.990 -55.1972
1336.348077 88.058 -55.1469
1346.031806 88.125 -55.0907
1355.785708 88.192 -55.0247
1365.610290 88.260 -54.9452
1375.506065 88.329 -54.8473
1385.473549 88.399 -54.7259
1395.513261 88.472 -54.5799
1405.625726 88.549 -54.4148
1415.811469 88.629 -54.2428
1426.071023 88.714 -54.0787
1436.404921 88.800 -53.9322
1446.813703 88.887 -53.8036
1457.297912 88.972 -53.6873
1467.858093 89.056 -53.5767
1478.494798 89.137 -53.4671
1489.208581 89.215 -53.3549
1500.000000 89.291 -53.2368
1510.869618 89.362 -53.1092
1521.818002 89.430 -52.9691
1532.845723 89.493 -52.8142
1543.953355 89.553 -52.6425
1555.141477 89.612 -52.4541
1566.410674 89.672 -52.2531
1577.761531 89.734 -52.0509
1589.194642 89.799 -51.8616
1600.710601 89.864 -51.6945
1612.310010 89.930 -51.5499
1623.993473 89.993 -51.4225
1635.761599 90.056 -51.3043
1647.615002 90.116 -51.1891
1659.554299 90.175 -51.0721
1671.580114 90.233 -50.9498
1683.693072 90.290 -50.8219
1695.893807 90.348 -50.6901
1708.182952 90.406 -50.5563
1720.561150 90.462 -50.4202
1733.029045 90.517 -50.2788
1745.587288 90.569 -50.1267
1758.236533 90.620 -49.9571
1770.977440 90.671 -49.7647
1783.810673 90.724 -49.5502
1796.736900 90.781 -49.3236
1809.756796 90.842 -49.1000
1822.871040 90.907 -48.8911
1836.080315 90.973 -48.7009
1849.385310 91.041 -48.5278
1862.786718 91.108 -48.3681
1876.285239 91.177 -48.2165
1889.881575 91.246 -48.0671
1903.576436 91.317 -47.9138
1917.370535 91.392 -47.7513
1931.264593 91.472 -47.5764
1945.259332 91.559 -47.3908
1959.355483 91.652 -47.2043
1973.553781 91.752 -47.0312
1987.854965 91.856 -46.8829
2002.259781 91.962 -46.7632
2016.768981 92.068 -46.6697
2031.383320 92.174 -46.5971
2046.103561 92.278 -46.5397
2060.930471 92.381 -46.4933
2075.864823 92.482 -46.4565
2090.907395 92.582 -46.4291
2106.058972 92.679 -46.4091
2121.320344 92.774 -46.3911
2136.692305 92.866 -46.3671
2152.175658 92.956 -46.3291
2167.771210 93.047 -46.2756
2183.479774 93.138 -46.2142
2199.302169 93.232 -46.1582
2215.239219 93.327 -46.1180
2231.291755 93.422 -46.0984
2247.460615 93.518 -46.0991
2263.746641 93.611 -46.1163
2280.150683 93.704 -46.1430
2296.673595 93.795 -46.1719
2313.316238 93.885 -46.1968
2330.079481 93.977 -46.2174
2346.964198 94.071 -46.2420
2363.971268 94.168 -46.2836
2381.101578 94.266 -46.3528
2398.356022 94.364 -46.4545
2415.735498 94.461 -46.5883
2433.240913 94.555 -46.7510
2450.873180 94.647 -46.9390
2468.633217 94.735 -47.1502
2486.521951 94.820 -47.3811
2504.540314 94.899 -47.6257
2522.689246 94.975 -47.8741
2540.969692 95.046 -48.1167
2559.382606 95.116 -48.3508
2577.928947 95.184 -48.5817
2596.609683 95.252 -48.8183
2615.425787 95.319 -49.0672
2634.378241 95.384 -49.3306
2653.468031 95.445 -49.6057
2672.696154 95.502 -49.8854
2692.063613 95.557 -50.1606
2711.571415 95.609 -50.4256
2731.220579 95.660 -50.6824
2751.012130 95.711 -50.9401
2770.947098 95.762 -51.2081
2791.026522 95.812 -51.4925
2811.251451 95.860 -51.7950
2831.622938 95.904 -52.1144
2852.142045 95.944 -52.4485
2872.809842 95.979 -52.7935
2893.627406 96.008 -53.1415
2914.595823 96.031 -53.4807
2935.716186 96.049 -53.8004
2956.989596 96.064 -54.0972
2978.417161 96.076 -54.3746
3000.000000 96.086 -54.6382
3021.739237 96.094 -54.8913
3043.636005 96.099 -55.1322
3065.691446 96.100 -55.3539
3087.906710 96.099 -55.5471
3110.282955 96.096 -55.7065
3132.821347 96.093 -55.8346
3155.523062 96.091 -55.9386
3178.389283 96.089 -56.0262
3201.421202 96.089 -56.1031
3224.620020 96.089 -56.1727
3247.986946 96.088 -56.2366
3271.523198 96.086 -56.2926
3295.230004 96.082 -56.3330
3319.108599 96.077 -56.3474
3343.160228 96.073 -56.3311
3367.386145 96.071 -56.2868
3391.787613 96.072 -56.2226
3416.365904 96.078 -56.1473
3441.122300 96.087 -56.0667
3466.058091 96.101 -55.9829
3491.174576 96.118 -55.8988
3516.473066 96.140 -55.8233
3541.954880 96.166 -55.7705
3567.621345 96.196 -55.7542
3593.473800 96.226 -55.7838
3619.513592 96.254 -55.8632
3645.742080 96.277 -55.9894
3672.160630 96.293 -56.1506
3698.770620 96.300 -56.3275
3725.573436 96.300 -56.5007
3752.570477 96.291 -56.6572
3779.763150 96.276 -56.7906
3807.152872 96.254 -56.8969
3834.741071 96.225 -56.9696
3862.529185 96.191 -56.9984
3890.518664 96.154 -56.9755
3918.710966 96.114 -56.9005
3947.107561 96.076 -56.7811
3975.709929 96.041 -56.6299
4004.519563 96.008 -56.4619
4033.537962 95.979 -56.2910
4062.766641 95.951 -56.1243
4092.207123 95.923 -55.9614
4121.860942 95.895 -55.7995
4151.729646 95.866 -55.6391
4181.814790 95.836 -55.4828
4212.117944 95.803 -55.3308
4242.640687 95.766 -55.1758
4273.384610 95.725 -55.0061
4304.351317 95.680 -54.8124
4335.542421 95.633 -54.5914
4366.959549 95.584 -54.3458
4398.604338 95.534 -54.0819
4430.478438 95.482 -53.8060
4462.583511 95.429 -53.5178
4494.921231 95.372 -53.2110
4527.493283 95.314 -52.8786
4560.301365 95.254 -52.5176
4593.347189 95.192 -52.1260
4626.632476 95.128 -51.6977
4660.158962 95.064 -51.2232
4693.928395 95.000 -50.6953
4727.942535 94.940 -50.1144
4762.203156 94.886 -49.4895
4796.712043 94.838 -48.8369
4831.470996 94.798 -48.1738
4866.481826 94.764 -47.5116
4901.746360 94.734 -46.8567
4937.266434 94.710 -46.2143
4973.043902 94.687 -45.5894
5009.080628 94.666 -44.9819
5045.378492 94.644 -44.3837
5081.939384 94.621 -43.7831
5118.765212 94.598 -43.1712
5155.857894 94.575 -42.5452
5193.219366 94.554 -41.9101
5230.851574 94.535 -41.2736
5268.756481 94.516 -40.6405
5306.936062 94.499 -40.0136
5345.392309 94.481 -39.3962
5384.127225 94.461 -38.7902
5423.142830 94.438 -38.1903
5462.441159 94.409 -37.5843
5502.024259 94.376 -36.9586
5541.894195 94.340 -36.3041
5582.053045 94.303 -35.6192
5622.502902 94.266 -34.9073
5663.245876 94.230 -34.1720
5704.284090 94.195 -33.4173
5745.619684 94.161 -32.6491
5787.254813 94.128 -31.8724
5829.191647 94.095 -31.0858
5871.432373 94.061 -30.2813
5913.979192 94.027 -29.4479
5956.834323 93.993 -28.5782
6000.000000 93.962 -27.6707
6043.478473 93.933 -26.7279
6087.272010 93.910 -25.7543
6131.382892 93.891 -24.7570
6175.813420 93.877 -23.7443
6220.565910 93.868 -22.7203
6265.642695 93.863 -21.6829
6311.046124 93.861 -20.6258
6356.778566 93.865 -19.5439
6402.842404 93.873 -18.4364
6449.240040 93.889 -17.3058
6495.973891 93.913 -16.1581
6543.046396 93.945 -15.0029
6590.460007 93.987 -13.8498
6638.217197 94.037 -12.7043
6686.320456 94.095 -11.5667
6734.772290 94.161 -10.4354
6783.575226 94.237 -9.3113
6832.731809 94.323 -8.1985
6882.244600 94.420 -7.1057
6932.116181 94.527 -6.0464
6982.349153 94.645 -5.0364
7032.946133 94.773 -4.0887
7083.909760 94.912 -3.2124
7135.242690 95.061 -2.4151
7186.947600 95.221 -1.7069
7239.027185 95.393 -1.1012
7291.484160 95.576 -0.6169
7344.321260 95.770 -0.2786
7397.541239 95.973 -0.1114
7451.146872 96.181 -0.1362
7505.140954 96.392 -0.3679
7559.526299 96.602 -0.8186
7614.305743 96.808 -1.4991
7669.482141 97.006 -2.4195
7725.058371 97.190 -3.5910
7781.037328 97.356 -5.0205
7837.421932 97.495 -6.7037
7894.215122 97.600 -8.6206
7951.419859 97.664 -10.7364
8009.039125 97.683 -13.0043
8067.075924 97.651 -15.3704
8125.533282 97.568 -17.7793
8184.414245 97.433 -20.1771
8243.721885 97.246 -22.5085
8303.459292 97.007 -24.7166
8363.629581 96.719 -26.7457
8424.235888 96.387 -28.5442
8485.281374 96.017 -30.0715
8546.769221 95.617 -31.3028
8608.702634 95.193 -32.2295
8671.084842 94.753 -32.8526
8733.919097 94.302 -33.1774
8797.208675 93.845 -33.2097
8860.956876 93.386 -32.9555
8925.167022 92.931 -32.4263
8989.842461 92.485 -31.6424
9054.986566 92.051 -30.6296
9120.602731 91.632 -29.4137
9186.694378 91.228 -28.0153
9253.264952 90.843 -26.4483
9320.317925 90.475 -24.7251
9387.856790 90.129 -22.8628
9455.885071 89.805 -20.8829
9524.406312 89.503 -18.8069
9593.424086 89.225 -16.6507
9662.941992 88.968 -14.4205
9732.963653 88.735 -12.1188
9803.492719 88.525 -9.7528
9874.532869 88.341 -7.3357
9946.087805 88.181 -4.8836
10018.161257 88.045 -2.4078
10090.756983 87.933 0.0869
10163.878768 87.845 2.5951
10237.530423 87.783 5.1043
10311.715789 87.748 7.5940
10386.438732 87.739 10.0423
10461.703149 87.757 12.4330
10537.512962 87.800 14.7519
10613.872125 87.869 16.9797
10690.784618 87.965 19.0876
10768.254450 88.085 21.0406
10846.285661 88.228 22.8058
10924.882318 88.389 24.3542
11004.048518 88.567 25.6559
11083.788390 88.755 26.6769
11164.106090 88.946 27.3835
11245.005805 89.132 27.7537
11326.491752 89.302 27.7846
11408.568180 89.446 27.4919
11491.239368 89.552 26.9081
11574.509626 89.610 26.0834
11658.383294 89.612 25.0911
11742.864745 89.551 24.0274
11827.958384 89.425 23.0024
11913.668646 89.236 22.1268
12000.000000 88.992 21.5020
12086.956947 88.703 21.2146
12174.544019 88.383 21.3301
12262.765784 88.049 21.8827
12351.626840 87.721 22.8629
12441.131819 87.415 24.2161
12531.285389 87.148 25.8502
12622.092249 86.927 27.6483
12713.557132 86.758 29.4801
12805.684808 86.636 31.2174
12898.480079 86.553 32.7561
12991.947783 86.494 34.0335
13086.092792 86.443 35.0322
13180.920015 86.388 35.7719
13276.434395 86.315 36.2998
13372.640911 86.215 36.6842
13469.544580 86.085 37.0044
13567.150452 85.923 37.3378
13665.463617 85.733 37.7498
13764.489200 85.520 38.2915
13864.232362 85.292 38.9996
13964.698305 85.058 39.8924
14065.892266 84.829 40.9655
14167.819519 84.613 42.1941
14270.485380 84.420 43.5392
14373.895200 84.256 44.9487
14478.054370 84.128 46.3557
14582.968320 84.037 47.6845
14688.642520 83.984 48.8590
14795.082478 83.968 49.8040
14902.293745 83.982 50.4461
15010.281908 84.019 50.7195
15119.052599 84.069 50.5747
15228.611486 84.119 49.9813
15338.964283 84.155 48.9318
15450.116741 84.160 47.4467
15562.074656 84.118 45.5777
15674.843864 84.014 43.4046
15788.430244 83.836 41.0305
15902.839718 83.575 38.5754
16018.078250 83.228 36.1672
16134.151848 82.796 33.9293
16251.066563 82.287 31.9698
16368.828491 81.711 30.3763
16487.443769 81.080 29.2119
16606.918584 80.409 28.5113
16727.259161 79.713 28.2829
16848.471777 79.007 28.5125
16970.562748 78.302 29.1659
17093.538442 77.613 30.1908
17217.405268 76.948 31.5246
17342.169684 76.316 33.0979
17467.838194 75.722 34.8340
17594.417350 75.168 36.6531
17721.913751 74.652 38.4763
17850.334044 74.169 40.2267
17979.684923 73.712 41.8334
18109.973131 73.269 43.2392
18241.205462 72.829 44.4037
18373.388756 72.378 45.3088
18506.529905 71.901 45.9659
18640.635849 71.384 46.4170
18775.713581 70.812 46.7309
18911.770141 70.174 47.0004
19048.812624 69.462 47.3356
19186.848172 68.675 47.8520
19325.883983 67.821 48.6550
19465.927305 66.919 49.8147
19606.985439 66.013 51.3254
19749.065738 65.175 53.0484
19892.175609 64.512 54.6549
20036.322514 64.140 55.6601
