* Measurement data measured by REW V5.31
* Source: EXCL: Microphone (USB Sound Device        ), MICROPHONE (Master Volume), L, volume: 0.560
* Format: 256k Log Swept Sine, 1 sweep at -5.0 dBFS with no timing reference
* Dated: May 13, 2024 12:20:05 AM
* REW Settings:
*  C-weighting compensation: Off
*  Target level: 75.0 dB
* Note: KZ Vader 1100 L
* Measurement: L KZ Vader 1100
* Smoothing: 1/12 octave
* Frequency Step: 96 ppo
* Start Frequency: 0.36621094 Hz
*
* Freq(Hz) SPL(dB) Phase(degrees)
0.366211 83.423 160.5135
0.368865 83.419 160.4941
0.371538 83.412 160.4649
0.374230 83.404 160.4282
0.376942 83.395 160.3860
0.379673 83.385 160.3396
0.382424 83.375 160.2900
0.385196 83.364 160.2377
0.387987 83.354 160.1830
0.390798 83.343 160.1261
0.393630 83.332 160.0672
0.396483 83.321 160.0061
0.399356 83.309 159.9430
0.402250 83.298 159.8779
0.405165 83.287 159.8106
0.408101 83.275 159.7413
0.411058 83.264 159.6698
0.414037 83.252 159.5962
0.417037 83.241 159.5205
0.420059 83.229 159.4426
0.423103 83.217 159.3625
0.426169 83.205 159.2803
0.429257 83.193 159.1958
0.432368 83.181 159.1091
0.435501 83.169 159.0201
0.438656 83.156 158.9289
0.441835 83.144 158.8354
0.445037 83.132 158.7396
0.448262 83.119 158.6415
0.451510 83.106 158.5411
0.454782 83.094 158.4384
0.458077 83.081 158.3333
0.461397 83.068 158.2258
0.464740 83.055 158.1160
0.468108 83.042 158.0038
0.471500 83.029 157.8893
0.474917 83.015 157.7723
0.478358 83.002 157.6530
0.481825 82.988 157.5312
0.485316 82.975 157.4071
0.488833 82.961 157.2805
0.492375 82.947 157.1515
0.495943 82.933 157.0201
0.499537 82.919 156.8863
0.503157 82.905 156.7501
0.506803 82.891 156.6115
0.510475 82.877 156.4704
0.514175 82.862 156.3270
0.517900 82.848 156.1811
0.521653 82.833 156.0329
0.525434 82.819 155.8824
0.529241 82.804 155.7294
0.533076 82.789 155.5742
0.536939 82.774 155.4166
0.540830 82.759 155.2567
0.544749 82.743 155.0945
0.548696 82.728 154.9301
0.552673 82.712 154.7634
0.556677 82.697 154.5946
0.560711 82.681 154.4236
0.564774 82.665 154.2505
0.568867 82.649 154.0753
0.572989 82.633 153.8980
0.577141 82.617 153.7188
0.581324 82.601 153.5376
0.585536 82.585 153.3544
0.589779 82.568 153.1695
0.594053 82.551 152.9828
0.598358 82.535 152.7944
0.602694 82.518 152.6043
0.607061 82.501 152.4127
0.611460 82.484 152.2195
0.615891 82.466 152.0250
0.620354 82.449 151.8291
0.624849 82.431 151.6320
0.629377 82.414 151.4338
0.633938 82.396 151.2346
0.638532 82.378 151.0344
0.643159 82.360 150.8335
0.647819 82.342 150.6318
0.652514 82.324 150.4297
0.657242 82.305 150.2271
0.662005 82.287 150.0242
0.666802 82.268 149.8212
0.671634 82.249 149.6183
0.676501 82.230 149.4156
0.681403 82.211 149.2132
0.686341 82.192 149.0115
0.691314 82.173 148.8104
0.696324 82.153 148.6102
0.701370 82.133 148.4112
0.706452 82.113 148.2133
0.711571 82.093 148.0168
0.716728 82.072 147.8215
0.721921 82.050 147.6275
0.727153 82.028 147.4343
0.732422 82.004 147.2414
0.737729 81.979 147.0481
0.743075 81.952 146.8537
0.748460 81.924 146.6574
0.753883 81.895 146.4589
0.759346 81.866 146.2577
0.764849 81.835 146.0537
0.770391 81.804 145.8467
0.775974 81.773 145.6367
0.781597 81.741 145.4235
0.787261 81.708 145.2073
0.792966 81.675 144.9879
0.798712 81.642 144.7655
0.804500 81.608 144.5399
0.810329 81.573 144.3113
0.816201 81.538 144.0796
0.822116 81.502 143.8449
0.828073 81.466 143.6072
0.834074 81.429 143.3665
0.840118 81.392 143.1230
0.846206 81.354 142.8766
0.852338 81.315 142.6273
0.858514 81.276 142.3754
0.864735 81.236 142.1208
0.871001 81.196 141.8636
0.877313 81.155 141.6040
0.883670 81.114 141.3420
0.890074 81.072 141.0777
0.896524 81.029 140.8112
0.903020 80.986 140.5428
0.909564 80.943 140.2725
0.916155 80.898 140.0005
0.922794 80.853 139.7270
0.929481 80.808 139.4521
0.936216 80.761 139.1761
0.943000 80.715 138.8992
0.949834 80.667 138.6216
0.956717 80.619 138.3436
0.963649 80.571 138.0654
0.970632 80.521 137.7874
0.977666 80.471 137.5099
0.984750 80.421 137.2332
0.991886 80.369 136.9576
0.999074 80.318 136.6836
1.006314 80.265 136.4116
1.013606 80.212 136.1420
1.020951 80.158 135.8753
1.028349 80.104 135.6120
1.035801 80.048 135.3526
1.043307 79.993 135.0977
1.050867 79.936 134.8478
1.058482 79.879 134.6036
1.066152 79.821 134.3657
1.073878 79.763 134.1347
1.081660 79.703 133.9112
1.089498 79.643 133.6957
1.097393 79.582 133.4886
1.105345 79.520 133.2902
1.113355 79.456 133.1007
1.121423 79.391 132.9202
1.129549 79.325 132.7486
1.137734 79.257 132.5862
1.145979 79.187 132.4328
1.154283 79.116 132.2887
1.162647 79.044 132.1536
1.171072 78.970 132.0279
1.179558 78.895 131.9114
1.188106 78.818 131.8042
1.196715 78.740 131.7064
1.205387 78.662 131.6180
1.214122 78.581 131.5391
1.222920 78.500 131.4696
1.231782 78.418 131.4096
1.240708 78.335 131.3591
1.249699 78.251 131.3182
1.258754 78.166 131.2868
1.267876 78.081 131.2649
1.277063 77.995 131.2524
1.286318 77.908 131.2494
1.295639 77.822 131.2557
1.305027 77.735 131.2713
1.314484 77.647 131.2961
1.324009 77.560 131.3298
1.333604 77.472 131.3723
1.343268 77.385 131.4234
1.353002 77.299 131.4828
1.362806 77.212 131.5502
1.372681 77.126 131.6253
1.382628 77.041 131.7077
1.392647 76.957 131.7970
1.402739 76.874 131.8928
1.412904 76.791 131.9948
1.423142 76.710 132.1026
1.433455 76.631 132.2165
1.443843 76.552 132.3367
1.454305 76.475 132.4646
1.464844 76.399 132.6019
1.475459 76.323 132.7511
1.486150 76.248 132.9148
1.496920 76.172 133.0953
1.507767 76.097 133.2942
1.518693 76.022 133.5128
1.529698 75.946 133.7517
1.540783 75.870 134.0112
1.551948 75.795 134.2914
1.563194 75.720 134.5921
1.574521 75.645 134.9130
1.585931 75.570 135.2539
1.597423 75.497 135.6140
1.608999 75.424 135.9928
1.620658 75.353 136.3895
1.632402 75.283 136.8031
1.644232 75.214 137.2328
1.656146 75.147 137.6772
1.668147 75.083 138.1352
1.680235 75.020 138.6052
1.692411 74.961 139.0858
1.704675 74.904 139.5751
1.717028 74.850 140.0713
1.729470 74.800 140.5725
1.742003 74.753 141.0766
1.754626 74.711 141.5816
1.767341 74.673 142.0854
1.780147 74.639 142.5863
1.793047 74.611 143.0829
1.806040 74.588 143.5746
1.819128 74.571 144.0618
1.832310 74.560 144.5458
1.845587 74.556 145.0287
1.858961 74.558 145.5125
1.872432 74.566 145.9983
1.886001 74.581 146.4864
1.899667 74.603 146.9758
1.913433 74.630 147.4650
1.927299 74.663 147.9519
1.941265 74.702 148.4341
1.955332 74.747 148.9090
1.969501 74.796 149.3742
1.983773 74.849 149.8270
1.998148 74.907 150.2648
2.012627 74.969 150.6851
2.027212 75.034 151.0856
2.041902 75.102 151.4638
2.056698 75.172 151.8175
2.071602 75.244 152.1446
2.086614 75.318 152.4429
2.101734 75.393 152.7105
2.116964 75.468 152.9456
2.132304 75.544 153.1465
2.147756 75.620 153.3120
2.163320 75.695 153.4410
2.178996 75.770 153.5331
2.194786 75.845 153.5885
2.210690 75.921 153.6079
2.226710 75.999 153.5926
2.242845 76.078 153.5442
2.259098 76.159 153.4640
2.275468 76.243 153.3533
2.291957 76.329 153.2135
2.308566 76.417 153.0458
2.325295 76.507 152.8512
2.342145 76.598 152.6309
2.359117 76.691 152.3859
2.376212 76.784 152.1172
2.393431 76.878 151.8257
2.410775 76.973 151.5123
2.428244 77.067 151.1776
2.445840 77.160 150.8223
2.463564 77.253 150.4469
2.481416 77.344 150.0514
2.499397 77.433 149.6358
2.517509 77.520 149.1994
2.535752 77.606 148.7413
2.554127 77.689 148.2597
2.572635 77.770 147.7527
2.591277 77.849 147.2184
2.610055 77.926 146.6559
2.628968 78.001 146.0652
2.648019 78.075 145.4472
2.667208 78.148 144.8036
2.686535 78.219 144.1368
2.706003 78.289 143.4492
2.725612 78.358 142.7436
2.745363 78.425 142.0227
2.765257 78.492 141.2891
2.785295 78.556 140.5455
2.805478 78.620 139.7943
2.825808 78.682 139.0376
2.846285 78.742 138.2771
2.866910 78.801 137.5138
2.887685 78.859 136.7480
2.908611 78.915 135.9785
2.929688 78.970 135.2034
2.950917 79.022 134.4195
2.972301 79.073 133.6241
2.993839 79.122 132.8151
3.015534 79.169 131.9918
3.037386 79.214 131.1547
3.059396 79.257 130.3052
3.081565 79.299 129.4453
3.103896 79.339 128.5774
3.126388 79.377 127.7041
3.149043 79.414 126.8282
3.171862 79.450 125.9526
3.194847 79.485 125.0798
3.217998 79.518 124.2118
3.241317 79.551 123.3503
3.264805 79.582 122.4958
3.288463 79.612 121.6473
3.312293 79.641 120.8031
3.336295 79.669 119.9606
3.360471 79.695 119.1179
3.384822 79.720 118.2738
3.409350 79.743 117.4284
3.434056 79.765 116.5825
3.458940 79.785 115.7379
3.484005 79.805 114.8968
3.509252 79.824 114.0617
3.534681 79.843 113.2355
3.560295 79.861 112.4210
3.586094 79.880 111.6210
3.612081 79.898 110.8378
3.638255 79.917 110.0730
3.664620 79.935 109.3272
3.691175 79.954 108.6001
3.717923 79.972 107.8906
3.744864 79.990 107.1976
3.772001 80.008 106.5199
3.799335 80.026 105.8565
3.826866 80.045 105.2071
3.854597 80.064 104.5712
3.882529 80.084 103.9490
3.910664 80.105 103.3407
3.939002 80.128 102.7471
3.967546 80.153 102.1689
3.996296 80.180 101.6074
4.025255 80.210 101.0639
4.054423 80.241 100.5396
4.083804 80.275 100.0350
4.113396 80.311 99.5500
4.143204 80.349 99.0833
4.173227 80.389 98.6332
4.203468 80.432 98.1975
4.233928 80.478 97.7737
4.264609 80.526 97.3595
4.295512 80.576 96.9528
4.326639 80.630 96.5522
4.357992 80.688 96.1569
4.389572 80.748 95.7671
4.421380 80.813 95.3839
4.453419 80.881 95.0079
4.485691 80.952 94.6393
4.518196 81.027 94.2771
4.550936 81.105 93.9194
4.583914 81.186 93.5634
4.617131 81.269 93.2062
4.650589 81.355 92.8447
4.684289 81.443 92.4764
4.718233 81.533 92.0994
4.752424 81.625 91.7127
4.786862 81.719 91.3164
4.821549 81.815 90.9113
4.856488 81.913 90.4981
4.891680 82.013 90.0774
4.927127 82.114 89.6490
4.962831 82.216 89.2127
4.998794 82.319 88.7677
5.035017 82.422 88.3132
5.071503 82.524 87.8482
5.108253 82.626 87.3719
5.145270 82.728 86.8840
5.182555 82.828 86.3845
5.220110 82.928 85.8743
5.257937 83.028 85.3548
5.296038 83.126 84.8276
5.334415 83.223 84.2946
5.373071 83.319 83.7574
5.412006 83.413 83.2172
5.451224 83.504 82.6747
5.490725 83.594 82.1299
5.530514 83.682 81.5827
5.570590 83.767 81.0330
5.610957 83.850 80.4817
5.651616 83.930 79.9303
5.692570 84.009 79.3809
5.733821 84.085 78.8359
5.775370 84.159 78.2974
5.817221 84.231 77.7670
5.859375 84.301 77.2456
5.901834 84.368 76.7332
5.944602 84.433 76.2298
5.987679 84.497 75.7355
6.031068 84.558 75.2511
6.074771 84.617 74.7778
6.118792 84.675 74.3168
6.163131 84.732 73.8697
6.207792 84.787 73.4373
6.252776 84.842 73.0202
6.298086 84.896 72.6182
6.343725 84.949 72.2307
6.389694 85.001 71.8571
6.435996 85.053 71.4967
6.482634 85.105 71.1487
6.529610 85.157 70.8128
6.576926 85.209 70.4887
6.624585 85.262 70.1761
6.672590 85.315 69.8745
6.720942 85.369 69.5827
6.769645 85.424 69.2993
6.818700 85.479 69.0222
6.868111 85.535 68.7496
6.917881 85.592 68.4798
6.968010 85.650 68.2116
7.018504 85.708 67.9443
7.069362 85.767 67.6771
7.120590 85.827 67.4089
7.172189 85.888 67.1383
7.224161 85.949 66.8636
7.276511 86.009 66.5836
7.329239 86.070 66.2971
7.382350 86.131 66.0035
7.435845 86.191 65.7028
7.489729 86.251 65.3948
7.544002 86.310 65.0796
7.598669 86.368 64.7573
7.653732 86.425 64.4277
7.709194 86.481 64.0908
7.765058 86.535 63.7469
7.821327 86.588 63.3965
7.878004 86.639 63.0405
7.935091 86.688 62.6800
7.992592 86.735 62.3162
8.050510 86.780 61.9497
8.108847 86.824 61.5814
8.167607 86.865 61.2118
8.226793 86.905 60.8416
8.286408 86.943 60.4718
8.346454 86.979 60.1036
8.406936 87.013 59.7377
8.467856 87.046 59.3747
8.529218 87.078 59.0148
8.591024 87.108 58.6583
8.653278 87.138 58.3051
8.715983 87.166 57.9553
8.779143 87.194 57.6089
8.842760 87.221 57.2658
8.906839 87.248 56.9254
8.971381 87.274 56.5873
9.036392 87.301 56.2505
9.101873 87.327 55.9141
9.167829 87.353 55.5774
9.234263 87.380 55.2397
9.301178 87.406 54.9001
9.368578 87.433 54.5578
9.436467 87.459 54.2118
9.504847 87.486 53.8613
9.573723 87.512 53.5055
9.643099 87.538 53.1441
9.712976 87.563 52.7766
9.783361 87.586 52.4028
9.854255 87.607 52.0224
9.925663 87.626 51.6354
9.997588 87.642 51.2417
10.070035 87.655 50.8418
10.143007 87.666 50.4359
10.216507 87.675 50.0246
10.290540 87.681 49.6083
10.365109 87.686 49.1874
10.440219 87.690 48.7624
10.515873 87.692 48.3340
10.592076 87.694 47.9027
10.668830 87.695 47.4690
10.746141 87.696 47.0332
10.824012 87.696 46.5957
10.902447 87.697 46.1568
10.981451 87.697 45.7166
11.061027 87.697 45.2754
11.141180 87.698 44.8331
11.221913 87.699 44.3898
11.303232 87.700 43.9453
11.385140 87.701 43.4998
11.467641 87.703 43.0531
11.550741 87.705 42.6052
11.634442 87.708 42.1561
11.718750 87.712 41.7059
11.803669 87.716 41.2547
11.889203 87.721 40.8026
11.975357 87.727 40.3498
12.062136 87.733 39.8968
12.149543 87.740 39.4438
12.237583 87.748 38.9911
12.326262 87.756 38.5393
12.415583 87.765 38.0886
12.505552 87.774 37.6394
12.596172 87.783 37.1921
12.687449 87.792 36.7470
12.779387 87.802 36.3042
12.871992 87.812 35.8640
12.965268 87.822 35.4265
13.059220 87.833 34.9917
13.153852 87.845 34.5596
13.249170 87.857 34.1303
13.345179 87.869 33.7037
13.441884 87.882 33.2799
13.539289 87.895 32.8589
13.637401 87.909 32.4408
13.736223 87.922 32.0257
13.835761 87.936 31.6139
13.936021 87.950 31.2058
14.037007 87.963 30.8015
14.138725 87.975 30.4015
14.241180 87.988 30.0063
14.344377 87.999 29.6160
14.448323 88.011 29.2310
14.553021 88.021 28.8515
14.658478 88.032 28.4776
14.764700 88.042 28.1092
14.871691 88.051 27.7460
14.979457 88.061 27.3879
15.088005 88.070 27.0341
15.197339 88.080 26.6843
15.307465 88.089 26.3377
15.418389 88.097 25.9937
15.530117 88.106 25.6516
15.642655 88.114 25.3108
15.756008 88.121 24.9708
15.870182 88.127 24.6313
15.985184 88.133 24.2920
16.101019 88.137 23.9527
16.217694 88.141 23.6136
16.335214 88.144 23.2746
16.453586 88.145 22.9359
16.572815 88.146 22.5977
16.692909 88.146 22.2600
16.813872 88.146 21.9228
16.935713 88.145 21.5861
17.058436 88.144 21.2495
17.182048 88.142 20.9127
17.306556 88.140 20.5752
17.431967 88.137 20.2364
17.558286 88.134 19.8957
17.685521 88.131 19.5526
17.813677 88.127 19.2066
17.942762 88.123 18.8571
18.072783 88.119 18.5041
18.203746 88.114 18.1473
18.335658 88.108 17.7867
18.468526 88.103 17.4226
18.602356 88.097 17.0551
18.737156 88.091 16.6846
18.872934 88.085 16.3112
19.009695 88.079 15.9352
19.147447 88.074 15.5569
19.286197 88.069 15.1763
19.425953 88.064 14.7934
19.566721 88.059 14.4083
19.708510 88.055 14.0210
19.851326 88.052 13.6315
19.995177 88.048 13.2402
20.140070 88.045 12.8471
20.286013 88.042 12.4527
20.433014 88.039 12.0576
20.581080 88.037 11.6622
20.730219 88.035 11.2672
20.880439 88.033 10.8733
21.031747 88.032 10.4810
21.184152 88.031 10.0909
21.337661 88.031 9.7033
21.492282 88.031 9.3187
21.648024 88.032 8.9373
21.804895 88.033 8.5593
21.962902 88.035 8.1848
22.122054 88.037 7.8141
22.282360 88.039 7.4472
22.443827 88.041 7.0844
22.606464 88.042 6.7257
22.770280 88.044 6.3712
22.935283 88.046 6.0209
23.101481 88.047 5.6746
23.268884 88.048 5.3322
23.437500 88.048 4.9932
23.607338 88.048 4.6573
23.778406 88.047 4.3241
23.950714 88.046 3.9933
24.124271 88.043 3.6644
24.299086 88.040 3.3373
24.475167 88.035 3.0120
24.652524 88.030 2.6885
24.831166 88.023 2.3667
25.011103 88.016 2.0467
25.192344 88.008 1.7283
25.374898 87.999 1.4114
25.558775 87.989 1.0953
25.743984 87.979 0.7795
25.930536 87.969 0.4633
26.118439 87.958 0.1458
26.307704 87.946 -0.1738
26.498341 87.935 -0.4961
26.690359 87.922 -0.8216
26.883768 87.910 -1.1504
27.078579 87.897 -1.4824
27.274801 87.884 -1.8175
27.472446 87.871 -2.1552
27.671522 87.857 -2.4950
27.872042 87.844 -2.8364
28.074014 87.830 -3.1790
28.277450 87.817 -3.5226
28.482360 87.803 -3.8673
28.688755 87.791 -4.2129
28.896645 87.778 -4.5598
29.106042 87.766 -4.9077
29.316957 87.755 -5.2566
29.529400 87.743 -5.6059
29.743382 87.732 -5.9550
29.958915 87.721 -6.3028
30.176009 87.711 -6.6483
30.394677 87.700 -6.9904
30.614929 87.690 -7.3286
30.836778 87.680 -7.6624
31.060234 87.671 -7.9924
31.285309 87.662 -8.3190
31.512015 87.653 -8.6435
31.740364 87.644 -8.9667
31.970368 87.635 -9.2894
32.202039 87.626 -9.6120
32.435388 87.616 -9.9345
32.670428 87.605 -10.2562
32.907171 87.594 -10.5765
33.145630 87.582 -10.8946
33.385817 87.569 -11.2101
33.627745 87.555 -11.5229
33.871425 87.541 -11.8336
34.116871 87.527 -12.1427
34.364096 87.512 -12.4514
34.613113 87.497 -12.7607
34.863934 87.482 -13.0712
35.116572 87.467 -13.3839
35.371041 87.451 -13.6990
35.627354 87.435 -14.0167
35.885525 87.419 -14.3371
36.145566 87.402 -14.6600
36.407492 87.385 -14.9850
36.671316 87.368 -15.3115
36.937051 87.351 -15.6389
37.204712 87.334 -15.9665
37.474313 87.316 -16.2938
37.745867 87.298 -16.6201
38.019389 87.281 -16.9454
38.294893 87.264 -17.2695
38.572394 87.246 -17.5924
38.851905 87.229 -17.9139
39.133442 87.212 -18.2339
39.417019 87.194 -18.5521
39.702651 87.177 -18.8681
39.990353 87.159 -19.1819
40.280140 87.141 -19.4936
40.572026 87.124 -19.8038
40.866028 87.106 -20.1136
41.162160 87.088 -20.4236
41.460438 87.070 -20.7344
41.760877 87.051 -21.0459
42.063494 87.032 -21.3574
42.368303 87.012 -21.6681
42.675322 86.991 -21.9773
42.984565 86.970 -22.2850
43.296048 86.949 -22.5917
43.609789 86.928 -22.8985
43.925804 86.907 -23.2063
44.244108 86.885 -23.5152
44.564719 86.863 -23.8250
44.887654 86.841 -24.1343
45.212928 86.818 -24.4420
45.540560 86.795 -24.7471
45.870565 86.772 -25.0496
46.202962 86.749 -25.3500
46.537768 86.726 -25.6493
46.875000 86.703 -25.9481
47.214676 86.680 -26.2467
47.556813 86.657 -26.5448
47.901429 86.633 -26.8421
48.248542 86.610 -27.1379
48.598171 86.586 -27.4322
48.950334 86.563 -27.7253
49.305048 86.539 -28.0172
49.662333 86.515 -28.3081
50.022206 86.491 -28.5979
50.384688 86.467 -28.8861
50.749796 86.443 -29.1727
51.117550 86.420 -29.4581
51.487969 86.398 -29.7435
51.861072 86.376 -30.0305
52.236879 86.355 -30.3203
52.615409 86.334 -30.6134
52.996681 86.313 -30.9090
53.380717 86.291 -31.2052
53.767536 86.269 -31.5002
54.157158 86.247 -31.7923
54.549603 86.224 -32.0808
54.944892 86.201 -32.3657
55.343045 86.178 -32.6479
55.744084 86.155 -32.9289
56.148028 86.132 -33.2104
56.554900 86.108 -33.4938
56.964720 86.084 -33.7803
57.377510 86.059 -34.0703
57.793291 86.034 -34.3646
58.212085 86.009 -34.6639
58.633914 85.983 -34.9687
59.058799 85.957 -35.2786
59.486764 85.931 -35.5921
59.917829 85.904 -35.9068
60.352019 85.876 -36.2206
60.789354 85.849 -36.5319
61.229859 85.821 -36.8393
61.673556 85.793 -37.1406
62.120468 85.764 -37.4331
62.570618 85.736 -37.7144
63.024031 85.708 -37.9849
63.480729 85.680 -38.2479
63.940736 85.653 -38.5087
64.404077 85.625 -38.7725
64.870776 85.597 -39.0424
65.340856 85.567 -39.3196
65.814343 85.535 -39.6037
66.291261 85.502 -39.8932
66.771635 85.468 -40.1868
67.255489 85.433 -40.4839
67.742850 85.399 -40.7850
68.233743 85.366 -41.0923
68.728193 85.336 -41.4074
69.226226 85.308 -41.7307
69.727867 85.282 -42.0607
70.233144 85.259 -42.3934
70.742083 85.239 -42.7252
71.254709 85.222 -43.0560
71.771050 85.208 -43.3934
72.291132 85.194 -43.7488
72.814984 85.177 -44.1248
73.342631 85.150 -44.5014
73.874102 85.113 -44.8385
74.409424 85.068 -45.0982
74.948626 85.022 -45.2727
75.491734 84.981 -45.3920
76.038779 84.946 -45.5025
76.589787 84.916 -45.6380
77.144788 84.885 -45.8056
77.703811 84.854 -45.9949
78.266885 84.822 -46.1955
78.834039 84.791 -46.4052
79.405303 84.761 -46.6271
79.980706 84.731 -46.8605
80.560280 84.699 -47.0957
81.144053 84.666 -47.3146
81.732056 84.631 -47.4957
82.324320 84.598 -47.6227
82.920876 84.570 -47.6988
83.521755 84.551 -47.7585
84.126988 84.541 -47.8605
84.736607 84.535 -48.0537
85.350643 84.522 -48.3438
85.969129 84.497 -48.6929
86.592097 84.461 -49.0527
87.219579 84.420 -49.3999
87.851608 84.380 -49.7416
88.488217 84.343 -50.0954
89.129439 84.309 -50.4672
89.775308 84.276 -50.8476
90.425856 84.247 -51.2237
91.081119 84.220 -51.5883
91.741131 84.196 -51.9392
92.405925 84.173 -52.2751
93.075536 84.150 -52.5951
93.750000 84.126 -52.8992
94.429351 84.099 -53.1877
95.113625 84.069 -53.4620
95.802858 84.036 -53.7261
96.497085 84.002 -53.9872
97.196342 83.967 -54.2537
97.900667 83.932 -54.5331
98.610096 83.896 -54.8287
99.324665 83.860 -55.1372
100.044413 83.824 -55.4516
100.769376 83.789 -55.7644
101.499592 83.754 -56.0706
102.235100 83.720 -56.3684
102.975938 83.686 -56.6594
103.722144 83.653 -56.9462
104.473757 83.618 -57.2285
105.230817 83.582 -57.5022
105.993363 83.545 -57.7648
106.761435 83.508 -58.0179
107.535072 83.471 -58.2654
108.314315 83.436 -58.5118
109.099206 83.402 -58.7622
109.889783 83.370 -59.0212
110.686090 83.337 -59.2896
111.488167 83.303 -59.5646
112.296056 83.268 -59.8420
113.109800 83.231 -60.1189
113.929440 83.193 -60.3937
114.755020 83.155 -60.6653
115.586582 83.116 -60.9308
116.424170 83.077 -61.1871
117.267827 83.038 -61.4336
118.117598 83.001 -61.6729
118.973527 82.965 -61.9087
119.835658 82.929 -62.1416
120.704037 82.892 -62.3675
121.578708 82.854 -62.5830
122.459718 82.818 -62.7904
123.347111 82.782 -62.9967
124.240935 82.747 -63.2087
125.141236 82.712 -63.4289
126.048061 82.677 -63.6537
126.961458 82.642 -63.8774
127.881473 82.606 -64.0970
128.808154 82.572 -64.3130
129.741551 82.537 -64.5269
130.681712 82.502 -64.7405
131.628686 82.467 -64.9551
132.582521 82.432 -65.1719
133.543269 82.396 -65.3918
134.510979 82.362 -65.6156
135.485701 82.327 -65.8444
136.467486 82.294 -66.0776
137.456386 82.261 -66.3127
138.452451 82.228 -66.5462
139.455735 82.195 -66.7753
140.466288 82.162 -66.9988
141.484165 82.129 -67.2176
142.509418 82.096 -67.4340
143.542100 82.062 -67.6509
144.582265 82.028 -67.8700
145.629968 81.994 -68.0909
146.685262 81.961 -68.3114
147.748204 81.928 -68.5282
148.818849 81.896 -68.7380
149.897251 81.864 -68.9393
150.983469 81.832 -69.1322
152.077557 81.799 -69.3171
153.179574 81.765 -69.4930
154.289576 81.729 -69.6577
155.407622 81.693 -69.8130
156.533770 81.658 -69.9653
157.668078 81.623 -70.1219
158.810606 81.591 -70.2887
159.961413 81.560 -70.4698
161.120559 81.530 -70.6670
162.288105 81.500 -70.8789
163.464112 81.470 -71.1012
164.648640 81.439 -71.3288
165.841752 81.408 -71.5565
167.043510 81.376 -71.7798
168.253976 81.345 -71.9950
169.473213 81.313 -72.1999
170.701286 81.282 -72.3950
171.938258 81.252 -72.5825
173.184194 81.222 -72.7658
174.439158 81.192 -72.9480
175.703216 81.163 -73.1311
176.976434 81.135 -73.3154
178.258878 81.107 -73.5006
179.550615 81.079 -73.6863
180.851713 81.051 -73.8723
182.162239 81.023 -74.0594
183.482262 80.994 -74.2481
184.811850 80.965 -74.4385
186.151073 80.936 -74.6294
187.500000 80.907 -74.8185
188.858702 80.878 -75.0033
190.227250 80.850 -75.1821
191.605715 80.823 -75.3545
192.994169 80.797 -75.5212
194.392685 80.771 -75.6833
195.801334 80.746 -75.8419
197.220191 80.722 -75.9979
198.649330 80.698 -76.1519
200.088825 80.675 -76.3046
201.538751 80.654 -76.4568
202.999184 80.634 -76.6107
204.470200 80.616 -76.7704
205.951875 80.599 -76.9400
207.444287 80.582 -77.1224
208.947514 80.564 -77.3172
210.461634 80.545 -77.5215
211.986726 80.524 -77.7305
213.522869 80.500 -77.9379
215.070144 80.474 -78.1359
216.628631 80.447 -78.3178
218.198411 80.420 -78.4806
219.779567 80.393 -78.6267
221.372180 80.368 -78.7627
222.976334 80.344 -78.8957
224.592112 80.322 -79.0312
226.219600 80.300 -79.1713
227.858880 80.280 -79.3163
229.510039 80.260 -79.4653
231.173164 80.240 -79.6171
232.848340 80.220 -79.7711
234.535655 80.201 -79.9273
236.235197 80.181 -80.0861
237.947054 80.162 -80.2476
239.671317 80.142 -80.4108
241.408074 80.122 -80.5737
243.157416 80.100 -80.7334
244.919435 80.078 -80.8877
246.694223 80.054 -81.0350
248.481871 80.030 -81.1743
250.282473 80.006 -81.3041
252.096123 79.983 -81.4217
253.922915 79.962 -81.5262
255.762945 79.944 -81.6218
257.616309 79.929 -81.7184
259.483103 79.916 -81.8269
261.363424 79.905 -81.9534
263.257372 79.893 -82.0957
265.165043 79.879 -82.2450
267.086538 79.864 -82.3909
269.021957 79.848 -82.5256
270.971401 79.830 -82.6457
272.934972 79.814 -82.7527
274.912771 79.798 -82.8507
276.904902 79.784 -82.9436
278.911469 79.772 -83.0339
280.932577 79.762 -83.1230
282.968330 79.754 -83.2136
285.018835 79.748 -83.3101
287.084199 79.744 -83.4183
289.164530 79.741 -83.5432
291.259935 79.737 -83.6862
293.370525 79.731 -83.8424
295.496408 79.722 -84.0033
297.637697 79.710 -84.1603
299.794503 79.697 -84.3075
301.966937 79.683 -84.4426
304.155114 79.669 -84.5661
306.359147 79.655 -84.6805
308.579152 79.643 -84.7894
310.815244 79.630 -84.8961
313.067539 79.617 -85.0026
315.336156 79.604 -85.1079
317.621211 79.589 -85.2075
319.922826 79.574 -85.2965
322.241118 79.560 -85.3729
324.576210 79.546 -85.4389
326.928223 79.534 -85.4978
329.297280 79.524 -85.5535
331.683504 79.514 -85.6089
334.087019 79.506 -85.6663
336.507952 79.499 -85.7268
338.946427 79.491 -85.7899
341.402572 79.484 -85.8529
343.876516 79.476 -85.9133
346.368387 79.467 -85.9694
348.878315 79.458 -86.0214
351.406431 79.448 -86.0705
353.952867 79.439 -86.1178
356.517756 79.431 -86.1637
359.101230 79.423 -86.2077
361.703426 79.416 -86.2483
364.324478 79.409 -86.2844
366.964523 79.403 -86.3159
369.623699 79.397 -86.3436
372.302145 79.391 -86.3683
375.000000 79.386 -86.3905
377.717405 79.381 -86.4104
380.454501 79.378 -86.4281
383.211431 79.374 -86.4444
385.988339 79.371 -86.4587
388.785369 79.368 -86.4694
391.602668 79.365 -86.4747
394.440383 79.363 -86.4737
397.298660 79.361 -86.4674
400.177650 79.360 -86.4584
403.077502 79.360 -86.4500
405.998368 79.360 -86.4439
408.940400 79.361 -86.4400
411.903750 79.361 -86.4362
414.888575 79.361 -86.4291
417.895028 79.361 -86.4160
420.923268 79.361 -86.3945
423.973452 79.362 -86.3636
427.045738 79.365 -86.3237
430.140287 79.369 -86.2776
433.257261 79.375 -86.2295
436.396822 79.383 -86.1826
439.559133 79.392 -86.1385
442.744360 79.402 -86.0977
445.952668 79.414 -86.0624
449.184225 79.427 -86.0373
452.439199 79.441 -86.0284
455.717760 79.455 -86.0389
459.020079 79.466 -86.0653
462.346327 79.474 -86.0969
465.696680 79.480 -86.1215
469.071310 79.484 -86.1311
472.470394 79.487 -86.1234
475.894109 79.491 -86.1003
479.342634 79.494 -86.0664
482.816148 79.498 -86.0267
486.314833 79.502 -85.9829
489.838871 79.505 -85.9314
493.388445 79.507 -85.8660
496.963741 79.510 -85.7845
500.564945 79.515 -85.6914
504.192245 79.522 -85.5951
507.845830 79.530 -85.5023
511.525890 79.539 -85.4156
515.232618 79.549 -85.3331
518.966206 79.559 -85.2500
522.726849 79.568 -85.1613
526.514743 79.577 -85.0631
530.330086 79.587 -84.9539
534.173076 79.597 -84.8364
538.043915 79.608 -84.7153
541.942803 79.621 -84.5926
545.869944 79.634 -84.4670
549.825542 79.649 -84.3378
553.809805 79.664 -84.2066
557.822939 79.681 -84.0769
561.865154 79.698 -83.9506
565.936660 79.715 -83.8271
570.037671 79.731 -83.7029
574.168399 79.748 -83.5737
578.329060 79.764 -83.4371
582.519870 79.781 -83.2936
586.741049 79.797 -83.1441
590.992817 79.814 -82.9873
595.275394 79.831 -82.8213
599.589005 79.849 -82.6472
603.933874 79.869 -82.4693
608.310228 79.890 -82.2908
612.718295 79.912 -82.1126
617.158304 79.933 -81.9325
621.630488 79.955 -81.7455
626.135079 79.976 -81.5457
630.672311 80.000 -81.3310
635.242423 80.025 -81.1051
639.845651 80.052 -80.8735
644.482237 80.080 -80.6385
649.152421 80.111 -80.3999
653.856447 80.145 -80.1601
658.594560 80.182 -79.9261
663.367008 80.222 -79.7074
668.174039 80.263 -79.5107
673.015903 80.303 -79.3351
677.892854 80.342 -79.1722
682.805145 80.379 -79.0127
687.753032 80.415 -78.8498
692.736774 80.449 -78.6790
697.756631 80.482 -78.4967
702.812863 80.515 -78.3016
707.905735 80.550 -78.0959
713.035511 80.585 -77.8834
718.202461 80.621 -77.6667
723.406852 80.658 -77.4469
728.648956 80.696 -77.2239
733.929047 80.734 -76.9978
739.247399 80.773 -76.7683
744.604290 80.813 -76.5349
750.000000 80.853 -76.2970
755.434809 80.895 -76.0548
760.909001 80.938 -75.8091
766.422861 80.982 -75.5612
771.976677 81.027 -75.3130
777.570739 81.074 -75.0662
783.205337 81.123 -74.8219
788.880766 81.172 -74.5799
794.597321 81.222 -74.3386
800.355301 81.273 -74.0979
806.155005 81.326 -73.8607
811.996736 81.381 -73.6325
817.880799 81.437 -73.4184
823.807501 81.492 -73.2205
829.777150 81.547 -73.0373
835.790057 81.599 -72.8615
841.846536 81.648 -72.6809
847.946903 81.695 -72.4846
854.091476 81.742 -72.2682
860.280575 81.790 -72.0336
866.514523 81.838 -71.7842
872.793644 81.889 -71.5237
879.118267 81.943 -71.2578
885.488720 81.999 -70.9940
891.905336 82.057 -70.7365
898.368450 82.115 -70.4837
904.878398 82.174 -70.2306
911.435520 82.235 -69.9734
918.040157 82.297 -69.7123
924.692655 82.362 -69.4506
931.393359 82.430 -69.1936
938.142619 82.500 -68.9473
944.940787 82.572 -68.7148
951.788218 82.645 -68.4953
958.685268 82.718 -68.2865
965.632296 82.791 -68.0856
972.629666 82.865 -67.8903
979.677741 82.939 -67.6995
986.776890 83.014 -67.5136
993.927482 83.089 -67.3310
1001.129891 83.164 -67.1477
1008.384491 83.240 -66.9600
1015.691660 83.318 -66.7687
1023.051781 83.399 -66.5783
1030.465236 83.484 -66.3963
1037.932411 83.572 -66.2339
1045.453698 83.663 -66.1027
1053.029486 83.754 -66.0077
1060.660172 83.844 -65.9451
1068.346153 83.932 -65.9061
1076.087829 84.017 -65.8813
1083.885605 84.099 -65.8640
1091.739887 84.180 -65.8520
1099.651084 84.259 -65.8453
1107.619609 84.337 -65.8432
1115.645878 84.413 -65.8445
1123.730308 84.488 -65.8479
1131.873321 84.561 -65.8522
1140.075341 84.633 -65.8562
1148.336797 84.705 -65.8587
1156.658119 84.775 -65.8590
1165.039741 84.846 -65.8557
1173.482099 84.916 -65.8477
1181.985634 84.987 -65.8357
1190.550789 85.061 -65.8259
1199.178011 85.136 -65.8287
1207.867749 85.213 -65.8553
1216.620457 85.289 -65.9106
1225.436590 85.363 -65.9904
1234.316609 85.433 -66.0854
1243.260976 85.500 -66.1862
1252.270157 85.562 -66.2850
1261.344623 85.621 -66.3776
1270.484846 85.678 -66.4627
1279.691303 85.733 -66.5386
1288.964474 85.785 -66.6033
1298.304842 85.837 -66.6563
1307.712894 85.888 -66.6995
1317.189120 85.938 -66.7364
1326.734016 85.988 -66.7695
1336.348077 86.038 -66.7985
1346.031806 86.087 -66.8204
1355.785708 86.135 -66.8308
1365.610290 86.184 -66.8254
1375.506065 86.233 -66.7990
1385.473549 86.283 -66.7468
1395.513261 86.336 -66.6677
1405.625726 86.392 -66.5672
1415.811469 86.453 -66.4577
1426.071023 86.516 -66.3539
1436.404921 86.581 -66.2654
1446.813703 86.646 -66.1927
1457.297912 86.710 -66.1304
1467.858093 86.771 -66.0717
1478.494798 86.830 -66.0115
1489.208581 86.886 -65.9457
1500.000000 86.939 -65.8709
1510.869618 86.988 -65.7839
1521.818002 87.033 -65.6815
1532.845723 87.074 -65.5612
1543.953355 87.111 -65.4212
1555.141477 87.147 -65.2612
1566.410674 87.183 -65.0857
1577.761531 87.222 -64.9055
1589.194642 87.262 -64.7346
1600.710601 87.304 -64.5819
1612.310010 87.346 -64.4476
1623.993473 87.386 -64.3260
1635.761599 87.424 -64.2091
1647.615002 87.461 -64.0907
1659.554299 87.496 -63.9657
1671.580114 87.531 -63.8305
1683.693072 87.566 -63.6841
1695.893807 87.600 -63.5285
1708.182952 87.636 -63.3655
1720.561150 87.670 -63.1952
1733.029045 87.704 -63.0151
1745.587288 87.737 -62.8213
1758.236533 87.769 -62.6087
1770.977440 87.803 -62.3739
1783.810673 87.840 -62.1200
1796.736900 87.881 -61.8586
1809.756796 87.928 -61.6065
1822.871040 87.977 -61.3759
1836.080315 88.029 -61.1706
1849.385310 88.081 -60.9877
1862.786718 88.133 -60.8214
1876.285239 88.185 -60.6647
1889.881575 88.237 -60.5100
1903.576436 88.290 -60.3495
1917.370535 88.346 -60.1767
1931.264593 88.406 -59.9877
1945.259332 88.473 -59.7838
1959.355483 88.547 -59.5746
1973.553781 88.626 -59.3745
1987.854965 88.710 -59.1948
2002.259781 88.797 -59.0396
2016.768981 88.884 -58.9065
2031.383320 88.970 -58.7907
2046.103561 89.056 -58.6870
2060.930471 89.140 -58.5915
2075.864823 89.223 -58.5030
2090.907395 89.305 -58.4212
2106.058972 89.385 -58.3443
2121.320344 89.463 -58.2673
2136.692305 89.538 -58.1821
2152.175658 89.612 -58.0809
2167.771210 89.686 -57.9620
2183.479774 89.762 -57.8334
2199.302169 89.841 -57.7082
2215.239219 89.921 -57.5972
2231.291755 90.003 -57.5057
2247.460615 90.084 -57.4339
2263.746641 90.164 -57.3783
2280.150683 90.243 -57.3323
2296.673595 90.320 -57.2884
2313.316238 90.398 -57.2404
2330.079481 90.477 -57.1873
2346.964198 90.558 -57.1371
2363.971268 90.642 -57.1025
2381.101578 90.728 -57.0940
2398.356022 90.814 -57.1158
2415.735498 90.899 -57.1674
2433.240913 90.983 -57.2452
2450.873180 91.063 -57.3455
2468.633217 91.140 -57.4659
2486.521951 91.214 -57.6029
2504.540314 91.284 -57.7496
2522.689246 91.349 -57.8953
2540.969692 91.411 -58.0295
2559.382606 91.471 -58.1482
2577.928947 91.532 -58.2566
2596.609683 91.593 -58.3638
2615.425787 91.654 -58.4770
2634.378241 91.716 -58.5999
2653.468031 91.776 -58.7320
2672.696154 91.835 -58.8692
2692.063613 91.894 -59.0066
2711.571415 91.953 -59.1433
2731.220579 92.013 -59.2858
2751.012130 92.075 -59.4468
2770.947098 92.137 -59.6375
2791.026522 92.198 -59.8640
2811.251451 92.256 -60.1263
2831.622938 92.310 -60.4205
2852.142045 92.358 -60.7414
2872.809842 92.400 -61.0817
2893.627406 92.434 -61.4306
2914.595823 92.461 -61.7733
2935.716186 92.481 -62.0972
2956.989596 92.497 -62.3973
2978.417161 92.509 -62.6760
3000.000000 92.519 -62.9384
3021.739237 92.526 -63.1881
3043.636005 92.530 -63.4243
3065.691446 92.531 -63.6412
3087.906710 92.529 -63.8309
3110.282955 92.525 -63.9899
3132.821347 92.521 -64.1220
3155.523062 92.518 -64.2354
3178.389283 92.515 -64.3378
3201.421202 92.512 -64.4340
3224.620020 92.509 -64.5260
3247.986946 92.504 -64.6137
3271.523198 92.497 -64.6932
3295.230004 92.487 -64.7555
3319.108599 92.475 -64.7899
3343.160228 92.463 -64.7917
3367.386145 92.453 -64.7644
3391.787613 92.446 -64.7170
3416.365904 92.443 -64.6591
3441.122300 92.442 -64.5965
3466.058091 92.445 -64.5299
3491.174576 92.450 -64.4596
3516.473066 92.458 -64.3907
3541.954880 92.470 -64.3330
3567.621345 92.484 -64.2971
3593.473800 92.499 -64.2908
3619.513592 92.514 -64.3187
3645.742080 92.525 -64.3809
3672.160630 92.531 -64.4704
3698.770620 92.531 -64.5733
3725.573436 92.524 -64.6757
3752.570477 92.512 -64.7697
3779.763150 92.494 -64.8528
3807.152872 92.471 -64.9241
3834.741071 92.441 -64.9787
3862.529185 92.405 -65.0069
3890.518664 92.364 -64.9997
3918.710966 92.320 -64.9547
3947.107561 92.275 -64.8765
3975.709929 92.229 -64.7736
4004.519563 92.184 -64.6555
4033.537962 92.137 -64.5302
4062.766641 92.089 -64.3987
4092.207123 92.038 -64.2542
4121.860942 91.984 -64.0875
4151.729646 91.927 -63.8929
4181.814790 91.868 -63.6684
4212.117944 91.807 -63.4114
4242.640687 91.744 -63.1150
4273.384610 91.680 -62.7705
4304.351317 91.616 -62.3751
4335.542421 91.556 -61.9345
4366.959549 91.501 -61.4623
4398.604338 91.452 -60.9766
4430.478438 91.407 -60.4952
4462.583511 91.366 -60.0284
4494.921231 91.328 -59.5782
4527.493283 91.291 -59.1446
4560.301365 91.254 -58.7286
4593.347189 91.216 -58.3300
4626.632476 91.175 -57.9420
4660.158962 91.131 -57.5519
4693.928395 91.084 -57.1474
4727.942535 91.035 -56.7225
4762.203156 90.986 -56.2786
4796.712043 90.938 -55.8233
4831.470996 90.891 -55.3653
4866.481826 90.844 -54.9077
4901.746360 90.796 -54.4486
4937.266434 90.746 -53.9859
4973.043902 90.694 -53.5182
5009.080628 90.638 -53.0399
5045.378492 90.579 -52.5389
5081.939384 90.515 -52.0011
5118.765212 90.451 -51.4164
5155.857894 90.386 -50.7831
5193.219366 90.324 -50.1090
5230.851574 90.265 -49.4057
5268.756481 90.209 -48.6828
5306.936062 90.156 -47.9478
5345.392309 90.105 -47.2090
5384.127225 90.055 -46.4723
5423.142830 90.003 -45.7364
5462.441159 89.949 -44.9915
5502.024259 89.892 -44.2254
5541.894195 89.833 -43.4294
5582.053045 89.775 -42.6026
5622.502902 89.717 -41.7492
5663.245876 89.661 -40.8742
5704.284090 89.607 -39.9824
5745.619684 89.555 -39.0800
5787.254813 89.504 -38.1714
5829.191647 89.453 -37.2547
5871.432373 89.402 -36.3206
5913.979192 89.350 -35.3571
5956.834323 89.299 -34.3555
6000.000000 89.249 -33.3136
6043.478473 89.203 -32.2334
6087.272010 89.162 -31.1187
6131.382892 89.126 -29.9761
6175.813420 89.095 -28.8134
6220.565910 89.069 -27.6342
6265.642695 89.048 -26.4362
6311.046124 89.030 -25.2130
6356.778566 89.018 -23.9599
6402.842404 89.013 -22.6770
6449.240040 89.015 -21.3677
6495.973891 89.026 -20.0390
6543.046396 89.047 -18.7013
6590.460007 89.078 -17.3652
6638.217197 89.118 -16.0368
6686.320456 89.166 -14.7164
6734.772290 89.224 -13.4023
6783.575226 89.292 -12.0945
6832.731809 89.370 -10.7963
6882.244600 89.458 -9.5155
6932.116181 89.558 -8.2646
6982.349153 89.669 -7.0582
7032.946133 89.790 -5.9079
7083.909760 89.922 -4.8211
7135.242690 90.065 -3.8038
7186.947600 90.220 -2.8641
7239.027185 90.387 -2.0141
7291.484160 90.568 -1.2713
7344.321260 90.761 -0.6590
7397.541239 90.966 -0.2017
7451.146872 91.178 0.0805
7505.140954 91.397 0.1724
7559.526299 91.619 0.0612
7614.305743 91.842 -0.2658
7669.482141 92.061 -0.8223
7725.058371 92.273 -1.6244
7781.037328 92.472 -2.6862
7837.421932 92.650 -4.0116
7894.215122 92.800 -5.5898
7951.419859 92.914 -7.3957
8009.039125 92.986 -9.3927
8067.075924 93.010 -11.5357
8125.533282 92.984 -13.7768
8184.414245 92.904 -16.0667
8243.721885 92.769 -18.3514
8303.459292 92.579 -20.5721
8363.629581 92.334 -22.6680
8424.235888 92.039 -24.5804
8485.281374 91.698 -26.2595
8546.769221 91.319 -27.6703
8608.702634 90.910 -28.7929
8671.084842 90.478 -29.6172
8733.919097 90.028 -30.1380
8797.208675 89.567 -30.3528
8860.956876 89.100 -30.2613
8925.167022 88.633 -29.8714
8989.842461 88.173 -29.2020
9054.986566 87.723 -28.2795
9120.602731 87.288 -27.1317
9186.694378 86.870 -25.7826
9253.264952 86.469 -24.2493
9320.317925 86.088 -22.5473
9387.856790 85.728 -20.6962
9455.885071 85.391 -18.7189
9524.406312 85.077 -16.6381
9593.424086 84.787 -14.4698
9662.941992 84.520 -12.2205
9732.963653 84.276 -9.8939
9803.492719 84.057 -7.4978
9874.532869 83.863 -5.0466
9946.087805 83.695 -2.5567
10018.161257 83.552 -0.0394
10090.756983 83.433 2.5003
10163.878768 83.338 5.0561
10237.530423 83.270 7.6147
10311.715789 83.229 10.1552
10386.438732 83.215 12.6557
10461.703149 83.226 15.1003
10537.512962 83.264 17.4750
10613.872125 83.329 19.7609
10690.784618 83.420 21.9286
10768.254450 83.538 23.9425
10846.285661 83.678 25.7682
10924.882318 83.838 27.3741
11004.048518 84.015 28.7272
11083.788390 84.203 29.7902
11164.106090 84.395 30.5276
11245.005805 84.581 30.9167
11326.491752 84.751 30.9544
11408.568180 84.893 30.6569
11491.239368 84.995 30.0586
11574.509626 85.048 29.2124
11658.383294 85.041 28.1950
11742.864745 84.967 27.1063
11827.958384 84.826 26.0604
11913.668646 84.618 25.1727
12000.000000 84.353 24.5485
12086.956947 84.040 24.2785
12174.544019 83.694 24.4312
12262.765784 83.334 25.0423
12351.626840 82.977 26.1035
12441.131819 82.644 27.5596
12531.285389 82.349 29.3166
12622.092249 82.103 31.2539
12713.557132 81.909 33.2372
12805.684808 81.765 35.1338
12898.480079 81.661 36.8357
12991.947783 81.584 38.2778
13086.092792 81.517 39.4415
13180.920015 81.446 40.3452
13276.434395 81.359 41.0346
13372.640911 81.247 41.5768
13469.544580 81.104 42.0514
13567.150452 80.929 42.5370
13665.463617 80.727 43.1003
13764.489200 80.501 43.7934
13864.232362 80.259 44.6545
13964.698305 80.011 45.7035
14065.892266 79.766 46.9375
14167.819519 79.534 48.3333
14270.485380 79.323 49.8547
14373.895200 79.140 51.4542
14478.054370 78.989 53.0707
14582.968320 78.876 54.6348
14688.642520 78.799 56.0761
14795.082478 78.758 57.3241
14902.293745 78.748 58.3089
15010.281908 78.764 58.9671
15119.052599 78.797 59.2493
15228.611486 78.837 59.1224
15338.964283 78.871 58.5709
15450.116741 78.886 57.6022
15562.074656 78.866 56.2507
15674.843864 78.796 54.5763
15788.430244 78.664 52.6612
15902.839718 78.460 50.6059
16018.078250 78.179 48.5221
16134.151848 77.821 46.5220
16251.066563 77.389 44.7083
16368.828491 76.891 43.1686
16487.443769 76.339 41.9703
16606.918584 75.743 41.1547
16727.259161 75.119 40.7377
16848.471777 74.478 40.7140
16970.562748 73.833 41.0580
17093.538442 73.195 41.7249
17217.405268 72.574 42.6566
17342.169684 71.979 43.7854
17467.838194 71.412 45.0360
17594.417350 70.875 46.3294
17721.913751 70.366 47.5877
17850.334044 69.878 48.7357
17979.684923 69.401 49.7091
18109.973131 68.924 50.4664
18241.205462 68.434 50.9924
18373.388756 67.915 51.3001
18506.529905 67.353 51.4319
18640.635849 66.735 51.4566
18775.713581 66.050 51.4646
18911.770141 65.288 51.5640
19048.812624 64.448 51.8715
19186.848172 63.532 52.4988
19325.883983 62.550 53.5381
19465.927305 61.526 55.0403
19606.985439 60.504 56.9757
19749.065738 59.562 59.1637
19892.175609 58.815 61.1942
20036.322514 58.394 62.4624
