* Measurement data measured by REW V5.31
* Source: EXCL: Microphone (2- USB Sound Device        ), MICROPHONE (Master Volume), L, volume: 0.560
* Format: 256k Log Swept Sine, 1 sweep at -4.0 dBFS with no timing reference
* Dated: Jul 5, 2024 12:02:50 PM
* REW Settings:
*  C-weighting compensation: Off
*  Target level: 75.0 dB
* Note: kz xtra
* Measurement: L KZ Xtra
* Smoothing: 1/12 octave
* Frequency Step: 96 ppo
* Start Frequency: 0.36621094 Hz
*
* Freq(Hz) SPL(dB) Phase(degrees)
0.366211 80.038 165.2428
0.368865 80.033 165.2254
0.371538 80.026 165.1993
0.374230 80.018 165.1667
0.376942 80.008 165.1291
0.379673 79.998 165.0879
0.382424 79.987 165.0440
0.385196 79.976 164.9977
0.387987 79.965 164.9494
0.390798 79.953 164.8993
0.393630 79.942 164.8474
0.396483 79.930 164.7938
0.399356 79.918 164.7385
0.402250 79.906 164.6814
0.405165 79.894 164.6226
0.408101 79.882 164.5620
0.411058 79.870 164.4997
0.414037 79.858 164.4355
0.417037 79.846 164.3696
0.420059 79.834 164.3018
0.423103 79.821 164.2322
0.426169 79.809 164.1607
0.429257 79.796 164.0874
0.432368 79.783 164.0122
0.435501 79.770 163.9350
0.438656 79.758 163.8560
0.441835 79.745 163.7750
0.445037 79.731 163.6921
0.448262 79.718 163.6072
0.451510 79.705 163.5203
0.454782 79.692 163.4314
0.458077 79.678 163.3406
0.461397 79.664 163.2477
0.464740 79.651 163.1528
0.468108 79.637 163.0558
0.471500 79.623 162.9568
0.474917 79.609 162.8557
0.478358 79.595 162.7525
0.481825 79.581 162.6472
0.485316 79.567 162.5399
0.488833 79.552 162.4304
0.492375 79.538 162.3188
0.495943 79.523 162.2051
0.499537 79.508 162.0892
0.503157 79.494 161.9713
0.506803 79.479 161.8511
0.510475 79.464 161.7289
0.514175 79.449 161.6044
0.517900 79.433 161.4779
0.521653 79.418 161.3492
0.525434 79.403 161.2183
0.529241 79.387 161.0853
0.533076 79.371 160.9501
0.536939 79.356 160.8127
0.540830 79.340 160.6733
0.544749 79.324 160.5316
0.548696 79.307 160.3879
0.552673 79.291 160.2421
0.556677 79.275 160.0941
0.560711 79.258 159.9440
0.564774 79.242 159.7918
0.568867 79.225 159.6376
0.572989 79.208 159.4813
0.577141 79.191 159.3230
0.581324 79.174 159.1626
0.585536 79.157 159.0003
0.589779 79.139 158.8360
0.594053 79.122 158.6698
0.598358 79.104 158.5017
0.602694 79.087 158.3317
0.607061 79.069 158.1598
0.611460 79.051 157.9862
0.615891 79.033 157.8108
0.620354 79.014 157.6337
0.624849 78.996 157.4549
0.629377 78.977 157.2745
0.633938 78.959 157.0925
0.638532 78.940 156.9090
0.643159 78.921 156.7241
0.647819 78.902 156.5378
0.652514 78.883 156.3502
0.657242 78.863 156.1613
0.662005 78.844 155.9713
0.666802 78.824 155.7802
0.671634 78.805 155.5881
0.676501 78.785 155.3951
0.681403 78.765 155.2012
0.686341 78.744 155.0067
0.691314 78.724 154.8115
0.696324 78.703 154.6158
0.701370 78.683 154.4196
0.706452 78.662 154.2231
0.711571 78.640 154.0262
0.716728 78.618 153.8288
0.721921 78.595 153.6308
0.727153 78.570 153.4319
0.732422 78.544 153.2315
0.737729 78.517 153.0290
0.743075 78.487 152.8237
0.748460 78.456 152.6149
0.753883 78.424 152.4023
0.759346 78.391 152.1854
0.764849 78.358 151.9641
0.770391 78.324 151.7382
0.775974 78.289 151.5076
0.781597 78.254 151.2723
0.787261 78.219 151.0321
0.792966 78.183 150.7870
0.798712 78.146 150.5370
0.804500 78.109 150.2819
0.810329 78.071 150.0219
0.816201 78.033 149.7568
0.822116 77.994 149.4866
0.828073 77.955 149.2113
0.834074 77.915 148.9308
0.840118 77.874 148.6452
0.846206 77.833 148.3544
0.852338 77.791 148.0583
0.858514 77.749 147.7570
0.864735 77.705 147.4504
0.871001 77.661 147.1386
0.877313 77.617 146.8215
0.883670 77.571 146.4992
0.890074 77.524 146.1716
0.896524 77.477 145.8388
0.903020 77.429 145.5007
0.909564 77.380 145.1575
0.916155 77.330 144.8091
0.922794 77.279 144.4556
0.929481 77.227 144.0971
0.936216 77.174 143.7335
0.943000 77.120 143.3650
0.949834 77.064 142.9917
0.956717 77.008 142.6136
0.963649 76.950 142.2308
0.970632 76.892 141.8435
0.977666 76.831 141.4517
0.984750 76.770 141.0557
0.991886 76.707 140.6556
0.999074 76.643 140.2515
1.006314 76.578 139.8437
1.013606 76.511 139.4323
1.020951 76.442 139.0175
1.028349 76.372 138.5997
1.035801 76.300 138.1791
1.043307 76.227 137.7558
1.050867 76.152 137.3303
1.058482 76.075 136.9027
1.066152 75.996 136.4734
1.073878 75.915 136.0423
1.081660 75.833 135.6096
1.089498 75.748 135.1749
1.097393 75.660 134.7379
1.105345 75.570 134.2978
1.113355 75.477 133.8537
1.121423 75.382 133.4046
1.129549 75.283 132.9498
1.137734 75.182 132.4886
1.145979 75.077 132.0203
1.154283 74.969 131.5443
1.162647 74.859 131.0603
1.171072 74.745 130.5675
1.179558 74.629 130.0656
1.188106 74.510 129.5538
1.196715 74.388 129.0318
1.205387 74.264 128.4989
1.214122 74.138 127.9545
1.222920 74.009 127.3979
1.231782 73.877 126.8283
1.240708 73.744 126.2452
1.249699 73.608 125.6477
1.258754 73.471 125.0350
1.267876 73.332 124.4063
1.277063 73.191 123.7606
1.286318 73.049 123.0970
1.295639 72.905 122.4145
1.305027 72.761 121.7120
1.314484 72.615 120.9884
1.324009 72.469 120.2426
1.333604 72.321 119.4732
1.343268 72.174 118.6791
1.353002 72.026 117.8588
1.362806 71.878 117.0110
1.372681 71.731 116.1342
1.382628 71.583 115.2268
1.392647 71.437 114.2873
1.402739 71.291 113.3139
1.412904 71.146 112.3048
1.423142 71.002 111.2582
1.433455 70.860 110.1719
1.443843 70.718 109.0435
1.454305 70.576 107.8703
1.464844 70.434 106.6487
1.475459 70.290 105.3747
1.486150 70.143 104.0440
1.496920 69.993 102.6514
1.507767 69.840 101.1922
1.518693 69.682 99.6610
1.529698 69.520 98.0528
1.540783 69.355 96.3621
1.551948 69.187 94.5833
1.563194 69.016 92.7112
1.574521 68.844 90.7399
1.585931 68.671 88.6642
1.597423 68.497 86.4789
1.608999 68.324 84.1792
1.620658 68.152 81.7609
1.632402 67.983 79.2210
1.644232 67.817 76.5574
1.656146 67.655 73.7699
1.668147 67.498 70.8600
1.680235 67.348 67.8316
1.692411 67.206 64.6911
1.704675 67.072 61.4477
1.717028 66.948 58.1135
1.729470 66.836 54.7034
1.742003 66.736 51.2345
1.754626 66.651 47.7261
1.767341 66.581 44.1982
1.780147 66.529 40.6715
1.793047 66.495 37.1652
1.806040 66.483 33.6970
1.819128 66.492 30.2813
1.832310 66.525 26.9297
1.845587 66.582 23.6503
1.858961 66.664 20.4499
1.872432 66.772 17.3341
1.886001 66.904 14.3085
1.899667 67.060 11.3780
1.913433 67.238 8.5469
1.927299 67.437 5.8185
1.941265 67.654 3.1949
1.955332 67.889 0.6773
1.969501 68.140 -1.7342
1.983773 68.404 -4.0407
1.998148 68.679 -6.2437
2.012627 68.963 -8.3455
2.027212 69.255 -10.3490
2.041902 69.551 -12.2573
2.056698 69.849 -14.0738
2.071602 70.148 -15.8020
2.086614 70.444 -17.4458
2.101734 70.736 -19.0089
2.116964 71.020 -20.4952
2.132304 71.296 -21.9088
2.147756 71.562 -23.2543
2.163320 71.816 -24.5367
2.178996 72.058 -25.7614
2.194786 72.289 -26.9350
2.210690 72.511 -28.0641
2.226710 72.724 -29.1548
2.242845 72.931 -30.2122
2.259098 73.133 -31.2401
2.275468 73.331 -32.2408
2.291957 73.526 -33.2158
2.308566 73.716 -34.1660
2.325295 73.904 -35.0917
2.342145 74.089 -35.9931
2.359117 74.271 -36.8702
2.376212 74.450 -37.7228
2.393431 74.626 -38.5508
2.410775 74.799 -39.3538
2.428244 74.970 -40.1317
2.445840 75.138 -40.8841
2.463564 75.303 -41.6109
2.481416 75.465 -42.3120
2.499397 75.625 -42.9875
2.517509 75.782 -43.6383
2.535752 75.937 -44.2652
2.554127 76.088 -44.8703
2.572635 76.235 -45.4559
2.591277 76.379 -46.0248
2.610055 76.518 -46.5795
2.628968 76.654 -47.1217
2.648019 76.785 -47.6526
2.667208 76.912 -48.1726
2.686535 77.036 -48.6818
2.706003 77.156 -49.1800
2.725612 77.272 -49.6668
2.745363 77.386 -50.1417
2.765257 77.497 -50.6038
2.785295 77.606 -51.0527
2.805478 77.713 -51.4874
2.825808 77.818 -51.9074
2.846285 77.922 -52.3119
2.866910 78.025 -52.7005
2.887685 78.127 -53.0730
2.908611 78.228 -53.4295
2.929688 78.328 -53.7706
2.950917 78.427 -54.0973
2.972301 78.523 -54.4108
2.993839 78.618 -54.7119
3.015534 78.710 -55.0015
3.037386 78.800 -55.2801
3.059396 78.888 -55.5479
3.081565 78.975 -55.8050
3.103896 79.060 -56.0514
3.126388 79.143 -56.2869
3.149043 79.226 -56.5114
3.171862 79.308 -56.7245
3.194847 79.390 -56.9260
3.217998 79.472 -57.1155
3.241317 79.553 -57.2926
3.264805 79.635 -57.4569
3.288463 79.717 -57.6080
3.312293 79.800 -57.7457
3.336295 79.882 -57.8700
3.360471 79.963 -57.9812
3.384822 80.045 -58.0800
3.409350 80.126 -58.1674
3.434056 80.207 -58.2445
3.458940 80.287 -58.3126
3.484005 80.368 -58.3731
3.509252 80.449 -58.4271
3.534681 80.530 -58.4761
3.560295 80.612 -58.5210
3.586094 80.695 -58.5629
3.612081 80.778 -58.6021
3.638255 80.863 -58.6390
3.664620 80.948 -58.6730
3.691175 81.035 -58.7037
3.717923 81.123 -58.7306
3.744864 81.211 -58.7537
3.772001 81.301 -58.7735
3.799335 81.391 -58.7910
3.826866 81.482 -58.8074
3.854597 81.573 -58.8243
3.882529 81.666 -58.8431
3.910664 81.758 -58.8654
3.939002 81.852 -58.8925
3.967546 81.945 -58.9253
3.996296 82.040 -58.9644
4.025255 82.135 -59.0100
4.054423 82.231 -59.0616
4.083804 82.327 -59.1188
4.113396 82.424 -59.1812
4.143204 82.522 -59.2490
4.173227 82.620 -59.3223
4.203468 82.718 -59.4020
4.233928 82.816 -59.4885
4.264609 82.914 -59.5829
4.295512 83.012 -59.6860
4.326639 83.110 -59.7983
4.357992 83.207 -59.9206
4.389572 83.303 -60.0531
4.421380 83.399 -60.1959
4.453419 83.494 -60.3486
4.485691 83.589 -60.5109
4.518196 83.683 -60.6820
4.550936 83.776 -60.8614
4.583914 83.869 -61.0484
4.617131 83.961 -61.2424
4.650589 84.051 -61.4429
4.684289 84.141 -61.6497
4.718233 84.229 -61.8625
4.752424 84.315 -62.0815
4.786862 84.401 -62.3069
4.821549 84.484 -62.5387
4.856488 84.567 -62.7765
4.891680 84.648 -63.0199
4.927127 84.727 -63.2679
4.962831 84.805 -63.5192
4.998794 84.882 -63.7728
5.035017 84.957 -64.0275
5.071503 85.031 -64.2826
5.108253 85.104 -64.5376
5.145270 85.175 -64.7925
5.182555 85.245 -65.0474
5.220110 85.313 -65.3024
5.257937 85.380 -65.5571
5.296038 85.446 -65.8111
5.334415 85.511 -66.0637
5.373071 85.574 -66.3139
5.412006 85.637 -66.5609
5.451224 85.699 -66.8040
5.490725 85.761 -67.0429
5.530514 85.821 -67.2774
5.570590 85.882 -67.5077
5.610957 85.941 -67.7340
5.651616 86.000 -67.9566
5.692570 86.059 -68.1756
5.733821 86.118 -68.3913
5.775370 86.177 -68.6037
5.817221 86.236 -68.8126
5.859375 86.296 -69.0182
5.901834 86.355 -69.2204
5.944602 86.416 -69.4194
5.987679 86.476 -69.6159
6.031068 86.538 -69.8107
6.074771 86.599 -70.0047
6.118792 86.662 -70.1989
6.163131 86.725 -70.3942
6.207792 86.789 -70.5912
6.252776 86.854 -70.7903
6.298086 86.919 -70.9915
6.343725 86.986 -71.1954
6.389694 87.053 -71.4026
6.435996 87.121 -71.6138
6.482634 87.189 -71.8299
6.529610 87.258 -72.0518
6.576926 87.328 -72.2801
6.624585 87.398 -72.5151
6.672590 87.468 -72.7570
6.720942 87.539 -73.0056
6.769645 87.610 -73.2610
6.818700 87.682 -73.5232
6.868111 87.753 -73.7923
6.917881 87.824 -74.0684
6.968010 87.895 -74.3515
7.018504 87.965 -74.6415
7.069362 88.035 -74.9381
7.120590 88.105 -75.2406
7.172189 88.175 -75.5484
7.224161 88.244 -75.8607
7.276511 88.312 -76.1768
7.329239 88.380 -76.4962
7.382350 88.447 -76.8185
7.435845 88.513 -77.1433
7.489729 88.579 -77.4699
7.544002 88.645 -77.7975
7.598669 88.709 -78.1252
7.653732 88.774 -78.4522
7.709194 88.838 -78.7779
7.765058 88.902 -79.1021
7.821327 88.965 -79.4244
7.878004 89.028 -79.7447
7.935091 89.091 -80.0624
7.992592 89.155 -80.3774
8.050510 89.218 -80.6893
8.108847 89.282 -80.9981
8.167607 89.345 -81.3038
8.226793 89.410 -81.6067
8.286408 89.475 -81.9070
8.346454 89.540 -82.2053
8.406936 89.606 -82.5017
8.467856 89.673 -82.7966
8.529218 89.740 -83.0902
8.591024 89.808 -83.3831
8.653278 89.877 -83.6757
8.715983 89.946 -83.9687
8.779143 90.016 -84.2624
8.842760 90.087 -84.5572
8.906839 90.158 -84.8533
8.971381 90.229 -85.1510
9.036392 90.301 -85.4503
9.101873 90.373 -85.7515
9.167829 90.446 -86.0547
9.234263 90.518 -86.3597
9.301178 90.591 -86.6665
9.368578 90.664 -86.9746
9.436467 90.736 -87.2838
9.504847 90.808 -87.5937
9.573723 90.880 -87.9039
9.643099 90.952 -88.2140
9.712976 91.024 -88.5237
9.783361 91.095 -88.8323
9.854255 91.166 -89.1393
9.925663 91.237 -89.4444
9.997588 91.307 -89.7472
10.070035 91.377 -90.0474
10.143007 91.447 -90.3449
10.216507 91.517 -90.6392
10.290540 91.586 -90.9305
10.365109 91.656 -91.2185
10.440219 91.725 -91.5035
10.515873 91.795 -91.7855
10.592076 91.865 -92.0648
10.668830 91.934 -92.3417
10.746141 92.004 -92.6162
10.824012 92.073 -92.8889
10.902447 92.143 -93.1600
10.981451 92.213 -93.4298
11.061027 92.283 -93.6987
11.141180 92.352 -93.9668
11.221913 92.422 -94.2343
11.303232 92.491 -94.5014
11.385140 92.560 -94.7682
11.467641 92.629 -95.0347
11.550741 92.697 -95.3009
11.634442 92.765 -95.5667
11.718750 92.833 -95.8320
11.803669 92.900 -96.0967
11.889203 92.967 -96.3606
11.975357 93.033 -96.6235
12.062136 93.099 -96.8854
12.149543 93.164 -97.1461
12.237583 93.229 -97.4056
12.326262 93.294 -97.6639
12.415583 93.358 -97.9210
12.505552 93.422 -98.1772
12.596172 93.486 -98.4324
12.687449 93.549 -98.6870
12.779387 93.612 -98.9412
12.871992 93.675 -99.1954
12.965268 93.738 -99.4497
13.059220 93.801 -99.7045
13.153852 93.863 -99.9602
13.249170 93.925 -100.2168
13.345179 93.987 -100.4747
13.441884 94.049 -100.7340
13.539289 94.111 -100.9948
13.637401 94.172 -101.2572
13.736223 94.233 -101.5212
13.835761 94.294 -101.7869
13.936021 94.355 -102.0541
14.037007 94.415 -102.3230
14.138725 94.476 -102.5934
14.241180 94.536 -102.8655
14.344377 94.596 -103.1392
14.448323 94.656 -103.4146
14.553021 94.716 -103.6919
14.658478 94.777 -103.9711
14.764700 94.837 -104.2526
14.871691 94.898 -104.5366
14.979457 94.959 -104.8232
15.088005 95.020 -105.1127
15.197339 95.081 -105.4054
15.307465 95.143 -105.7015
15.418389 95.205 -106.0012
15.530117 95.268 -106.3046
15.642655 95.330 -106.6118
15.756008 95.393 -106.9230
15.870182 95.457 -107.2382
15.985184 95.521 -107.5575
16.101019 95.585 -107.8809
16.217694 95.650 -108.2086
16.335214 95.716 -108.5406
16.453586 95.782 -108.8771
16.572815 95.848 -109.2182
16.692909 95.915 -109.5643
16.813872 95.983 -109.9154
16.935713 96.051 -110.2719
17.058436 96.120 -110.6341
17.182048 96.189 -111.0023
17.306556 96.260 -111.3767
17.431967 96.330 -111.7578
17.558286 96.401 -112.1457
17.685521 96.473 -112.5408
17.813677 96.545 -112.9434
17.942762 96.618 -113.3539
18.072783 96.691 -113.7726
18.203746 96.764 -114.2000
18.335658 96.838 -114.6365
18.468526 96.911 -115.0827
18.602356 96.985 -115.5391
18.737156 97.059 -116.0062
18.872934 97.133 -116.4847
19.009695 97.207 -116.9752
19.147447 97.280 -117.4781
19.286197 97.353 -117.9939
19.425953 97.424 -118.5229
19.566721 97.495 -119.0654
19.708510 97.565 -119.6215
19.851326 97.633 -120.1912
19.995177 97.700 -120.7743
20.140070 97.764 -121.3706
20.286013 97.827 -121.9798
20.433014 97.888 -122.6014
20.581080 97.946 -123.2351
20.730219 98.002 -123.8803
20.880439 98.055 -124.5364
21.031747 98.105 -125.2026
21.184152 98.152 -125.8782
21.337661 98.196 -126.5621
21.492282 98.236 -127.2533
21.648024 98.273 -127.9505
21.804895 98.306 -128.6523
21.962902 98.336 -129.3571
22.122054 98.362 -130.0635
22.282360 98.385 -130.7697
22.443827 98.404 -131.4742
22.606464 98.419 -132.1754
22.770280 98.432 -132.8719
22.935283 98.441 -133.5625
23.101481 98.447 -134.2462
23.268884 98.450 -134.9220
23.437500 98.451 -135.5893
23.607338 98.450 -136.2473
23.778406 98.446 -136.8955
23.950714 98.440 -137.5335
24.124271 98.432 -138.1608
24.299086 98.423 -138.7768
24.475167 98.412 -139.3811
24.652524 98.400 -139.9731
24.831166 98.387 -140.5524
25.011103 98.373 -141.1187
25.192344 98.358 -141.6717
25.374898 98.343 -142.2114
25.558775 98.327 -142.7378
25.743984 98.311 -143.2513
25.930536 98.296 -143.7523
26.118439 98.281 -144.2413
26.307704 98.266 -144.7190
26.498341 98.252 -145.1862
26.690359 98.238 -145.6434
26.883768 98.225 -146.0914
27.078579 98.212 -146.5307
27.274801 98.200 -146.9618
27.472446 98.189 -147.3852
27.671522 98.178 -147.8010
27.872042 98.168 -148.2096
28.074014 98.158 -148.6110
28.277450 98.148 -149.0055
28.482360 98.139 -149.3930
28.688755 98.131 -149.7737
28.896645 98.123 -150.1478
29.106042 98.115 -150.5154
29.316957 98.108 -150.8769
29.529400 98.101 -151.2328
29.743382 98.095 -151.5836
29.958915 98.090 -151.9298
30.176009 98.085 -152.2722
30.394677 98.081 -152.6116
30.614929 98.077 -152.9486
30.836778 98.074 -153.2838
31.060234 98.071 -153.6176
31.285309 98.068 -153.9503
31.512015 98.065 -154.2819
31.740364 98.063 -154.6121
31.970368 98.060 -154.9407
32.202039 98.058 -155.2672
32.435388 98.055 -155.5915
32.670428 98.053 -155.9132
32.907171 98.051 -156.2325
33.145630 98.049 -156.5497
33.385817 98.047 -156.8651
33.627745 98.046 -157.1795
33.871425 98.046 -157.4935
34.116871 98.045 -157.8078
34.364096 98.045 -158.1227
34.613113 98.044 -158.4384
34.863934 98.044 -158.7548
35.116572 98.043 -159.0716
35.371041 98.043 -159.3882
35.627354 98.042 -159.7042
35.885525 98.041 -160.0191
36.145566 98.040 -160.3328
36.407492 98.039 -160.6458
36.671316 98.038 -160.9587
36.937051 98.037 -161.2723
37.204712 98.036 -161.5876
37.474313 98.036 -161.9050
37.745867 98.035 -162.2246
38.019389 98.033 -162.5460
38.294893 98.032 -162.8684
38.572394 98.029 -163.1911
38.851905 98.027 -163.5135
39.133442 98.025 -163.8356
39.417019 98.022 -164.1576
39.702651 98.020 -164.4802
39.990353 98.018 -164.8039
40.280140 98.016 -165.1291
40.572026 98.013 -165.4554
40.866028 98.011 -165.7822
41.162160 98.008 -166.1086
41.460438 98.006 -166.4342
41.760877 98.003 -166.7587
42.063494 98.000 -167.0823
42.368303 97.998 -167.4057
42.675322 97.996 -167.7294
42.984565 97.993 -168.0540
43.296048 97.991 -168.3793
43.609789 97.988 -168.7050
43.925804 97.985 -169.0302
44.244108 97.981 -169.3544
44.564719 97.977 -169.6771
44.887654 97.973 -169.9980
45.212928 97.969 -170.3171
45.540560 97.964 -170.6349
45.870565 97.960 -170.9520
46.202962 97.955 -171.2692
46.537768 97.951 -171.5874
46.875000 97.946 -171.9075
47.214676 97.942 -172.2298
47.556813 97.937 -172.5545
47.901429 97.932 -172.8811
48.248542 97.926 -173.2090
48.598171 97.920 -173.5373
48.950334 97.914 -173.8656
49.305048 97.907 -174.1935
49.662333 97.901 -174.5208
50.022206 97.894 -174.8474
50.384688 97.887 -175.1728
50.749796 97.880 -175.4967
51.117550 97.873 -175.8189
51.487969 97.866 -176.1397
51.861072 97.859 -176.4595
52.236879 97.852 -176.7791
52.615409 97.846 -177.0988
52.996681 97.839 -177.4189
53.380717 97.832 -177.7393
53.767536 97.824 -178.0598
54.157158 97.817 -178.3804
54.549603 97.809 -178.7010
54.944892 97.801 -179.0220
55.343045 97.793 -179.3436
55.744084 97.784 -179.6659
56.148028 97.775 -179.9884
56.554900 97.766 179.6895
56.964720 97.757 179.3687
57.377510 97.747 179.0495
57.793291 97.738 178.7317
58.212085 97.728 178.4145
58.633914 97.719 178.0969
59.058799 97.710 177.7787
59.486764 97.701 177.4605
59.917829 97.691 177.1434
60.352019 97.681 176.8282
60.789354 97.671 176.5153
61.229859 97.661 176.2043
61.673556 97.651 175.8947
62.120468 97.640 175.5866
62.570618 97.630 175.2802
63.024031 97.620 174.9756
63.480729 97.609 174.6721
63.940736 97.599 174.3688
64.404077 97.589 174.0648
64.870776 97.579 173.7601
65.340856 97.568 173.4549
65.814343 97.558 173.1497
66.291261 97.549 172.8440
66.771635 97.539 172.5367
67.255489 97.530 172.2270
67.742850 97.521 171.9147
68.233743 97.512 171.6009
68.728193 97.503 171.2871
69.226226 97.494 170.9746
69.727867 97.486 170.6641
70.233144 97.477 170.3559
70.742083 97.470 170.0501
71.254709 97.463 169.7463
71.771050 97.457 169.4436
72.291132 97.453 169.1405
72.814984 97.449 168.8355
73.342631 97.446 168.5275
73.874102 97.445 168.2152
74.409424 97.444 167.8974
74.948626 97.444 167.5727
75.491734 97.445 167.2397
76.038779 97.447 166.8973
76.589787 97.449 166.5437
77.144788 97.453 166.1767
77.703811 97.458 165.7941
78.266885 97.463 165.3948
78.834039 97.468 164.9782
79.405303 97.473 164.5439
79.980706 97.479 164.0906
80.560280 97.485 163.6168
81.144053 97.490 163.1216
81.732056 97.495 162.6050
82.324320 97.498 162.0670
82.920876 97.501 161.5074
83.521755 97.502 160.9259
84.126988 97.500 160.3220
84.736607 97.497 159.6955
85.350643 97.491 159.0468
85.969129 97.481 158.3765
86.592097 97.468 157.6865
87.219579 97.451 156.9790
87.851608 97.428 156.2571
88.488217 97.401 155.5246
89.129439 97.369 154.7852
89.775308 97.331 154.0426
90.425856 97.287 153.3004
91.081119 97.237 152.5624
91.741131 97.182 151.8328
92.405925 97.121 151.1147
93.075536 97.055 150.4099
93.750000 96.986 149.7192
94.429351 96.912 149.0432
95.113625 96.835 148.3826
95.802858 96.756 147.7387
96.497085 96.674 147.1134
97.196342 96.590 146.5096
97.900667 96.504 145.9293
98.610096 96.417 145.3737
99.324665 96.329 144.8433
100.044413 96.240 144.3385
100.769376 96.149 143.8604
101.499592 96.057 143.4105
102.235100 95.964 142.9888
102.975938 95.872 142.5930
103.722144 95.780 142.2183
104.473757 95.689 141.8599
105.230817 95.599 141.5157
105.993363 95.510 141.1859
106.761435 95.421 140.8719
107.535072 95.333 140.5751
108.314315 95.246 140.2944
109.099206 95.160 140.0261
109.889783 95.073 139.7652
110.686090 94.985 139.5083
111.488167 94.896 139.2540
112.296056 94.807 139.0012
113.109800 94.719 138.7475
113.929440 94.632 138.4908
114.755020 94.547 138.2301
115.586582 94.466 137.9666
116.424170 94.388 137.7028
117.267827 94.311 137.4422
118.117598 94.235 137.1888
118.973527 94.154 136.9502
119.835658 94.067 136.7433
120.704037 93.973 136.5897
121.578708 93.873 136.4962
122.459718 93.770 136.4459
123.347111 93.667 136.4113
124.240935 93.564 136.3686
125.141236 93.462 136.3026
126.048061 93.360 136.2069
126.961458 93.260 136.0831
127.881473 93.160 135.9392
128.808154 93.061 135.7870
129.741551 92.961 135.6385
130.681712 92.861 135.5034
131.628686 92.759 135.3885
132.582521 92.655 135.2978
133.543269 92.550 135.2328
134.510979 92.443 135.1926
135.485701 92.335 135.1754
136.467486 92.225 135.1809
137.456386 92.115 135.2106
138.452451 92.004 135.2689
139.455735 91.892 135.3621
140.466288 91.778 135.4969
141.484165 91.663 135.6761
142.509418 91.549 135.8979
143.542100 91.436 136.1562
144.582265 91.327 136.4420
145.629968 91.224 136.7421
146.685262 91.130 137.0430
147.748204 91.048 137.3337
148.818849 90.979 137.6054
149.897251 90.922 137.8505
150.983469 90.875 138.0624
152.077557 90.831 138.2357
153.179574 90.785 138.3695
154.289576 90.730 138.4760
155.407622 90.661 138.5836
156.533770 90.578 138.7171
157.668078 90.485 138.8796
158.810606 90.385 139.0606
159.961413 90.282 139.2480
161.120559 90.179 139.4338
162.288105 90.076 139.6149
163.464112 89.973 139.7935
164.648640 89.871 139.9780
165.841752 89.770 140.1798
167.043510 89.670 140.4076
168.253976 89.572 140.6651
169.473213 89.476 140.9528
170.701286 89.381 141.2698
171.938258 89.289 141.6133
173.184194 89.197 141.9778
174.439158 89.105 142.3570
175.703216 89.014 142.7487
176.976434 88.923 143.1542
178.258878 88.833 143.5762
179.550615 88.743 144.0170
180.851713 88.656 144.4792
182.162239 88.570 144.9658
183.482262 88.485 145.4799
184.811850 88.402 146.0241
186.151073 88.320 146.5992
187.500000 88.239 147.2054
188.858702 88.159 147.8434
190.227250 88.080 148.5135
191.605715 88.004 149.2127
192.994169 87.932 149.9312
194.392685 87.865 150.6583
195.801334 87.804 151.3915
197.220191 87.750 152.1382
198.649330 87.703 152.9067
200.088825 87.666 153.6959
201.538751 87.642 154.4912
202.999184 87.630 155.2684
204.470200 87.630 156.0034
205.951875 87.638 156.6807
207.444287 87.651 157.2980
208.947514 87.663 157.8631
210.461634 87.670 158.3895
211.986726 87.670 158.8953
213.522869 87.667 159.3851
215.070144 87.665 159.8435
216.628631 87.668 160.2559
218.198411 87.676 160.6280
219.779567 87.687 160.9840
221.372180 87.696 161.3500
222.976334 87.701 161.7400
224.592112 87.699 162.1526
226.219600 87.691 162.5771
227.858880 87.680 163.0029
229.510039 87.670 163.4261
231.173164 87.663 163.8469
232.848340 87.660 164.2632
234.535655 87.662 164.6725
236.235197 87.667 165.0756
237.947054 87.673 165.4762
239.671317 87.681 165.8734
241.408074 87.690 166.2625
243.157416 87.700 166.6392
244.919435 87.710 167.0023
246.694223 87.719 167.3533
248.481871 87.727 167.6954
250.282473 87.735 168.0312
252.096123 87.743 168.3625
253.922915 87.751 168.6898
255.762945 87.758 169.0136
257.616309 87.766 169.3341
259.483103 87.773 169.6513
261.363424 87.780 169.9649
263.257372 87.787 170.2742
265.165043 87.794 170.5779
267.086538 87.801 170.8757
269.021957 87.809 171.1677
270.971401 87.816 171.4547
272.934972 87.825 171.7371
274.912771 87.833 172.0150
276.904902 87.842 172.2886
278.911469 87.851 172.5580
280.932577 87.859 172.8237
282.968330 87.868 173.0857
285.018835 87.877 173.3441
287.084199 87.886 173.5989
289.164530 87.895 173.8499
291.259935 87.903 174.0972
293.370525 87.912 174.3407
295.496408 87.921 174.5803
297.637697 87.930 174.8162
299.794503 87.939 175.0487
301.966937 87.948 175.2781
304.155114 87.957 175.5048
306.359147 87.965 175.7287
308.579152 87.974 175.9499
310.815244 87.982 176.1683
313.067539 87.990 176.3838
315.336156 87.998 176.5962
317.621211 88.006 176.8054
319.922826 88.014 177.0113
322.241118 88.022 177.2145
324.576210 88.029 177.4152
326.928223 88.036 177.6137
329.297280 88.043 177.8104
331.683504 88.049 178.0057
334.087019 88.055 178.1999
336.507952 88.062 178.3933
338.946427 88.068 178.5872
341.402572 88.074 178.7823
343.876516 88.080 178.9782
346.368387 88.087 179.1736
348.878315 88.093 179.3671
351.406431 88.100 179.5572
353.952867 88.107 179.7430
356.517756 88.115 179.9238
359.101230 88.123 -179.9008
361.703426 88.131 -179.7307
364.324478 88.138 -179.5658
366.964523 88.145 -179.4056
369.623699 88.152 -179.2496
372.302145 88.157 -179.0967
375.000000 88.162 -178.9458
377.717405 88.166 -178.7959
380.454501 88.170 -178.6465
383.211431 88.173 -178.4974
385.988339 88.175 -178.3484
388.785369 88.177 -178.1994
391.602668 88.179 -178.0501
394.440383 88.180 -177.9009
397.298660 88.181 -177.7521
400.177650 88.182 -177.6039
403.077502 88.183 -177.4559
405.998368 88.183 -177.3073
408.940400 88.183 -177.1579
411.903750 88.183 -177.0074
414.888575 88.182 -176.8563
417.895028 88.181 -176.7048
420.923268 88.179 -176.5535
423.973452 88.178 -176.4024
427.045738 88.176 -176.2517
430.140287 88.174 -176.1010
433.257261 88.172 -175.9504
436.396822 88.169 -175.7997
439.559133 88.166 -175.6488
442.744360 88.163 -175.4970
445.952668 88.159 -175.3435
449.184225 88.155 -175.1874
452.439199 88.151 -175.0289
455.717760 88.146 -174.8685
459.020079 88.142 -174.7071
462.346327 88.137 -174.5449
465.696680 88.131 -174.3820
469.071310 88.126 -174.2180
472.470394 88.120 -174.0529
475.894109 88.114 -173.8865
479.342634 88.108 -173.7186
482.816148 88.101 -173.5489
486.314833 88.095 -173.3770
489.838871 88.087 -173.2026
493.388445 88.080 -173.0256
496.963741 88.072 -172.8462
500.564945 88.065 -172.6650
504.192245 88.057 -172.4822
507.845830 88.049 -172.2976
511.525890 88.041 -172.1111
515.232618 88.033 -171.9224
518.966206 88.024 -171.7314
522.726849 88.016 -171.5378
526.514743 88.007 -171.3417
530.330086 87.998 -171.1431
534.173076 87.989 -170.9421
538.043915 87.980 -170.7386
541.942803 87.970 -170.5325
545.869944 87.961 -170.3233
549.825542 87.952 -170.1105
553.809805 87.942 -169.8940
557.822939 87.932 -169.6741
561.865154 87.923 -169.4514
565.936660 87.913 -169.2257
570.037671 87.903 -168.9969
574.168399 87.893 -168.7649
578.329060 87.883 -168.5293
582.519870 87.873 -168.2900
586.741049 87.863 -168.0472
590.992817 87.852 -167.8014
595.275394 87.842 -167.5527
599.589005 87.832 -167.3010
603.933874 87.822 -167.0459
608.310228 87.812 -166.7873
612.718295 87.802 -166.5251
617.158304 87.793 -166.2590
621.630488 87.783 -165.9889
626.135079 87.774 -165.7145
630.672311 87.764 -165.4358
635.242423 87.755 -165.1529
639.845651 87.746 -164.8661
644.482237 87.737 -164.5757
649.152421 87.728 -164.2816
653.856447 87.719 -163.9838
658.594560 87.711 -163.6824
663.367008 87.703 -163.3772
668.174039 87.694 -163.0681
673.015903 87.687 -162.7546
677.892854 87.679 -162.4368
682.805145 87.672 -162.1148
687.753032 87.665 -161.7891
692.736774 87.658 -161.4595
697.756631 87.652 -161.1259
702.812863 87.646 -160.7878
707.905735 87.640 -160.4451
713.035511 87.634 -160.0980
718.202461 87.629 -159.7467
723.406852 87.625 -159.3911
728.648956 87.621 -159.0312
733.929047 87.617 -158.6666
739.247399 87.613 -158.2971
744.604290 87.609 -157.9221
750.000000 87.606 -157.5405
755.434809 87.603 -157.1506
760.909001 87.600 -156.7505
766.422861 87.597 -156.3380
771.976677 87.596 -155.9108
777.570739 87.595 -155.4672
783.205337 87.597 -155.0059
788.880766 87.602 -154.5278
794.597321 87.612 -154.0372
800.355301 87.626 -153.5432
806.155005 87.646 -153.0595
811.996736 87.670 -152.6017
817.880799 87.696 -152.1806
823.807501 87.722 -151.7958
829.777150 87.745 -151.4363
835.790057 87.766 -151.0870
841.846536 87.784 -150.7356
847.946903 87.800 -150.3752
854.091476 87.815 -150.0037
860.280575 87.831 -149.6220
866.514523 87.848 -149.2320
872.793644 87.865 -148.8358
879.118267 87.883 -148.4349
885.488720 87.902 -148.0311
891.905336 87.922 -147.6255
898.368450 87.943 -147.2188
904.878398 87.966 -146.8120
911.435520 87.989 -146.4057
918.040157 88.014 -146.0005
924.692655 88.039 -145.5969
931.393359 88.066 -145.1948
938.142619 88.093 -144.7941
944.940787 88.122 -144.3948
951.788218 88.151 -143.9971
958.685268 88.181 -143.6018
965.632296 88.213 -143.2094
972.629666 88.244 -142.8202
979.677741 88.277 -142.4346
986.776890 88.310 -142.0526
993.927482 88.344 -141.6747
1001.129891 88.378 -141.3014
1008.384491 88.413 -140.9328
1015.691660 88.449 -140.5683
1023.051781 88.485 -140.2070
1030.465236 88.522 -139.8483
1037.932411 88.560 -139.4925
1045.453698 88.597 -139.1398
1053.029486 88.635 -138.7903
1060.660172 88.674 -138.4437
1068.346153 88.712 -138.0996
1076.087829 88.751 -137.7581
1083.885605 88.790 -137.4193
1091.739887 88.830 -137.0833
1099.651084 88.870 -136.7499
1107.619609 88.911 -136.4190
1115.645878 88.952 -136.0907
1123.730308 88.994 -135.7655
1131.873321 89.037 -135.4445
1140.075341 89.079 -135.1285
1148.336797 89.123 -134.8186
1156.658119 89.167 -134.5152
1165.039741 89.210 -134.2187
1173.482099 89.254 -133.9287
1181.985634 89.298 -133.6449
1190.550789 89.341 -133.3663
1199.178011 89.385 -133.0924
1207.867749 89.428 -132.8222
1216.620457 89.471 -132.5548
1225.436590 89.514 -132.2894
1234.316609 89.556 -132.0250
1243.260976 89.599 -131.7608
1252.270157 89.641 -131.4966
1261.344623 89.683 -131.2323
1270.484846 89.725 -130.9678
1279.691303 89.768 -130.7031
1288.964474 89.810 -130.4377
1298.304842 89.852 -130.1714
1307.712894 89.895 -129.9039
1317.189120 89.938 -129.6353
1326.734016 89.981 -129.3655
1336.348077 90.025 -129.0949
1346.031806 90.069 -128.8240
1355.785708 90.113 -128.5531
1365.610290 90.158 -128.2820
1375.506065 90.203 -128.0110
1385.473549 90.248 -127.7398
1395.513261 90.294 -127.4682
1405.625726 90.340 -127.1961
1415.811469 90.387 -126.9237
1426.071023 90.434 -126.6510
1436.404921 90.482 -126.3785
1446.813703 90.530 -126.1064
1457.297912 90.579 -125.8347
1467.858093 90.629 -125.5633
1478.494798 90.679 -125.2921
1489.208581 90.730 -125.0209
1500.000000 90.782 -124.7498
1510.869618 90.835 -124.4792
1521.818002 90.889 -124.2093
1532.845723 90.944 -123.9405
1543.953355 90.999 -123.6732
1555.141477 91.055 -123.4076
1566.410674 91.112 -123.1438
1577.761531 91.170 -122.8817
1589.194642 91.229 -122.6218
1600.710601 91.289 -122.3640
1612.310010 91.350 -122.1084
1623.993473 91.412 -121.8553
1635.761599 91.475 -121.6048
1647.615002 91.539 -121.3572
1659.554299 91.604 -121.1128
1671.580114 91.670 -120.8721
1683.693072 91.737 -120.6357
1695.893807 91.805 -120.4039
1708.182952 91.874 -120.1771
1720.561150 91.945 -119.9553
1733.029045 92.016 -119.7387
1745.587288 92.089 -119.5277
1758.236533 92.162 -119.3229
1770.977440 92.237 -119.1248
1783.810673 92.313 -118.9339
1796.736900 92.390 -118.7506
1809.756796 92.468 -118.5752
1822.871040 92.548 -118.4083
1836.080315 92.628 -118.2502
1849.385310 92.709 -118.1014
1862.786718 92.792 -117.9623
1876.285239 92.875 -117.8334
1889.881575 92.959 -117.7151
1903.576436 93.044 -117.6079
1917.370535 93.130 -117.5123
1931.264593 93.216 -117.4284
1945.259332 93.303 -117.3568
1959.355483 93.390 -117.2974
1973.553781 93.478 -117.2505
1987.854965 93.566 -117.2159
2002.259781 93.654 -117.1934
2016.768981 93.742 -117.1826
2031.383320 93.830 -117.1832
2046.103561 93.918 -117.1939
2060.930471 94.006 -117.2131
2075.864823 94.093 -117.2387
2090.907395 94.181 -117.2687
2106.058972 94.269 -117.3010
2121.320344 94.358 -117.3344
2136.692305 94.448 -117.3685
2152.175658 94.540 -117.4043
2167.771210 94.635 -117.4447
2183.479774 94.734 -117.4943
2199.302169 94.836 -117.5595
2215.239219 94.942 -117.6478
2231.291755 95.052 -117.7663
2247.460615 95.164 -117.9215
2263.746641 95.279 -118.1183
2280.150683 95.395 -118.3605
2296.673595 95.512 -118.6506
2313.316238 95.628 -118.9907
2330.079481 95.743 -119.3820
2346.964198 95.856 -119.8245
2363.971268 95.966 -120.3170
2381.101578 96.072 -120.8562
2398.356022 96.173 -121.4376
2415.735498 96.268 -122.0558
2433.240913 96.357 -122.7058
2450.873180 96.440 -123.3830
2468.633217 96.516 -124.0835
2486.521951 96.585 -124.8035
2504.540314 96.647 -125.5386
2522.689246 96.703 -126.2834
2540.969692 96.751 -127.0314
2559.382606 96.792 -127.7756
2577.928947 96.828 -128.5098
2596.609683 96.859 -129.2299
2615.425787 96.885 -129.9341
2634.378241 96.909 -130.6236
2653.468031 96.931 -131.3024
2672.696154 96.951 -131.9765
2692.063613 96.969 -132.6526
2711.571415 96.985 -133.3369
2731.220579 96.998 -134.0334
2751.012130 97.007 -134.7428
2770.947098 97.011 -135.4621
2791.026522 97.009 -136.1856
2811.251451 97.000 -136.9057
2831.622938 96.985 -137.6141
2852.142045 96.964 -138.3028
2872.809842 96.936 -138.9646
2893.627406 96.904 -139.5942
2914.595823 96.868 -140.1875
2935.716186 96.828 -140.7425
2956.989596 96.786 -141.2582
2978.417161 96.742 -141.7351
3000.000000 96.698 -142.1750
3021.739237 96.653 -142.5804
3043.636005 96.609 -142.9547
3065.691446 96.566 -143.3014
3087.906710 96.524 -143.6243
3110.282955 96.483 -143.9268
3132.821347 96.443 -144.2124
3155.523062 96.404 -144.4840
3178.389283 96.365 -144.7440
3201.421202 96.327 -144.9932
3224.620020 96.288 -145.2311
3247.986946 96.248 -145.4557
3271.523198 96.208 -145.6634
3295.230004 96.168 -145.8500
3319.108599 96.127 -146.0116
3343.160228 96.087 -146.1457
3367.386145 96.047 -146.2513
3391.787613 96.009 -146.3299
3416.365904 95.974 -146.3844
3441.122300 95.940 -146.4179
3466.058091 95.909 -146.4324
3491.174576 95.879 -146.4258
3516.473066 95.850 -146.3901
3541.954880 95.823 -146.3112
3567.621345 95.801 -146.1721
3593.473800 95.788 -145.9649
3619.513592 95.790 -145.7083
3645.742080 95.812 -145.4564
3672.160630 95.851 -145.2757
3698.770620 95.899 -145.2032
3725.573436 95.948 -145.2341
3752.570477 95.995 -145.3416
3779.763150 96.039 -145.4973
3807.152872 96.080 -145.6817
3834.741071 96.119 -145.8848
3862.529185 96.159 -146.1033
3890.518664 96.200 -146.3387
3918.710966 96.243 -146.5947
3947.107561 96.288 -146.8765
3975.709929 96.336 -147.1906
4004.519563 96.386 -147.5441
4033.537962 96.440 -147.9446
4062.766641 96.495 -148.3997
4092.207123 96.551 -148.9166
4121.860942 96.606 -149.5019
4151.729646 96.661 -150.1607
4181.814790 96.713 -150.8965
4212.117944 96.760 -151.7112
4242.640687 96.801 -152.6048
4273.384610 96.835 -153.5761
4304.351317 96.859 -154.6217
4335.542421 96.871 -155.7362
4366.959549 96.871 -156.9125
4398.604338 96.856 -158.1411
4430.478438 96.824 -159.4102
4462.583511 96.775 -160.7058
4494.921231 96.707 -162.0112
4527.493283 96.618 -163.3079
4560.301365 96.510 -164.5754
4593.347189 96.381 -165.7914
4626.632476 96.231 -166.9324
4660.158962 96.063 -167.9747
4693.928395 95.878 -168.8954
4727.942535 95.679 -169.6740
4762.203156 95.469 -170.2941
4796.712043 95.253 -170.7455
4831.470996 95.034 -171.0255
4866.481826 94.818 -171.1394
4901.746360 94.609 -171.1002
4937.266434 94.410 -170.9275
4973.043902 94.225 -170.6457
5009.080628 94.055 -170.2823
5045.378492 93.901 -169.8656
5081.939384 93.763 -169.4229
5118.765212 93.639 -168.9776
5155.857894 93.527 -168.5481
5193.219366 93.425 -168.1467
5230.851574 93.330 -167.7798
5268.756481 93.239 -167.4480
5306.936062 93.151 -167.1481
5345.392309 93.063 -166.8734
5384.127225 92.975 -166.6159
5423.142830 92.884 -166.3668
5462.441159 92.792 -166.1175
5502.024259 92.697 -165.8603
5541.894195 92.600 -165.5878
5582.053045 92.501 -165.2936
5622.502902 92.400 -164.9718
5663.245876 92.298 -164.6174
5704.284090 92.195 -164.2269
5745.619684 92.093 -163.7973
5787.254813 91.991 -163.3268
5829.191647 91.890 -162.8142
5871.432373 91.792 -162.2590
5913.979192 91.696 -161.6615
5956.834323 91.604 -161.0218
6000.000000 91.516 -160.3404
6043.478473 91.433 -159.6178
6087.272010 91.355 -158.8545
6131.382892 91.282 -158.0510
6175.813420 91.216 -157.2082
6220.565910 91.158 -156.3271
6265.642695 91.107 -155.4094
6311.046124 91.065 -154.4574
6356.778566 91.034 -153.4752
6402.842404 91.013 -152.4691
6449.240040 91.004 -151.4483
6495.973891 91.008 -150.4239
6543.046396 91.024 -149.4082
6590.460007 91.052 -148.4123
6638.217197 91.091 -147.4447
6686.320456 91.141 -146.5097
6734.772290 91.202 -145.6076
6783.575226 91.273 -144.7365
6832.731809 91.355 -143.8944
6882.244600 91.450 -143.0814
6932.116181 91.556 -142.3004
6982.349153 91.677 -141.5575
7032.946133 91.813 -140.8612
7083.909760 91.964 -140.2225
7135.242690 92.131 -139.6545
7186.947600 92.314 -139.1719
7239.027185 92.515 -138.7919
7291.484160 92.732 -138.5338
7344.321260 92.966 -138.4198
7397.541239 93.216 -138.4751
7451.146872 93.480 -138.7276
7505.140954 93.757 -139.2076
7559.526299 94.041 -139.9471
7614.305743 94.330 -140.9782
7669.482141 94.615 -142.3304
7725.058371 94.888 -144.0272
7781.037328 95.140 -146.0804
7837.421932 95.357 -148.4854
7894.215122 95.529 -151.2157
7951.419859 95.641 -154.2190
8009.039125 95.684 -157.4152
8067.075924 95.650 -160.6986
8125.533282 95.534 -163.9441
8184.414245 95.338 -167.0180
8243.721885 95.068 -169.7909
8303.459292 94.737 -172.1521
8363.629581 94.362 -174.0220
8424.235888 93.962 -175.3593
8485.281374 93.557 -176.1647
8546.769221 93.167 -176.4768
8608.702634 92.807 -176.3642
8671.084842 92.488 -175.9145
8733.919097 92.219 -175.2207
8797.208675 92.002 -174.3710
8860.956876 91.836 -173.4409
8925.167022 91.718 -172.4902
8989.842461 91.646 -171.5637
9054.986566 91.615 -170.6939
9120.602731 91.623 -169.9057
9186.694378 91.668 -169.2207
9253.264952 91.748 -168.6608
9320.317925 91.862 -168.2511
9387.856790 92.010 -168.0219
9455.885071 92.190 -168.0093
9524.406312 92.402 -168.2558
9593.424086 92.641 -168.8099
9662.941992 92.903 -169.7244
9732.963653 93.180 -171.0523
9803.492719 93.460 -172.8397
9874.532869 93.730 -175.1183
9946.087805 93.976 -177.8997
10018.161257 94.180 178.8278
10090.756983 94.324 175.1033
10163.878768 94.392 170.9975
10237.530423 94.370 166.6141
10311.715789 94.245 162.0866
10386.438732 94.013 157.5693
10461.703149 93.675 153.2220
10537.512962 93.238 149.1904
10613.872125 92.716 145.5849
10690.784618 92.128 142.4692
10768.254450 91.489 139.8625
10846.285661 90.815 137.7580
10924.882318 90.115 136.1505
11004.048518 89.392 135.0651
11083.788390 88.652 134.5667
11164.106090 87.907 134.7409
11245.005805 87.176 135.6546
11326.491752 86.491 137.3024
11408.568180 85.887 139.5502
11491.239368 85.394 142.1108
11574.509626 85.025 144.6006
11658.383294 84.761 146.6792
11742.864745 84.560 148.1823
11827.958384 84.375 149.1538
11913.668646 84.173 149.7769
12000.000000 83.935 150.2747
12086.956947 83.660 150.8390
12174.544019 83.358 151.6000
12262.765784 83.040 152.6246
12351.626840 82.723 153.9291
12441.131819 82.416 155.4958
12531.285389 82.131 157.2876
12622.092249 81.874 159.2593
12713.557132 81.650 161.3645
12805.684808 81.461 163.5588
12898.480079 81.308 165.8005
12991.947783 81.193 168.0502
13086.092792 81.113 170.2689
13180.920015 81.066 172.4199
13276.434395 81.049 174.4738
13372.640911 81.054 176.4188
13469.544580 81.077 178.2725
13567.150452 81.113 -179.9079
13665.463617 81.164 -178.0277
13764.489200 81.244 -175.9751
13864.232362 81.375 -173.6566
13964.698305 81.594 -171.0335
14065.892266 81.939 -168.1506
14167.819519 82.446 -165.1922
14270.485380 83.133 -162.5251
14373.895200 83.983 -160.6252
14478.054370 84.948 -159.9090
14582.968320 85.967 -160.6251
14688.642520 86.978 -162.8581
14795.082478 87.927 -166.5797
14902.293745 88.760 -171.6830
15010.281908 89.432 -177.9873
15119.052599 89.901 174.7717
15228.611486 90.141 166.9450
15338.964283 90.143 158.9445
15450.116741 89.920 151.1815
15562.074656 89.507 143.9938
15674.843864 88.957 137.5907
15788.430244 88.331 132.0297
15902.839718 87.695 127.2159
16018.078250 87.111 122.9188
16134.151848 86.621 118.8103
16251.066563 86.240 114.5266
16368.828491 85.946 109.7458
16487.443769 85.685 104.2638
16606.918584 85.382 98.0452
16727.259161 84.964 91.2422
16848.471777 84.371 84.1709
16970.562748 83.569 77.2449
17093.538442 82.549 70.8840
17217.405268 81.329 65.4376
17342.169684 79.937 61.1430
17467.838194 78.410 58.1173
17594.417350 76.788 56.3706
17721.913751 75.106 55.8412
17850.334044 73.396 56.4437
17979.684923 71.682 58.1123
18109.973131 69.983 60.8268
18241.205462 68.319 64.6149
18373.388756 66.707 69.5316
18506.529905 65.169 75.6199
18640.635849 63.736 82.8552
18775.713581 62.441 91.0700
18911.770141 61.321 99.8907
19048.812624 60.402 108.7612
19186.848172 59.689 117.0898
19325.883983 59.161 124.4330
19465.927305 58.777 130.5782
19606.985439 58.497 135.4967
19749.065738 58.290 139.2310
19892.175609 58.146 141.7914
20036.322514 58.071 143.1141
