* Measurement data measured by REW V5.31
* Source: EXCL: Microphone (USB Sound Device        ), MICROPHONE (Master Volume), L, volume: 0.560
* Format: 256k Log Swept Sine, 1 sweep at -9.0 dBFS with no timing reference
* Dated: Apr 16, 2024 5:23:05 PM
* REW Settings:
*  C-weighting compensation: Off
*  Target level: 75.0 dB
* Note: L KZ ZS10 PRO 2 1110 18
* Measurement: L KZ ZS10 PRO 2 1110 18
* Smoothing: 1/12 octave
* Frequency Step: 96 ppo
* Start Frequency: 0.36621094 Hz
*
* Freq(Hz) SPL(dB) Phase(degrees)
0.366211 85.001 157.3120
0.368865 84.995 157.2884
0.371538 84.986 157.2529
0.374230 84.975 157.2084
0.376942 84.962 157.1570
0.379673 84.948 157.1005
0.382424 84.934 157.0400
0.385196 84.919 156.9762
0.387987 84.904 156.9095
0.390798 84.889 156.8400
0.393630 84.873 156.7679
0.396483 84.858 156.6931
0.399356 84.842 156.6158
0.402250 84.826 156.5358
0.405165 84.810 156.4533
0.408101 84.794 156.3681
0.411058 84.778 156.2802
0.414037 84.762 156.1896
0.417037 84.746 156.0963
0.420059 84.729 156.0003
0.423103 84.713 155.9014
0.426169 84.696 155.7998
0.429257 84.679 155.6954
0.432368 84.662 155.5881
0.435501 84.645 155.4779
0.438656 84.628 155.3648
0.441835 84.611 155.2488
0.445037 84.593 155.1299
0.448262 84.576 155.0079
0.451510 84.558 154.8830
0.454782 84.540 154.7551
0.458077 84.522 154.6241
0.461397 84.504 154.4901
0.464740 84.486 154.3530
0.468108 84.468 154.2128
0.471500 84.449 154.0695
0.474917 84.431 153.9230
0.478358 84.412 153.7734
0.481825 84.393 153.6206
0.485316 84.374 153.4647
0.488833 84.355 153.3055
0.492375 84.336 153.1432
0.495943 84.316 152.9776
0.499537 84.297 152.8089
0.503157 84.277 152.6369
0.506803 84.257 152.4616
0.510475 84.237 152.2831
0.514175 84.217 152.1014
0.517900 84.197 151.9164
0.521653 84.176 151.7282
0.525434 84.156 151.5368
0.529241 84.135 151.3421
0.533076 84.114 151.1442
0.536939 84.093 150.9431
0.540830 84.072 150.7388
0.544749 84.051 150.5313
0.548696 84.029 150.3206
0.552673 84.008 150.1068
0.556677 83.986 149.8899
0.560711 83.964 149.6699
0.564774 83.942 149.4469
0.568867 83.919 149.2208
0.572989 83.897 148.9917
0.577141 83.874 148.7597
0.581324 83.852 148.5248
0.585536 83.829 148.2871
0.589779 83.806 148.0466
0.594053 83.782 147.8034
0.598358 83.759 147.5575
0.602694 83.735 147.3090
0.607061 83.711 147.0581
0.611460 83.688 146.8047
0.615891 83.663 146.5489
0.620354 83.639 146.2910
0.624849 83.615 146.0309
0.629377 83.590 145.7687
0.633938 83.565 145.5047
0.638532 83.540 145.2388
0.643159 83.515 144.9713
0.647819 83.490 144.7022
0.652514 83.464 144.4318
0.657242 83.438 144.1601
0.662005 83.412 143.8874
0.666802 83.386 143.6137
0.671634 83.360 143.3394
0.676501 83.333 143.0645
0.681403 83.307 142.7893
0.686341 83.280 142.5140
0.691314 83.253 142.2387
0.696324 83.225 141.9638
0.701370 83.198 141.6893
0.706452 83.170 141.4154
0.711571 83.141 141.1423
0.716728 83.111 140.8698
0.721921 83.081 140.5978
0.727153 83.048 140.3256
0.732422 83.014 140.0526
0.737729 82.977 139.7777
0.743075 82.938 139.4997
0.748460 82.897 139.2177
0.753883 82.855 138.9308
0.759346 82.812 138.6387
0.764849 82.768 138.3409
0.770391 82.723 138.0371
0.775974 82.678 137.7272
0.781597 82.632 137.4109
0.787261 82.586 137.0884
0.792966 82.539 136.7593
0.798712 82.491 136.4237
0.804500 82.443 136.0814
0.810329 82.394 135.7324
0.816201 82.345 135.3767
0.822116 82.294 135.0141
0.828073 82.243 134.6446
0.834074 82.192 134.2682
0.840118 82.139 133.8848
0.846206 82.086 133.4944
0.852338 82.032 133.0969
0.858514 81.976 132.6923
0.864735 81.920 132.2806
0.871001 81.863 131.8618
0.877313 81.805 131.4360
0.883670 81.746 131.0030
0.890074 81.685 130.5630
0.896524 81.624 130.1159
0.903020 81.561 129.6619
0.909564 81.497 129.2010
0.916155 81.432 128.7334
0.922794 81.365 128.2590
0.929481 81.297 127.7781
0.936216 81.227 127.2908
0.943000 81.156 126.7972
0.949834 81.083 126.2976
0.956717 81.008 125.7922
0.963649 80.932 125.2813
0.970632 80.854 124.7650
0.977666 80.774 124.2439
0.984750 80.692 123.7182
0.991886 80.608 123.1882
0.999074 80.522 122.6545
1.006314 80.434 122.1176
1.013606 80.343 121.5778
1.020951 80.250 121.0359
1.028349 80.155 120.4924
1.035801 80.057 119.9480
1.043307 79.957 119.4034
1.050867 79.854 118.8593
1.058482 79.748 118.3165
1.066152 79.639 117.7758
1.073878 79.527 117.2378
1.081660 79.412 116.7029
1.089498 79.294 116.1714
1.097393 79.171 115.6431
1.105345 79.046 115.1174
1.113355 78.915 114.5935
1.121423 78.781 114.0703
1.129549 78.643 113.5470
1.137734 78.500 113.0227
1.145979 78.352 112.4966
1.154283 78.200 111.9680
1.162647 78.044 111.4363
1.171072 77.884 110.9008
1.179558 77.719 110.3609
1.188106 77.551 109.8158
1.196715 77.378 109.2649
1.205387 77.202 108.7073
1.214122 77.022 108.1423
1.222920 76.838 107.5689
1.231782 76.651 106.9864
1.240708 76.461 106.3936
1.249699 76.267 105.7896
1.258754 76.071 105.1732
1.267876 75.871 104.5433
1.277063 75.669 103.8986
1.286318 75.465 103.2377
1.295639 75.258 102.5593
1.305027 75.050 101.8618
1.314484 74.839 101.1435
1.324009 74.627 100.4028
1.333604 74.414 99.6379
1.343268 74.199 98.8467
1.353002 73.984 98.0272
1.362806 73.768 97.1773
1.372681 73.552 96.2948
1.382628 73.335 95.3773
1.392647 73.119 94.4225
1.402739 72.904 93.4280
1.412904 72.689 92.3913
1.423142 72.475 91.3102
1.433455 72.262 90.1822
1.443843 72.050 89.0052
1.454305 71.837 87.7766
1.464844 71.623 86.4936
1.475459 71.405 85.1526
1.486150 71.184 83.7485
1.496920 70.957 82.2746
1.507767 70.723 80.7224
1.518693 70.483 79.0816
1.529698 70.236 77.3399
1.540783 69.984 75.4826
1.551948 69.726 73.4930
1.563194 69.464 71.3511
1.574521 69.198 69.0342
1.585931 68.930 66.5156
1.597423 68.660 63.7651
1.608999 68.390 60.7481
1.620658 68.122 57.4262
1.632402 67.855 53.7583
1.644232 67.593 49.7017
1.656146 67.335 45.2168
1.668147 67.084 40.2719
1.680235 66.842 34.8523
1.692411 66.610 28.9701
1.704675 66.389 22.6751
1.717028 66.182 16.0603
1.729470 65.991 9.2605
1.742003 65.818 2.4374
1.754626 65.665 -4.2430
1.767341 65.534 -10.6350
1.780147 65.428 -16.6322
1.793047 65.349 -22.1741
1.806040 65.301 -27.2441
1.819128 65.285 -31.8600
1.832310 65.304 -36.0623
1.845587 65.360 -39.9030
1.858961 65.455 -43.4345
1.872432 65.587 -46.7028
1.886001 65.756 -49.7450
1.899667 65.961 -52.5900
1.913433 66.199 -55.2604
1.927299 66.467 -57.7738
1.941265 66.762 -60.1441
1.955332 67.082 -62.3828
1.969501 67.422 -64.4993
1.983773 67.780 -66.5013
1.998148 68.152 -68.3956
2.012627 68.535 -70.1878
2.027212 68.923 -71.8826
2.041902 69.315 -73.4843
2.056698 69.705 -74.9962
2.071602 70.091 -76.4217
2.086614 70.469 -77.7633
2.101734 70.834 -79.0238
2.116964 71.183 -80.2057
2.132304 71.512 -81.3122
2.147756 71.820 -82.3473
2.163320 72.105 -83.3163
2.178996 72.364 -84.2267
2.194786 72.600 -85.0881
2.210690 72.813 -85.9117
2.226710 73.006 -86.7086
2.242845 73.181 -87.4877
2.259098 73.341 -88.2551
2.275468 73.487 -89.0139
2.291957 73.619 -89.7655
2.308566 73.740 -90.5094
2.325295 73.850 -91.2445
2.342145 73.950 -91.9686
2.359117 74.040 -92.6793
2.376212 74.122 -93.3737
2.393431 74.197 -94.0489
2.410775 74.265 -94.7013
2.428244 74.327 -95.3274
2.445840 74.384 -95.9237
2.463564 74.437 -96.4862
2.481416 74.488 -97.0116
2.499397 74.536 -97.4967
2.517509 74.581 -97.9391
2.535752 74.625 -98.3377
2.554127 74.667 -98.6931
2.572635 74.705 -99.0077
2.591277 74.739 -99.2851
2.610055 74.767 -99.5290
2.628968 74.789 -99.7424
2.648019 74.805 -99.9274
2.667208 74.814 -100.0849
2.686535 74.818 -100.2152
2.706003 74.817 -100.3181
2.725612 74.811 -100.3928
2.745363 74.803 -100.4384
2.765257 74.792 -100.4534
2.785295 74.779 -100.4365
2.805478 74.767 -100.3861
2.825808 74.755 -100.3005
2.846285 74.745 -100.1777
2.866910 74.738 -100.0157
2.887685 74.734 -99.8121
2.908611 74.734 -99.5646
2.929688 74.737 -99.2704
2.950917 74.742 -98.9270
2.972301 74.750 -98.5330
2.993839 74.759 -98.0880
3.015534 74.769 -97.5934
3.037386 74.781 -97.0519
3.059396 74.794 -96.4674
3.081565 74.810 -95.8445
3.103896 74.828 -95.1888
3.126388 74.850 -94.5065
3.149043 74.876 -93.8040
3.171862 74.908 -93.0879
3.194847 74.946 -92.3648
3.217998 74.991 -91.6406
3.241317 75.043 -90.9199
3.264805 75.105 -90.2053
3.288463 75.175 -89.4975
3.312293 75.255 -88.7948
3.336295 75.345 -88.0953
3.360471 75.445 -87.3985
3.384822 75.553 -86.7060
3.409350 75.670 -86.0221
3.434056 75.795 -85.3525
3.458940 75.925 -84.7038
3.484005 76.061 -84.0832
3.509252 76.201 -83.4977
3.534681 76.343 -82.9539
3.560295 76.487 -82.4576
3.586094 76.633 -82.0135
3.612081 76.778 -81.6251
3.638255 76.924 -81.2937
3.664620 77.070 -81.0189
3.691175 77.216 -80.7982
3.717923 77.364 -80.6283
3.744864 77.513 -80.5057
3.772001 77.663 -80.4272
3.799335 77.814 -80.3898
3.826866 77.965 -80.3911
3.854597 78.115 -80.4290
3.882529 78.263 -80.5017
3.910664 78.409 -80.6080
3.939002 78.551 -80.7470
3.967546 78.688 -80.9183
3.996296 78.821 -81.1223
4.025255 78.949 -81.3596
4.054423 79.072 -81.6310
4.083804 79.190 -81.9364
4.113396 79.302 -82.2745
4.143204 79.411 -82.6428
4.173227 79.514 -83.0374
4.203468 79.613 -83.4539
4.233928 79.707 -83.8879
4.264609 79.796 -84.3351
4.295512 79.881 -84.7918
4.326639 79.960 -85.2556
4.357992 80.034 -85.7254
4.389572 80.103 -86.2017
4.421380 80.166 -86.6863
4.453419 80.223 -87.1810
4.485691 80.275 -87.6862
4.518196 80.320 -88.2010
4.550936 80.361 -88.7224
4.583914 80.396 -89.2463
4.617131 80.426 -89.7682
4.650589 80.453 -90.2833
4.684289 80.474 -90.7873
4.718233 80.492 -91.2770
4.752424 80.506 -91.7508
4.786862 80.516 -92.2089
4.821549 80.521 -92.6522
4.856488 80.521 -93.0819
4.891680 80.518 -93.4982
4.927127 80.511 -93.9007
4.962831 80.502 -94.2880
4.998794 80.490 -94.6579
5.035017 80.477 -95.0080
5.071503 80.463 -95.3359
5.108253 80.448 -95.6392
5.145270 80.432 -95.9164
5.182555 80.417 -96.1671
5.220110 80.400 -96.3920
5.257937 80.384 -96.5928
5.296038 80.368 -96.7722
5.334415 80.353 -96.9332
5.373071 80.340 -97.0784
5.412006 80.330 -97.2104
5.451224 80.323 -97.3306
5.490725 80.319 -97.4397
5.530514 80.320 -97.5379
5.570590 80.324 -97.6256
5.610957 80.332 -97.7050
5.651616 80.344 -97.7799
5.692570 80.360 -97.8552
5.733821 80.380 -97.9367
5.775370 80.403 -98.0299
5.817221 80.430 -98.1393
5.859375 80.462 -98.2677
5.901834 80.497 -98.4164
5.944602 80.537 -98.5861
5.987679 80.580 -98.7776
6.031068 80.626 -98.9927
6.074771 80.674 -99.2336
6.118792 80.725 -99.5033
6.163131 80.776 -99.8043
6.207792 80.828 -100.1389
6.252776 80.881 -100.5081
6.298086 80.934 -100.9118
6.343725 80.987 -101.3488
6.389694 81.039 -101.8169
6.435996 81.091 -102.3137
6.482634 81.141 -102.8371
6.529610 81.189 -103.3853
6.576926 81.235 -103.9575
6.624585 81.279 -104.5532
6.672590 81.319 -105.1713
6.720942 81.357 -105.8100
6.769645 81.392 -106.4657
6.818700 81.425 -107.1343
6.868111 81.454 -107.8115
6.917881 81.480 -108.4938
6.968010 81.504 -109.1789
7.018504 81.525 -109.8653
7.069362 81.542 -110.5518
7.120590 81.557 -111.2364
7.172189 81.571 -111.9162
7.224161 81.582 -112.5876
7.276511 81.592 -113.2474
7.329239 81.601 -113.8931
7.382350 81.609 -114.5232
7.435845 81.617 -115.1373
7.489729 81.624 -115.7353
7.544002 81.633 -116.3170
7.598669 81.642 -116.8823
7.653732 81.653 -117.4307
7.709194 81.666 -117.9618
7.765058 81.681 -118.4759
7.821327 81.699 -118.9743
7.878004 81.720 -119.4590
7.935091 81.744 -119.9326
7.992592 81.771 -120.3977
8.050510 81.802 -120.8564
8.108847 81.837 -121.3104
8.167607 81.875 -121.7611
8.226793 81.917 -122.2105
8.286408 81.962 -122.6612
8.346454 82.010 -123.1158
8.406936 82.060 -123.5764
8.467856 82.113 -124.0444
8.529218 82.168 -124.5206
8.591024 82.225 -125.0052
8.653278 82.284 -125.4981
8.715983 82.343 -125.9995
8.779143 82.402 -126.5092
8.842760 82.461 -127.0269
8.906839 82.520 -127.5515
8.971381 82.578 -128.0815
9.036392 82.635 -128.6145
9.101873 82.691 -129.1487
9.167829 82.746 -129.6822
9.234263 82.799 -130.2132
9.301178 82.850 -130.7401
9.368578 82.900 -131.2607
9.436467 82.948 -131.7728
9.504847 82.994 -132.2744
9.573723 83.039 -132.7640
9.643099 83.083 -133.2406
9.712976 83.126 -133.7033
9.783361 83.168 -134.1515
9.854255 83.209 -134.5847
9.925663 83.249 -135.0027
9.997588 83.290 -135.4056
10.070035 83.330 -135.7942
10.143007 83.370 -136.1694
10.216507 83.410 -136.5325
10.290540 83.450 -136.8844
10.365109 83.491 -137.2263
10.440219 83.531 -137.5596
10.515873 83.572 -137.8857
10.592076 83.612 -138.2061
10.668830 83.653 -138.5219
10.746141 83.693 -138.8342
10.824012 83.732 -139.1435
10.902447 83.771 -139.4507
10.981451 83.809 -139.7562
11.061027 83.846 -140.0604
11.141180 83.882 -140.3632
11.221913 83.916 -140.6646
11.303232 83.949 -140.9644
11.385140 83.980 -141.2623
11.467641 84.010 -141.5582
11.550741 84.038 -141.8518
11.634442 84.064 -142.1430
11.718750 84.089 -142.4317
11.803669 84.113 -142.7179
11.889203 84.135 -143.0019
11.975357 84.156 -143.2840
12.062136 84.175 -143.5647
12.149543 84.193 -143.8446
12.237583 84.210 -144.1243
12.326262 84.226 -144.4045
12.415583 84.240 -144.6859
12.505552 84.253 -144.9692
12.596172 84.265 -145.2548
12.687449 84.276 -145.5432
12.779387 84.285 -145.8347
12.871992 84.293 -146.1294
12.965268 84.299 -146.4274
13.059220 84.304 -146.7285
13.153852 84.308 -147.0326
13.249170 84.311 -147.3395
13.345179 84.312 -147.6490
13.441884 84.312 -147.9610
13.539289 84.311 -148.2755
13.637401 84.310 -148.5926
13.736223 84.308 -148.9129
13.835761 84.306 -149.2368
13.936021 84.304 -149.5652
14.037007 84.302 -149.8990
14.138725 84.301 -150.2393
14.241180 84.299 -150.5871
14.344377 84.298 -150.9435
14.448323 84.297 -151.3093
14.553021 84.296 -151.6853
14.658478 84.295 -152.0717
14.764700 84.295 -152.4687
14.871691 84.294 -152.8757
14.979457 84.293 -153.2919
15.088005 84.291 -153.7163
15.197339 84.290 -154.1475
15.307465 84.288 -154.5837
15.418389 84.285 -155.0232
15.530117 84.283 -155.4642
15.642655 84.281 -155.9053
15.756008 84.278 -156.3449
15.870182 84.277 -156.7821
15.985184 84.276 -157.2160
16.101019 84.277 -157.6465
16.217694 84.278 -158.0733
16.335214 84.281 -158.4969
16.453586 84.286 -158.9178
16.572815 84.292 -159.3364
16.692909 84.299 -159.7533
16.813872 84.308 -160.1688
16.935713 84.318 -160.5831
17.058436 84.329 -160.9959
17.182048 84.340 -161.4069
17.306556 84.352 -161.8152
17.431967 84.364 -162.2198
17.558286 84.377 -162.6195
17.685521 84.389 -163.0132
17.813677 84.401 -163.3997
17.942762 84.413 -163.7779
18.072783 84.425 -164.1472
18.203746 84.436 -164.5071
18.335658 84.448 -164.8574
18.468526 84.459 -165.1981
18.602356 84.470 -165.5295
18.737156 84.480 -165.8521
18.872934 84.490 -166.1663
19.009695 84.499 -166.4726
19.147447 84.508 -166.7714
19.286197 84.515 -167.0631
19.425953 84.522 -167.3481
19.566721 84.528 -167.6265
19.708510 84.532 -167.8989
19.851326 84.535 -168.1655
19.995177 84.537 -168.4270
20.140070 84.537 -168.6839
20.286013 84.537 -168.9372
20.433014 84.535 -169.1876
20.581080 84.532 -169.4362
20.730219 84.527 -169.6839
20.880439 84.521 -169.9316
21.031747 84.514 -170.1800
21.184152 84.506 -170.4299
21.337661 84.496 -170.6819
21.492282 84.485 -170.9366
21.648024 84.474 -171.1945
21.804895 84.461 -171.4563
21.962902 84.447 -171.7228
22.122054 84.432 -171.9946
22.282360 84.417 -172.2727
22.443827 84.402 -172.5578
22.606464 84.385 -172.8503
22.770280 84.369 -173.1504
22.935283 84.352 -173.4581
23.101481 84.334 -173.7726
23.268884 84.316 -174.0932
23.437500 84.298 -174.4187
23.607338 84.280 -174.7479
23.778406 84.263 -175.0797
23.950714 84.245 -175.4131
24.124271 84.229 -175.7477
24.299086 84.213 -176.0835
24.475167 84.199 -176.4205
24.652524 84.186 -176.7590
24.831166 84.174 -177.0993
25.011103 84.164 -177.4413
25.192344 84.154 -177.7844
25.374898 84.145 -178.1277
25.558775 84.137 -178.4696
25.743984 84.129 -178.8082
25.930536 84.121 -179.1416
26.118439 84.113 -179.4679
26.307704 84.105 -179.7855
26.498341 84.098 179.9066
26.690359 84.091 179.6086
26.883768 84.084 179.3205
27.078579 84.078 179.0416
27.274801 84.072 178.7709
27.472446 84.065 178.5074
27.671522 84.059 178.2501
27.872042 84.052 177.9983
28.074014 84.044 177.7514
28.277450 84.035 177.5093
28.482360 84.025 177.2718
28.688755 84.013 177.0391
28.896645 84.000 176.8112
29.106042 83.985 176.5877
29.316957 83.970 176.3683
29.529400 83.953 176.1519
29.743382 83.935 175.9371
29.958915 83.916 175.7224
30.176009 83.897 175.5062
30.394677 83.876 175.2868
30.614929 83.855 175.0633
30.836778 83.833 174.8351
31.060234 83.810 174.6024
31.285309 83.786 174.3657
31.512015 83.762 174.1256
31.740364 83.737 173.8826
31.970368 83.713 173.6368
32.202039 83.689 173.3876
32.435388 83.665 173.1343
32.670428 83.642 172.8757
32.907171 83.620 172.6114
33.145630 83.598 172.3414
33.385817 83.577 172.0668
33.627745 83.555 171.7897
33.871425 83.533 171.5128
34.116871 83.511 171.2386
34.364096 83.489 170.9699
34.613113 83.468 170.7083
34.863934 83.446 170.4546
35.116572 83.426 170.2088
35.371041 83.405 169.9702
35.627354 83.386 169.7376
35.885525 83.366 169.5100
36.145566 83.347 169.2865
36.407492 83.328 169.0664
36.671316 83.308 168.8494
36.937051 83.288 168.6356
37.204712 83.267 168.4252
37.474313 83.244 168.2185
37.745867 83.221 168.0156
38.019389 83.198 167.8161
38.294893 83.173 167.6194
38.572394 83.148 167.4244
38.851905 83.122 167.2300
39.133442 83.096 167.0352
39.417019 83.069 166.8392
39.702651 83.041 166.6418
39.990353 83.013 166.4433
40.280140 82.985 166.2437
40.572026 82.956 166.0435
40.866028 82.927 165.8430
41.162160 82.898 165.6429
41.460438 82.868 165.4441
41.760877 82.839 165.2479
42.063494 82.809 165.0558
42.368303 82.780 164.8687
42.675322 82.751 164.6866
42.984565 82.723 164.5085
43.296048 82.695 164.3323
43.609789 82.669 164.1556
43.925804 82.643 163.9767
44.244108 82.616 163.7950
44.564719 82.589 163.6115
44.887654 82.561 163.4282
45.212928 82.532 163.2476
45.540560 82.502 163.0718
45.870565 82.472 162.9022
46.202962 82.441 162.7390
46.537768 82.410 162.5813
46.875000 82.380 162.4276
47.214676 82.350 162.2757
47.556813 82.321 162.1236
47.901429 82.293 161.9691
48.248542 82.264 161.8104
48.598171 82.236 161.6470
48.950334 82.207 161.4799
49.305048 82.177 161.3117
49.662333 82.146 161.1461
50.022206 82.114 160.9868
50.384688 82.081 160.8365
50.749796 82.048 160.6960
51.117550 82.016 160.5636
51.487969 81.984 160.4367
51.861072 81.953 160.3121
52.236879 81.922 160.1873
52.615409 81.891 160.0614
52.996681 81.859 159.9351
53.380717 81.827 159.8095
53.767536 81.794 159.6860
54.157158 81.762 159.5649
54.549603 81.729 159.4456
54.944892 81.696 159.3269
55.343045 81.665 159.2072
55.744084 81.633 159.0851
56.148028 81.603 158.9598
56.554900 81.572 158.8315
56.964720 81.542 158.7010
57.377510 81.511 158.5703
57.793291 81.481 158.4415
58.212085 81.450 158.3160
58.633914 81.419 158.1945
59.058799 81.389 158.0761
59.486764 81.358 157.9598
59.917829 81.326 157.8448
60.352019 81.294 157.7312
60.789354 81.261 157.6194
61.229859 81.227 157.5101
61.673556 81.191 157.4039
62.120468 81.155 157.3011
62.570618 81.118 157.2014
63.024031 81.080 157.1036
63.480729 81.043 157.0062
63.940736 81.005 156.9080
64.404077 80.968 156.8089
64.870776 80.931 156.7100
65.340856 80.894 156.6130
65.814343 80.857 156.5191
66.291261 80.822 156.4281
66.771635 80.787 156.3388
67.255489 80.754 156.2502
67.742850 80.720 156.1620
68.233743 80.687 156.0756
68.728193 80.653 155.9930
69.226226 80.619 155.9164
69.727867 80.585 155.8468
70.233144 80.550 155.7835
70.742083 80.515 155.7245
71.254709 80.480 155.6678
71.771050 80.445 155.6120
72.291132 80.409 155.5566
72.814984 80.373 155.5016
73.342631 80.337 155.4477
73.874102 80.300 155.3962
74.409424 80.263 155.3485
74.948626 80.227 155.3042
75.491734 80.192 155.2608
76.038779 80.158 155.2147
76.589787 80.125 155.1638
77.144788 80.092 155.1076
77.703811 80.060 155.0470
78.266885 80.028 154.9827
78.834039 79.995 154.9156
79.405303 79.962 154.8472
79.980706 79.929 154.7791
80.560280 79.896 154.7116
81.144053 79.862 154.6434
81.732056 79.827 154.5721
82.324320 79.792 154.4973
82.920876 79.755 154.4204
83.521755 79.716 154.3445
84.126988 79.675 154.2724
84.736607 79.633 154.2058
85.350643 79.590 154.1454
85.969129 79.546 154.0916
86.592097 79.502 154.0443
87.219579 79.458 154.0033
87.851608 79.414 153.9691
88.488217 79.371 153.9431
89.129439 79.328 153.9266
89.775308 79.286 153.9197
90.425856 79.244 153.9210
91.081119 79.204 153.9288
91.741131 79.163 153.9410
92.405925 79.123 153.9557
93.075536 79.083 153.9712
93.750000 79.043 153.9859
94.429351 79.002 153.9993
95.113625 78.961 154.0122
95.802858 78.920 154.0256
96.497085 78.880 154.0396
97.196342 78.840 154.0536
97.900667 78.801 154.0675
98.610096 78.762 154.0826
99.324665 78.723 154.1016
100.044413 78.684 154.1275
100.769376 78.645 154.1626
101.499592 78.606 154.2065
102.235100 78.567 154.2557
102.975938 78.529 154.3055
103.722144 78.492 154.3525
104.473757 78.455 154.3953
105.230817 78.418 154.4334
105.993363 78.382 154.4667
106.761435 78.346 154.4958
107.535072 78.310 154.5219
108.314315 78.274 154.5465
109.099206 78.239 154.5709
109.889783 78.203 154.5947
110.686090 78.168 154.6158
111.488167 78.132 154.6316
112.296056 78.096 154.6401
113.109800 78.059 154.6421
113.929440 78.021 154.6418
114.755020 77.982 154.6464
115.586582 77.942 154.6636
116.424170 77.901 154.6987
117.267827 77.860 154.7532
118.117598 77.819 154.8250
118.973527 77.778 154.9105
119.835658 77.736 155.0093
120.704037 77.693 155.1241
121.578708 77.650 155.2541
122.459718 77.607 155.3908
123.347111 77.567 155.5229
124.240935 77.528 155.6422
125.141236 77.490 155.7465
126.048061 77.453 155.8405
126.961458 77.416 155.9321
127.881473 77.379 156.0278
128.808154 77.343 156.1293
129.741551 77.308 156.2343
130.681712 77.273 156.3390
131.628686 77.239 156.4396
132.582521 77.204 156.5342
133.543269 77.168 156.6223
134.510979 77.132 156.7054
135.485701 77.095 156.7860
136.467486 77.058 156.8681
137.456386 77.020 156.9559
138.452451 76.983 157.0519
139.455735 76.947 157.1550
140.466288 76.910 157.2620
141.484165 76.874 157.3695
142.509418 76.838 157.4750
143.542100 76.802 157.5785
144.582265 76.766 157.6810
145.629968 76.729 157.7843
146.685262 76.693 157.8903
147.748204 76.655 158.0012
148.818849 76.616 158.1179
149.897251 76.577 158.2401
150.983469 76.537 158.3670
152.077557 76.496 158.4997
153.179574 76.456 158.6404
154.289576 76.416 158.7913
155.407622 76.379 158.9523
156.533770 76.344 159.1205
157.668078 76.312 159.2912
158.810606 76.281 159.4591
159.961413 76.251 159.6196
161.120559 76.221 159.7693
162.288105 76.191 159.9073
163.464112 76.160 160.0364
164.648640 76.127 160.1610
165.841752 76.092 160.2847
167.043510 76.056 160.4092
168.253976 76.019 160.5357
169.473213 75.983 160.6649
170.701286 75.949 160.7964
171.938258 75.918 160.9288
173.184194 75.890 161.0626
174.439158 75.863 161.2025
175.703216 75.836 161.3561
176.976434 75.807 161.5312
178.258878 75.774 161.7320
179.550615 75.738 161.9533
180.851713 75.701 162.1815
182.162239 75.664 162.4012
183.482262 75.629 162.6036
184.811850 75.596 162.7878
186.151073 75.564 162.9591
187.500000 75.533 163.1251
188.858702 75.502 163.2914
190.227250 75.471 163.4612
191.605715 75.439 163.6352
192.994169 75.406 163.8129
194.392685 75.373 163.9948
195.801334 75.339 164.1826
197.220191 75.306 164.3780
198.649330 75.274 164.5812
200.088825 75.242 164.7921
201.538751 75.212 165.0089
202.999184 75.181 165.2284
204.470200 75.152 165.4460
205.951875 75.123 165.6568
207.444287 75.093 165.8578
208.947514 75.064 166.0494
210.461634 75.035 166.2358
211.986726 75.004 166.4238
213.522869 74.973 166.6205
215.070144 74.941 166.8307
216.628631 74.908 167.0576
218.198411 74.875 167.3014
219.779567 74.844 167.5593
221.372180 74.816 167.8261
222.976334 74.790 168.0971
224.592112 74.766 168.3672
226.219600 74.744 168.6302
227.858880 74.722 168.8791
229.510039 74.699 169.1096
231.173164 74.675 169.3237
232.848340 74.649 169.5287
234.535655 74.622 169.7336
236.235197 74.595 169.9444
237.947054 74.569 170.1620
239.671317 74.543 170.3839
241.408074 74.516 170.6076
243.157416 74.489 170.8323
244.919435 74.461 171.0605
246.694223 74.431 171.2986
248.481871 74.402 171.5526
250.282473 74.372 171.8252
252.096123 74.344 172.1150
253.922915 74.319 172.4168
255.762945 74.297 172.7223
257.616309 74.278 173.0213
259.483103 74.262 173.3065
261.363424 74.248 173.5763
263.257372 74.233 173.8334
265.165043 74.217 174.0826
267.086538 74.199 174.3292
269.021957 74.180 174.5779
270.971401 74.160 174.8319
272.934972 74.140 175.0923
274.912771 74.120 175.3575
276.904902 74.100 175.6255
278.911469 74.081 175.8950
280.932577 74.063 176.1653
282.968330 74.046 176.4351
285.018835 74.032 176.7005
287.084199 74.020 176.9555
289.164530 74.010 177.1934
291.259935 74.000 177.4123
293.370525 73.988 177.6172
295.496408 73.974 177.8181
297.637697 73.956 178.0250
299.794503 73.937 178.2454
301.966937 73.916 178.4811
304.155114 73.895 178.7296
306.359147 73.875 178.9853
308.579152 73.854 179.2419
310.815244 73.834 179.4942
313.067539 73.814 179.7393
315.336156 73.792 179.9781
317.621211 73.770 -179.7841
319.922826 73.748 -179.5395
322.241118 73.725 -179.2812
324.576210 73.703 -179.0066
326.928223 73.682 -178.7177
329.297280 73.662 -178.4197
331.683504 73.643 -178.1182
334.087019 73.625 -177.8175
336.507952 73.607 -177.5205
338.946427 73.589 -177.2296
341.402572 73.570 -176.9457
343.876516 73.551 -176.6672
346.368387 73.532 -176.3899
348.878315 73.513 -176.1092
351.406431 73.494 -175.8222
353.952867 73.475 -175.5288
356.517756 73.457 -175.2314
359.101230 73.438 -174.9323
361.703426 73.420 -174.6328
364.324478 73.402 -174.3322
366.964523 73.384 -174.0296
369.623699 73.366 -173.7244
372.302145 73.348 -173.4153
375.000000 73.331 -173.1015
377.717405 73.313 -172.7827
380.454501 73.295 -172.4588
383.211431 73.277 -172.1288
385.988339 73.259 -171.7926
388.785369 73.241 -171.4524
391.602668 73.224 -171.1115
394.440383 73.207 -170.7739
397.298660 73.192 -170.4420
400.177650 73.177 -170.1148
403.077502 73.163 -169.7888
405.998368 73.149 -169.4609
408.940400 73.135 -169.1302
411.903750 73.121 -168.7969
414.888575 73.107 -168.4600
417.895028 73.092 -168.1167
420.923268 73.078 -167.7638
423.973452 73.064 -167.4001
427.045738 73.051 -167.0280
430.140287 73.041 -166.6527
433.257261 73.032 -166.2796
436.396822 73.026 -165.9122
439.559133 73.020 -165.5498
442.744360 73.014 -165.1909
445.952668 73.010 -164.8363
449.184225 73.006 -164.4902
452.439199 73.001 -164.1586
455.717760 72.997 -163.8448
459.020079 72.989 -163.5460
462.346327 72.979 -163.2517
465.696680 72.967 -162.9497
469.071310 72.952 -162.6320
472.470394 72.936 -162.2971
475.894109 72.920 -161.9483
479.342634 72.905 -161.5902
482.816148 72.892 -161.2270
486.314833 72.878 -160.8603
489.838871 72.863 -160.4875
493.388445 72.847 -160.1039
496.963741 72.832 -159.7087
500.564945 72.819 -159.3071
504.192245 72.808 -158.9061
507.845830 72.799 -158.5107
511.525890 72.790 -158.1226
515.232618 72.782 -157.7403
518.966206 72.773 -157.3591
522.726849 72.762 -156.9726
526.514743 72.749 -156.5748
530.330086 72.737 -156.1633
534.173076 72.726 -155.7414
538.043915 72.715 -155.3153
541.942803 72.706 -154.8891
545.869944 72.697 -154.4632
549.825542 72.688 -154.0364
553.809805 72.681 -153.6081
557.822939 72.675 -153.1796
561.865154 72.671 -152.7529
565.936660 72.666 -152.3281
570.037671 72.661 -151.9021
574.168399 72.655 -151.4705
578.329060 72.648 -151.0319
582.519870 72.642 -150.5880
586.741049 72.636 -150.1405
590.992817 72.630 -149.6875
595.275394 72.624 -149.2253
599.589005 72.619 -148.7539
603.933874 72.615 -148.2777
608.310228 72.612 -147.8006
612.718295 72.609 -147.3242
617.158304 72.606 -146.8455
621.630488 72.601 -146.3587
626.135079 72.596 -145.8587
630.672311 72.590 -145.3444
635.242423 72.587 -144.8204
639.845651 72.585 -144.2931
644.482237 72.586 -143.7639
649.152421 72.590 -143.2311
653.856447 72.597 -142.6950
658.594560 72.607 -142.1611
663.367008 72.619 -141.6401
668.174039 72.632 -141.1413
673.015903 72.646 -140.6649
677.892854 72.658 -140.2029
682.805145 72.669 -139.7459
687.753032 72.679 -139.2871
692.736774 72.687 -138.8211
697.756631 72.694 -138.3430
702.812863 72.700 -137.8494
707.905735 72.707 -137.3421
713.035511 72.714 -136.8262
718.202461 72.722 -136.3058
723.406852 72.729 -135.7814
728.648956 72.737 -135.2520
733.929047 72.746 -134.7174
739.247399 72.755 -134.1795
744.604290 72.765 -133.6393
750.000000 72.776 -133.0959
755.434809 72.788 -132.5477
760.909001 72.802 -131.9924
766.422861 72.816 -131.4290
771.976677 72.832 -130.8577
777.570739 72.849 -130.2804
783.205337 72.867 -129.6992
788.880766 72.886 -129.1143
794.597321 72.907 -128.5249
800.355301 72.929 -127.9315
806.155005 72.955 -127.3383
811.996736 72.984 -126.7536
817.880799 73.017 -126.1867
823.807501 73.051 -125.6455
829.777150 73.085 -125.1343
835.790057 73.116 -124.6490
841.846536 73.143 -124.1750
847.946903 73.165 -123.6933
854.091476 73.185 -123.1912
860.280575 73.204 -122.6682
866.514523 73.224 -122.1309
872.793644 73.246 -121.5844
879.118267 73.268 -121.0305
885.488720 73.290 -120.4668
891.905336 73.312 -119.8865
898.368450 73.336 -119.2837
904.878398 73.362 -118.6587
911.435520 73.391 -118.0202
918.040157 73.426 -117.3803
924.692655 73.465 -116.7474
931.393359 73.508 -116.1259
938.142619 73.552 -115.5177
944.940787 73.598 -114.9236
951.788218 73.643 -114.3422
958.685268 73.688 -113.7709
965.632296 73.732 -113.2058
972.629666 73.776 -112.6430
979.677741 73.820 -112.0805
986.776890 73.865 -111.5189
993.927482 73.910 -110.9589
1001.129891 73.956 -110.3980
1008.384491 74.005 -109.8318
1015.691660 74.057 -109.2589
1023.051781 74.112 -108.6817
1030.465236 74.172 -108.1076
1037.932411 74.235 -107.5489
1045.453698 74.301 -107.0195
1053.029486 74.368 -106.5248
1060.660172 74.433 -106.0603
1068.346153 74.496 -105.6164
1076.087829 74.556 -105.1832
1083.885605 74.615 -104.7541
1091.739887 74.672 -104.3262
1099.651084 74.728 -103.8992
1107.619609 74.784 -103.4727
1115.645878 74.839 -103.0462
1123.730308 74.893 -102.6190
1131.873321 74.946 -102.1904
1140.075341 74.999 -101.7599
1148.336797 75.052 -101.3268
1156.658119 75.105 -100.8901
1165.039741 75.157 -100.4481
1173.482099 75.211 -99.9995
1181.985634 75.266 -99.5451
1190.550789 75.324 -99.0909
1199.178011 75.385 -98.6484
1207.867749 75.448 -98.2304
1216.620457 75.511 -97.8434
1225.436590 75.572 -97.4843
1234.316609 75.631 -97.1444
1243.260976 75.687 -96.8145
1252.270157 75.739 -96.4867
1261.344623 75.789 -96.1561
1270.484846 75.836 -95.8195
1279.691303 75.882 -95.4728
1288.964474 75.927 -95.1132
1298.304842 75.972 -94.7411
1307.712894 76.016 -94.3603
1317.189120 76.060 -93.9760
1326.734016 76.104 -93.5924
1336.348077 76.148 -93.2106
1346.031806 76.190 -92.8277
1355.785708 76.231 -92.4385
1365.610290 76.270 -92.0374
1375.506065 76.309 -91.6182
1385.473549 76.349 -91.1751
1395.513261 76.390 -90.7075
1405.625726 76.435 -90.2217
1415.811469 76.484 -89.7309
1426.071023 76.536 -89.2514
1436.404921 76.590 -88.7929
1446.813703 76.644 -88.3549
1457.297912 76.698 -87.9301
1467.858093 76.750 -87.5105
1478.494798 76.801 -87.0916
1489.208581 76.850 -86.6709
1500.000000 76.899 -86.2463
1510.869618 76.947 -85.8147
1521.818002 76.994 -85.3718
1532.845723 77.042 -84.9141
1543.953355 77.090 -84.4399
1555.141477 77.141 -83.9499
1566.410674 77.195 -83.4493
1577.761531 77.252 -82.9501
1589.194642 77.313 -82.4665
1600.710601 77.376 -82.0074
1612.310010 77.439 -81.5727
1623.993473 77.500 -81.1563
1635.761599 77.560 -80.7500
1647.615002 77.619 -80.3469
1659.554299 77.676 -79.9414
1671.580114 77.733 -79.5299
1683.693072 77.789 -79.1123
1695.893807 77.846 -78.6915
1708.182952 77.902 -78.2703
1720.561150 77.957 -77.8486
1733.029045 78.011 -77.4229
1745.587288 78.063 -76.9878
1758.236533 78.115 -76.5364
1770.977440 78.168 -76.0625
1783.810673 78.223 -75.5665
1796.736900 78.283 -75.0577
1809.756796 78.346 -74.5514
1822.871040 78.413 -74.0587
1836.080315 78.482 -73.5833
1849.385310 78.551 -73.1236
1862.786718 78.620 -72.6758
1876.285239 78.689 -72.2351
1889.881575 78.757 -71.7951
1903.576436 78.824 -71.3496
1917.370535 78.892 -70.8927
1931.264593 78.961 -70.4213
1945.259332 79.032 -69.9377
1959.355483 79.108 -69.4526
1973.553781 79.189 -68.9811
1987.854965 79.272 -68.5340
2002.259781 79.356 -68.1137
2016.768981 79.441 -67.7171
2031.383320 79.524 -67.3397
2046.103561 79.606 -66.9767
2060.930471 79.688 -66.6240
2075.864823 79.768 -66.2797
2090.907395 79.848 -65.9428
2106.058972 79.926 -65.6117
2121.320344 80.003 -65.2814
2136.692305 80.078 -64.9437
2152.175658 80.153 -64.5899
2167.771210 80.228 -64.2181
2183.479774 80.307 -63.8364
2199.302169 80.389 -63.4579
2215.239219 80.473 -63.0936
2231.291755 80.560 -62.7485
2247.460615 80.647 -62.4229
2263.746641 80.733 -62.1130
2280.150683 80.819 -61.8124
2296.673595 80.904 -61.5130
2313.316238 80.989 -61.2079
2330.079481 81.077 -60.8956
2346.964198 81.168 -60.5844
2363.971268 81.263 -60.2880
2381.101578 81.361 -60.0177
2398.356022 81.460 -59.7795
2415.735498 81.558 -59.5738
2433.240913 81.656 -59.3976
2450.873180 81.753 -59.2476
2468.633217 81.848 -59.1213
2486.521951 81.940 -59.0159
2504.540314 82.029 -58.9252
2522.689246 82.116 -58.8400
2540.969692 82.200 -58.7507
2559.382606 82.284 -58.6546
2577.928947 82.369 -58.5580
2596.609683 82.456 -58.4709
2615.425787 82.542 -58.4018
2634.378241 82.629 -58.3548
2653.468031 82.714 -58.3285
2672.696154 82.797 -58.3171
2692.063613 82.878 -58.3125
2711.571415 82.960 -58.3096
2731.220579 83.043 -58.3121
2751.012130 83.128 -58.3310
2770.947098 83.214 -58.3776
2791.026522 83.301 -58.4597
2811.251451 83.386 -58.5801
2831.622938 83.469 -58.7390
2852.142045 83.549 -58.9361
2872.809842 83.625 -59.1697
2893.627406 83.695 -59.4339
2914.595823 83.759 -59.7189
2935.716186 83.819 -60.0157
2956.989596 83.873 -60.3225
2978.417161 83.925 -60.6438
3000.000000 83.972 -60.9857
3021.739237 84.014 -61.3522
3043.636005 84.051 -61.7420
3065.691446 84.080 -62.1482
3087.906710 84.102 -62.5613
3110.282955 84.117 -62.9754
3132.821347 84.127 -63.3920
3155.523062 84.132 -63.8161
3178.389283 84.130 -64.2520
3201.421202 84.120 -64.7004
3224.620020 84.102 -65.1590
3247.986946 84.073 -65.6232
3271.523198 84.033 -66.0834
3295.230004 83.979 -66.5234
3319.108599 83.913 -66.9231
3343.160228 83.835 -67.2662
3367.386145 83.748 -67.5433
3391.787613 83.652 -67.7500
3416.365904 83.550 -67.8824
3441.122300 83.442 -67.9333
3466.058091 83.328 -67.8919
3491.174576 83.213 -67.7488
3516.473066 83.099 -67.5032
3541.954880 82.990 -67.1642
3567.621345 82.887 -66.7479
3593.473800 82.793 -66.2724
3619.513592 82.707 -65.7564
3645.742080 82.629 -65.2163
3672.160630 82.558 -64.6621
3698.770620 82.493 -64.0959
3725.573436 82.432 -63.5178
3752.570477 82.378 -62.9316
3779.763150 82.328 -62.3449
3807.152872 82.282 -61.7649
3834.741071 82.239 -61.1929
3862.529185 82.197 -60.6231
3890.518664 82.156 -60.0489
3918.710966 82.118 -59.4690
3947.107561 82.083 -58.8882
3975.709929 82.050 -58.3149
4004.519563 82.020 -57.7593
4033.537962 81.990 -57.2294
4062.766641 81.960 -56.7259
4092.207123 81.926 -56.2407
4121.860942 81.888 -55.7629
4151.729646 81.847 -55.2857
4181.814790 81.801 -54.8053
4212.117944 81.750 -54.3157
4242.640687 81.692 -53.8039
4273.384610 81.629 -53.2533
4304.351317 81.561 -52.6506
4335.542421 81.491 -51.9894
4366.959549 81.420 -51.2694
4398.604338 81.350 -50.4948
4430.478438 81.281 -49.6709
4462.583511 81.215 -48.7969
4494.921231 81.150 -47.8657
4527.493283 81.089 -46.8701
4560.301365 81.032 -45.8076
4593.347189 80.983 -44.6782
4626.632476 80.942 -43.4791
4660.158962 80.911 -42.2070
4693.928395 80.896 -40.8657
4727.942535 80.900 -39.4725
4762.203156 80.926 -38.0590
4796.712043 80.975 -36.6684
4831.470996 81.048 -35.3474
4866.481826 81.141 -34.1364
4901.746360 81.250 -33.0670
4937.266434 81.370 -32.1641
4973.043902 81.494 -31.4442
5009.080628 81.615 -30.9088
5045.378492 81.727 -30.5417
5081.939384 81.825 -30.3154
5118.765212 81.906 -30.1983
5155.857894 81.969 -30.1609
5193.219366 82.012 -30.1787
5230.851574 82.035 -30.2290
5268.756481 82.039 -30.2887
5306.936062 82.023 -30.3359
5345.392309 81.990 -30.3539
5384.127225 81.940 -30.3284
5423.142830 81.874 -30.2431
5462.441159 81.793 -30.0788
5502.024259 81.701 -29.8179
5541.894195 81.599 -29.4497
5582.053045 81.493 -28.9732
5622.502902 81.384 -28.3944
5663.245876 81.276 -27.7210
5704.284090 81.169 -26.9615
5745.619684 81.065 -26.1266
5787.254813 80.965 -25.2261
5829.191647 80.868 -24.2642
5871.432373 80.774 -23.2384
5913.979192 80.684 -22.1437
5956.834323 80.600 -20.9781
6000.000000 80.524 -19.7457
6043.478473 80.456 -18.4539
6087.272010 80.399 -17.1129
6131.382892 80.354 -15.7363
6175.813420 80.322 -14.3401
6220.565910 80.301 -12.9373
6265.642695 80.292 -11.5355
6311.046124 80.294 -10.1397
6356.778566 80.308 -8.7581
6402.842404 80.335 -7.4051
6449.240040 80.374 -6.0998
6495.973891 80.424 -4.8646
6543.046396 80.484 -3.7234
6590.460007 80.550 -2.6957
6638.217197 80.616 -1.7899
6686.320456 80.678 -1.0004
6734.772290 80.731 -0.3096
6783.575226 80.771 0.3081
6832.731809 80.797 0.8843
6882.244600 80.808 1.4532
6932.116181 80.805 2.0464
6982.349153 80.791 2.6897
7032.946133 80.769 3.4034
7083.909760 80.744 4.2011
7135.242690 80.721 5.0862
7186.947600 80.703 6.0503
7239.027185 80.697 7.0741
7291.484160 80.704 8.1286
7344.321260 80.726 9.1777
7397.541239 80.762 10.1849
7451.146872 80.810 11.1220
7505.140954 80.868 11.9709
7559.526299 80.932 12.7207
7614.305743 80.999 13.3643
7669.482141 81.068 13.8960
7725.058371 81.135 14.3083
7781.037328 81.197 14.5939
7837.421932 81.250 14.7526
7894.215122 81.290 14.7950
7951.419859 81.312 14.7403
8009.039125 81.314 14.6139
8067.075924 81.294 14.4427
8125.533282 81.254 14.2495
8184.414245 81.191 14.0524
8243.721885 81.106 13.8712
8303.459292 80.999 13.7309
8363.629581 80.869 13.6610
8424.235888 80.719 13.6926
8485.281374 80.552 13.8526
8546.769221 80.372 14.1572
8608.702634 80.183 14.6121
8671.084842 79.988 15.2187
8733.919097 79.791 15.9790
8797.208675 79.594 16.8983
8860.956876 79.402 17.9827
8925.167022 79.218 19.2313
8989.842461 79.048 20.6319
9054.986566 78.894 22.1648
9120.602731 78.761 23.8088
9186.694378 78.650 25.5461
9253.264952 78.563 27.3631
9320.317925 78.503 29.2446
9387.856790 78.473 31.1670
9455.885071 78.476 33.0997
9524.406312 78.512 35.0082
9593.424086 78.581 36.8585
9662.941992 78.685 38.6186
9732.963653 78.824 40.2525
9803.492719 78.996 41.7149
9874.532869 79.202 42.9530
9946.087805 79.436 43.9136
10018.161257 79.691 44.5525
10090.756983 79.961 44.8370
10163.878768 80.238 44.7425
10237.530423 80.511 44.2501
10311.715789 80.770 43.3502
10386.438732 81.004 42.0498
10461.703149 81.201 40.3776
10537.512962 81.351 38.3808
10613.872125 81.448 36.1166
10690.784618 81.485 33.6453
10768.254450 81.459 31.0293
10846.285661 81.367 28.3351
10924.882318 81.209 25.6313
11004.048518 80.986 22.9831
11083.788390 80.703 20.4465
11164.106090 80.363 18.0678
11245.005805 79.971 15.8882
11326.491752 79.532 13.9474
11408.568180 79.052 12.2799
11491.239368 78.538 10.9107
11574.509626 77.997 9.8521
11658.383294 77.438 9.1076
11742.864745 76.866 8.6760
11827.958384 76.289 8.5509
11913.668646 75.712 8.7172
12000.000000 75.142 9.1501
12086.956947 74.583 9.8228
12174.544019 74.039 10.7106
12262.765784 73.514 11.7878
12351.626840 73.010 13.0219
12441.131819 72.531 14.3757
12531.285389 72.076 15.8150
12622.092249 71.648 17.3115
12713.557132 71.245 18.8374
12805.684808 70.868 20.3609
12898.480079 70.517 21.8483
12991.947783 70.190 23.2702
13086.092792 69.884 24.6023
13180.920015 69.598 25.8221
13276.434395 69.327 26.9118
13372.640911 69.066 27.8687
13469.544580 68.812 28.7117
13567.150452 68.563 29.4733
13665.463617 68.322 30.1800
13764.489200 68.096 30.8235
13864.232362 67.892 31.3411
13964.698305 67.708 31.6405
14065.892266 67.534 31.6607
14167.819519 67.359 31.3983
14270.485380 67.173 30.8931
14373.895200 66.971 30.1976
14478.054370 66.752 29.3569
14582.968320 66.517 28.4044
14688.642520 66.265 27.3666
14795.082478 65.994 26.2668
14902.293745 65.702 25.1351
15010.281908 65.385 24.0268
15119.052599 65.041 23.0377
15228.611486 64.674 22.3014
15338.964283 64.300 21.9604
15450.116741 63.944 22.1256
15562.074656 63.646 22.8507
15674.843864 63.449 24.1352
15788.430244 63.403 25.9334
15902.839718 63.554 28.1190
16018.078250 63.936 30.3899
16134.151848 64.539 32.1987
16251.066563 65.295 32.8731
16368.828491 66.099 31.9432
16487.443769 66.852 29.4003
16606.918584 67.500 25.6300
16727.259161 68.040 21.1097
16848.471777 68.490 16.1840
16970.562748 68.876 11.0220
17093.538442 69.211 5.6687
17217.405268 69.494 0.1148
17342.169684 69.716 -5.6501
17467.838194 69.860 -11.6055
17594.417350 69.911 -17.6886
17721.913751 69.855 -23.7982
17850.334044 69.685 -29.8089
17979.684923 69.401 -35.5840
18109.973131 69.005 -40.9827
18241.205462 68.508 -45.8682
18373.388756 67.928 -50.1184
18506.529905 67.289 -53.6460
18640.635849 66.625 -56.4397
18775.713581 65.975 -58.6164
18911.770141 65.370 -60.4335
19048.812624 64.817 -62.2034
19186.848172 64.293 -64.1349
19325.883983 63.762 -66.2365
19465.927305 63.201 -68.3584
19606.985439 62.621 -70.2964
19749.065738 62.067 -71.8725
19892.175609 61.619 -72.9668
20036.322514 61.364 -73.5212
