* Measurement data measured by REW V5.31
* Source: EXCL: Microphone (USB Sound Device        ), MICROPHONE (Master Volume), L, volume: 0.560
* Format: 256k Log Swept Sine, 1 sweep at -9.0 dBFS with no timing reference
* Dated: Apr 17, 2024 12:53:21 AM
* REW Settings:
*  C-weighting compensation: Off
*  Target level: 75.0 dB
* Note: zs10
* Measurement: L Apr 17
* Smoothing: 1/12 octave
* Frequency Step: 96 ppo
* Start Frequency: 0.36621094 Hz
*
* Freq(Hz) SPL(dB) Phase(degrees)
0.366211 82.535 157.0853
0.368865 82.529 157.0612
0.371538 82.519 157.0250
0.374230 82.507 156.9794
0.376942 82.494 156.9270
0.379673 82.480 156.8693
0.382424 82.465 156.8075
0.385196 82.450 156.7423
0.387987 82.434 156.6741
0.390798 82.418 156.6030
0.393630 82.402 156.5293
0.396483 82.386 156.4530
0.399356 82.370 156.3739
0.402250 82.354 156.2922
0.405165 82.338 156.2078
0.408101 82.321 156.1208
0.411058 82.304 156.0309
0.414037 82.287 155.9383
0.417037 82.271 155.8430
0.420059 82.254 155.7448
0.423103 82.236 155.6437
0.426169 82.219 155.5398
0.429257 82.202 155.4330
0.432368 82.184 155.3233
0.435501 82.167 155.2106
0.438656 82.149 155.0950
0.441835 82.131 154.9763
0.445037 82.113 154.8546
0.448262 82.095 154.7299
0.451510 82.076 154.6021
0.454782 82.058 154.4712
0.458077 82.039 154.3371
0.461397 82.021 154.2000
0.464740 82.002 154.0596
0.468108 81.983 153.9161
0.471500 81.964 153.7693
0.474917 81.944 153.6194
0.478358 81.925 153.4662
0.481825 81.905 153.3097
0.485316 81.886 153.1499
0.488833 81.866 152.9869
0.492375 81.846 152.8206
0.495943 81.826 152.6509
0.499537 81.806 152.4779
0.503157 81.785 152.3016
0.506803 81.765 152.1219
0.510475 81.744 151.9389
0.514175 81.723 151.7525
0.517900 81.702 151.5628
0.521653 81.681 151.3697
0.525434 81.660 151.1733
0.529241 81.638 150.9735
0.533076 81.617 150.7703
0.536939 81.595 150.5638
0.540830 81.573 150.3540
0.544749 81.551 150.1409
0.548696 81.529 149.9245
0.552673 81.506 149.7048
0.556677 81.484 149.4819
0.560711 81.461 149.2557
0.564774 81.438 149.0263
0.568867 81.415 148.7938
0.572989 81.392 148.5581
0.577141 81.368 148.3194
0.581324 81.345 148.0776
0.585536 81.321 147.8328
0.589779 81.297 147.5851
0.594053 81.273 147.3345
0.598358 81.249 147.0811
0.602694 81.224 146.8249
0.607061 81.200 146.5661
0.611460 81.175 146.3047
0.615891 81.150 146.0408
0.620354 81.125 145.7744
0.624849 81.099 145.5058
0.629377 81.074 145.2349
0.633938 81.048 144.9620
0.638532 81.022 144.6870
0.643159 80.996 144.4102
0.647819 80.970 144.1317
0.652514 80.943 143.8517
0.657242 80.917 143.5702
0.662005 80.890 143.2874
0.666802 80.863 143.0035
0.671634 80.836 142.7188
0.676501 80.808 142.4333
0.681403 80.781 142.1472
0.686341 80.753 141.8609
0.691314 80.725 141.5744
0.696324 80.696 141.2879
0.701370 80.668 141.0018
0.706452 80.639 140.7160
0.711571 80.609 140.4308
0.716728 80.578 140.1459
0.721921 80.546 139.8612
0.727153 80.513 139.5762
0.732422 80.477 139.2899
0.737729 80.439 139.0013
0.743075 80.398 138.7092
0.748460 80.355 138.4126
0.753883 80.311 138.1107
0.759346 80.266 137.8029
0.764849 80.220 137.4888
0.770391 80.173 137.1682
0.775974 80.125 136.8407
0.781597 80.077 136.5064
0.787261 80.028 136.1649
0.792966 79.979 135.8163
0.798712 79.928 135.4605
0.804500 79.877 135.0972
0.810329 79.826 134.7265
0.816201 79.773 134.3482
0.822116 79.720 133.9623
0.828073 79.666 133.5686
0.834074 79.611 133.1671
0.840118 79.556 132.7578
0.846206 79.499 132.3405
0.852338 79.442 131.9152
0.858514 79.383 131.4819
0.864735 79.324 131.0404
0.871001 79.263 130.5908
0.877313 79.202 130.1331
0.883670 79.139 129.6672
0.890074 79.075 129.1931
0.896524 79.010 128.7108
0.903020 78.944 128.2204
0.909564 78.876 127.7219
0.916155 78.807 127.2154
0.922794 78.737 126.7009
0.929481 78.665 126.1785
0.936216 78.592 125.6484
0.943000 78.517 125.1106
0.949834 78.440 124.5654
0.956717 78.362 124.0129
0.963649 78.282 123.4534
0.970632 78.201 122.8871
0.977666 78.117 122.3144
0.984750 78.032 121.7354
0.991886 77.945 121.1506
0.999074 77.855 120.5603
1.006314 77.764 119.9651
1.013606 77.670 119.3654
1.020951 77.574 118.7617
1.028349 77.476 118.1545
1.035801 77.375 117.5446
1.043307 77.272 116.9326
1.050867 77.166 116.3192
1.058482 77.058 115.7050
1.066152 76.946 115.0908
1.073878 76.832 114.4771
1.081660 76.714 113.8641
1.089498 76.593 113.2520
1.097393 76.467 112.6403
1.105345 76.337 112.0280
1.113355 76.202 111.4139
1.121423 76.061 110.7966
1.129549 75.914 110.1747
1.137734 75.761 109.5472
1.145979 75.603 108.9128
1.154283 75.438 108.2704
1.162647 75.268 107.6191
1.171072 75.092 106.9578
1.179558 74.911 106.2854
1.188106 74.725 105.6007
1.196715 74.534 104.9026
1.205387 74.338 104.1897
1.214122 74.139 103.4607
1.222920 73.935 102.7140
1.231782 73.729 101.9482
1.240708 73.519 101.1616
1.249699 73.306 100.3522
1.258754 73.091 99.5183
1.267876 72.874 98.6578
1.277063 72.656 97.7683
1.286318 72.436 96.8477
1.295639 72.216 95.8932
1.305027 71.996 94.9024
1.314484 71.777 93.8722
1.324009 71.558 92.7998
1.333604 71.342 91.6818
1.343268 71.127 90.5149
1.353002 70.915 89.2956
1.362806 70.707 88.0203
1.372681 70.503 86.6853
1.382628 70.304 85.2867
1.392647 70.110 83.8209
1.402739 69.923 82.2841
1.412904 69.743 80.6727
1.423142 69.571 78.9831
1.433455 69.407 77.2121
1.443843 69.251 75.3560
1.454305 69.105 73.4107
1.464844 68.967 71.3712
1.475459 68.837 69.2308
1.486150 68.714 66.9813
1.496920 68.598 64.6130
1.507767 68.488 62.1158
1.518693 68.383 59.4789
1.529698 68.284 56.6921
1.540783 68.191 53.7457
1.551948 68.103 50.6311
1.563194 68.020 47.3423
1.574521 67.944 43.8756
1.585931 67.873 40.2315
1.597423 67.808 36.4155
1.608999 67.749 32.4385
1.620658 67.696 28.3183
1.632402 67.649 24.0792
1.644232 67.609 19.7519
1.656146 67.575 15.3726
1.668147 67.549 10.9808
1.680235 67.528 6.6175
1.692411 67.515 2.3225
1.704675 67.510 -1.8678
1.717028 67.511 -5.9220
1.729470 67.520 -9.8151
1.742003 67.536 -13.5292
1.754626 67.561 -17.0530
1.767341 67.594 -20.3815
1.780147 67.636 -23.5156
1.793047 67.687 -26.4612
1.806040 67.748 -29.2291
1.819128 67.821 -31.8339
1.832310 67.906 -34.2935
1.845587 68.006 -36.6270
1.858961 68.122 -38.8526
1.872432 68.254 -40.9851
1.886001 68.403 -43.0359
1.899667 68.568 -45.0131
1.913433 68.748 -46.9222
1.927299 68.942 -48.7671
1.941265 69.150 -50.5505
1.955332 69.369 -52.2743
1.969501 69.597 -53.9396
1.983773 69.835 -55.5473
1.998148 70.079 -57.0981
2.012627 70.328 -58.5923
2.027212 70.580 -60.0301
2.041902 70.834 -61.4114
2.056698 71.087 -62.7363
2.071602 71.338 -64.0045
2.086614 71.585 -65.2159
2.101734 71.825 -66.3706
2.116964 72.057 -67.4686
2.132304 72.280 -68.5106
2.147756 72.491 -69.4980
2.163320 72.689 -70.4333
2.178996 72.875 -71.3207
2.194786 73.047 -72.1660
2.210690 73.208 -72.9764
2.226710 73.357 -73.7595
2.242845 73.497 -74.5213
2.259098 73.627 -75.2664
2.275468 73.750 -75.9974
2.291957 73.865 -76.7156
2.308566 73.973 -77.4211
2.325295 74.075 -78.1136
2.342145 74.172 -78.7920
2.359117 74.263 -79.4550
2.376212 74.349 -80.1011
2.393431 74.431 -80.7285
2.410775 74.509 -81.3351
2.428244 74.584 -81.9188
2.445840 74.656 -82.4774
2.463564 74.726 -83.0086
2.481416 74.794 -83.5102
2.499397 74.862 -83.9802
2.517509 74.928 -84.4170
2.535752 74.992 -84.8198
2.554127 75.056 -85.1887
2.572635 75.118 -85.5250
2.591277 75.177 -85.8305
2.610055 75.232 -86.1078
2.628968 75.285 -86.3589
2.648019 75.333 -86.5857
2.667208 75.378 -86.7894
2.686535 75.420 -86.9711
2.706003 75.459 -87.1315
2.725612 75.495 -87.2712
2.745363 75.530 -87.3906
2.765257 75.564 -87.4901
2.785295 75.597 -87.5698
2.805478 75.631 -87.6299
2.825808 75.665 -87.6703
2.846285 75.701 -87.6910
2.866910 75.739 -87.6914
2.887685 75.779 -87.6710
2.908611 75.821 -87.6285
2.929688 75.866 -87.5624
2.950917 75.913 -87.4711
2.972301 75.962 -87.3537
2.993839 76.013 -87.2101
3.015534 76.064 -87.0412
3.037386 76.117 -86.8491
3.059396 76.171 -86.6365
3.081565 76.227 -86.4065
3.103896 76.284 -86.1627
3.126388 76.344 -85.9089
3.149043 76.405 -85.6489
3.171862 76.470 -85.3865
3.194847 76.537 -85.1250
3.217998 76.607 -84.8676
3.241317 76.680 -84.6162
3.264805 76.758 -84.3718
3.288463 76.839 -84.1339
3.312293 76.925 -83.9008
3.336295 77.015 -83.6705
3.360471 77.110 -83.4420
3.384822 77.208 -83.2156
3.409350 77.311 -82.9928
3.434056 77.416 -82.7765
3.458940 77.525 -82.5699
3.484005 77.635 -82.3770
3.509252 77.748 -82.2016
3.534681 77.862 -82.0473
3.560295 77.976 -81.9179
3.586094 78.092 -81.8161
3.612081 78.207 -81.7442
3.638255 78.322 -81.7034
3.664620 78.437 -81.6937
3.691175 78.553 -81.7138
3.717923 78.669 -81.7621
3.744864 78.786 -81.8366
3.772001 78.903 -81.9357
3.799335 79.021 -82.0580
3.826866 79.138 -82.2023
3.854597 79.255 -82.3677
3.882529 79.370 -82.5538
3.910664 79.484 -82.7600
3.939002 79.596 -82.9863
3.967546 79.705 -83.2329
3.996296 79.811 -83.5003
4.025255 79.915 -83.7892
4.054423 80.015 -84.1004
4.083804 80.113 -84.4339
4.113396 80.207 -84.7890
4.143204 80.299 -85.1642
4.173227 80.387 -85.5571
4.203468 80.473 -85.9652
4.233928 80.556 -86.3855
4.264609 80.636 -86.8154
4.295512 80.712 -87.2527
4.326639 80.786 -87.6958
4.357992 80.855 -88.1441
4.389572 80.921 -88.5981
4.421380 80.983 -89.0589
4.453419 81.041 -89.5276
4.485691 81.095 -90.0046
4.518196 81.146 -90.4889
4.550936 81.193 -90.9787
4.583914 81.236 -91.4711
4.617131 81.276 -91.9630
4.650589 81.313 -92.4511
4.684289 81.348 -92.9328
4.718233 81.379 -93.4059
4.752424 81.408 -93.8695
4.786862 81.434 -94.3238
4.821549 81.457 -94.7696
4.856488 81.477 -95.2075
4.891680 81.494 -95.6379
4.927127 81.508 -96.0603
4.962831 81.521 -96.4737
4.998794 81.532 -96.8766
5.035017 81.542 -97.2675
5.071503 81.551 -97.6446
5.108253 81.560 -98.0068
5.145270 81.568 -98.3530
5.182555 81.576 -98.6832
5.220110 81.583 -98.9981
5.257937 81.590 -99.2988
5.296038 81.597 -99.5869
5.334415 81.605 -99.8642
5.373071 81.613 -100.1322
5.412006 81.623 -100.3922
5.451224 81.635 -100.6449
5.490725 81.648 -100.8905
5.530514 81.664 -101.1291
5.570590 81.682 -101.3609
5.610957 81.702 -101.5871
5.651616 81.724 -101.8100
5.692570 81.748 -102.0325
5.733821 81.775 -102.2580
5.775370 81.804 -102.4897
5.817221 81.835 -102.7300
5.859375 81.868 -102.9806
5.901834 81.904 -103.2420
5.944602 81.943 -103.5148
5.987679 81.983 -103.7994
6.031068 82.026 -104.0971
6.074771 82.070 -104.4094
6.118792 82.115 -104.7384
6.163131 82.162 -105.0858
6.207792 82.208 -105.4532
6.252776 82.255 -105.8413
6.298086 82.303 -106.2502
6.343725 82.351 -106.6792
6.389694 82.399 -107.1271
6.435996 82.446 -107.5929
6.482634 82.493 -108.0754
6.529610 82.538 -108.5738
6.576926 82.583 -109.0879
6.624585 82.625 -109.6172
6.672590 82.666 -110.1613
6.720942 82.706 -110.7189
6.769645 82.743 -111.2878
6.818700 82.779 -111.8654
6.868111 82.813 -112.4492
6.917881 82.845 -113.0368
6.968010 82.875 -113.6269
7.018504 82.904 -114.2185
7.069362 82.930 -114.8109
7.120590 82.954 -115.4025
7.172189 82.977 -115.9913
7.224161 82.999 -116.5752
7.276511 83.019 -117.1518
7.329239 83.039 -117.7196
7.382350 83.058 -118.2777
7.435845 83.076 -118.8257
7.489729 83.094 -119.3634
7.544002 83.112 -119.8906
7.598669 83.130 -120.4070
7.653732 83.149 -120.9121
7.709194 83.170 -121.4056
7.765058 83.191 -121.8876
7.821327 83.213 -122.3589
7.878004 83.237 -122.8205
7.935091 83.263 -123.2741
7.992592 83.291 -123.7210
8.050510 83.320 -124.1625
8.108847 83.352 -124.5994
8.167607 83.386 -125.0328
8.226793 83.422 -125.4639
8.286408 83.459 -125.8942
8.346454 83.499 -126.3254
8.406936 83.540 -126.7590
8.467856 83.582 -127.1959
8.529218 83.626 -127.6367
8.591024 83.671 -128.0815
8.653278 83.717 -128.5307
8.715983 83.763 -128.9844
8.779143 83.809 -129.4429
8.842760 83.856 -129.9060
8.906839 83.902 -130.3732
8.971381 83.948 -130.8437
9.036392 83.993 -131.3162
9.101873 84.038 -131.7897
9.167829 84.081 -132.2630
9.234263 84.124 -132.7353
9.301178 84.165 -133.2054
9.368578 84.206 -133.6721
9.436467 84.245 -134.1339
9.504847 84.283 -134.5896
9.573723 84.321 -135.0383
9.643099 84.357 -135.4792
9.712976 84.392 -135.9118
9.783361 84.427 -136.3356
9.854255 84.461 -136.7502
9.925663 84.495 -137.1553
9.997588 84.528 -137.5511
10.070035 84.561 -137.9378
10.143007 84.593 -138.3160
10.216507 84.626 -138.6864
10.290540 84.658 -139.0495
10.365109 84.691 -139.4060
10.440219 84.723 -139.7567
10.515873 84.755 -140.1024
10.592076 84.787 -140.4442
10.668830 84.819 -140.7827
10.746141 84.850 -141.1184
10.824012 84.881 -141.4520
10.902447 84.912 -141.7839
10.981451 84.941 -142.1144
11.061027 84.970 -142.4438
11.141180 84.998 -142.7721
11.221913 85.025 -143.0994
11.303232 85.051 -143.4255
11.385140 85.076 -143.7504
11.467641 85.100 -144.0739
11.550741 85.122 -144.3960
11.634442 85.144 -144.7164
11.718750 85.164 -145.0351
11.803669 85.183 -145.3521
11.889203 85.201 -145.6676
11.975357 85.218 -145.9816
12.062136 85.234 -146.2945
12.149543 85.249 -146.6065
12.237583 85.263 -146.9179
12.326262 85.276 -147.2292
12.415583 85.288 -147.5407
12.505552 85.299 -147.8529
12.596172 85.309 -148.1659
12.687449 85.319 -148.4801
12.779387 85.327 -148.7957
12.871992 85.334 -149.1128
12.965268 85.341 -149.4315
13.059220 85.347 -149.7519
13.153852 85.352 -150.0739
13.249170 85.356 -150.3975
13.345179 85.359 -150.7228
13.441884 85.362 -151.0497
13.539289 85.364 -151.3786
13.637401 85.366 -151.7095
13.736223 85.367 -152.0429
13.835761 85.369 -152.3794
13.936021 85.370 -152.7194
14.037007 85.371 -153.0636
14.138725 85.373 -153.4127
14.241180 85.374 -153.7674
14.344377 85.376 -154.1283
14.448323 85.378 -154.4958
14.553021 85.379 -154.8703
14.658478 85.381 -155.2518
14.764700 85.382 -155.6401
14.871691 85.383 -156.0348
14.979457 85.383 -156.4350
15.088005 85.384 -156.8400
15.197339 85.383 -157.2484
15.307465 85.383 -157.6590
15.418389 85.382 -158.0706
15.530117 85.380 -158.4819
15.642655 85.379 -158.8917
15.756008 85.378 -159.2991
15.870182 85.377 -159.7034
15.985184 85.377 -160.1042
16.101019 85.377 -160.5014
16.217694 85.378 -160.8952
16.335214 85.380 -161.2861
16.453586 85.383 -161.6745
16.572815 85.388 -162.0611
16.692909 85.393 -162.4465
16.813872 85.399 -162.8313
16.935713 85.405 -163.2156
17.058436 85.413 -163.5996
17.182048 85.420 -163.9830
17.306556 85.428 -164.3653
17.431967 85.436 -164.7459
17.558286 85.443 -165.1238
17.685521 85.451 -165.4978
17.813677 85.457 -165.8671
17.942762 85.464 -166.2305
18.072783 85.470 -166.5871
18.203746 85.475 -166.9363
18.335658 85.480 -167.2775
18.468526 85.484 -167.6104
18.602356 85.489 -167.9351
18.737156 85.493 -168.2518
18.872934 85.496 -168.5609
19.009695 85.500 -168.8629
19.147447 85.503 -169.1587
19.286197 85.505 -169.4490
19.425953 85.508 -169.7346
19.566721 85.509 -170.0166
19.708510 85.510 -170.2957
19.851326 85.511 -170.5728
19.995177 85.511 -170.8487
20.140070 85.509 -171.1239
20.286013 85.507 -171.3989
20.433014 85.503 -171.6740
20.581080 85.498 -171.9489
20.730219 85.492 -172.2236
20.880439 85.484 -172.4975
21.031747 85.475 -172.7701
21.184152 85.464 -173.0407
21.337661 85.452 -173.3091
21.492282 85.440 -173.5751
21.648024 85.426 -173.8390
21.804895 85.413 -174.1017
21.962902 85.399 -174.3645
22.122054 85.385 -174.6291
22.282360 85.372 -174.8975
22.443827 85.359 -175.1718
22.606464 85.346 -175.4538
22.770280 85.334 -175.7446
22.935283 85.321 -176.0451
23.101481 85.308 -176.3548
23.268884 85.294 -176.6728
23.437500 85.280 -176.9973
23.607338 85.264 -177.3262
23.778406 85.248 -177.6572
23.950714 85.232 -177.9880
24.124271 85.215 -178.3170
24.299086 85.199 -178.6432
24.475167 85.183 -178.9661
24.652524 85.168 -179.2861
24.831166 85.154 -179.6040
25.011103 85.141 -179.9205
25.192344 85.129 179.7635
25.374898 85.117 179.4479
25.558775 85.106 179.1327
25.743984 85.096 178.8187
25.930536 85.085 178.5073
26.118439 85.075 178.1998
26.307704 85.064 177.8977
26.498341 85.054 177.6021
26.690359 85.043 177.3134
26.883768 85.033 177.0317
27.078579 85.023 176.7565
27.274801 85.012 176.4866
27.472446 85.002 176.2211
27.671522 84.992 175.9587
27.872042 84.981 175.6989
28.074014 84.970 175.4412
28.277450 84.957 175.1859
28.482360 84.944 174.9335
28.688755 84.929 174.6846
28.896645 84.913 174.4402
29.106042 84.895 174.2005
29.316957 84.877 173.9655
29.529400 84.858 173.7349
29.743382 84.838 173.5075
29.958915 84.818 173.2819
30.176009 84.798 173.0566
30.394677 84.777 172.8301
30.614929 84.756 172.6014
30.836778 84.734 172.3697
31.060234 84.713 172.1348
31.285309 84.690 171.8968
31.512015 84.668 171.6559
31.740364 84.646 171.4121
31.970368 84.623 171.1652
32.202039 84.601 170.9146
32.435388 84.579 170.6596
32.670428 84.558 170.3998
32.907171 84.536 170.1354
33.145630 84.514 169.8678
33.385817 84.492 169.5990
33.627745 84.469 169.3319
33.871425 84.445 169.0693
34.116871 84.422 168.8135
34.364096 84.399 168.5650
34.613113 84.377 168.3229
34.863934 84.356 168.0847
35.116572 84.336 167.8472
35.371041 84.316 167.6079
35.627354 84.296 167.3663
35.885525 84.274 167.1243
36.145566 84.250 166.8860
36.407492 84.225 166.6573
36.671316 84.198 166.4437
36.937051 84.170 166.2480
37.204712 84.143 166.0699
37.474313 84.116 165.9047
37.745867 84.092 165.7450
38.019389 84.070 165.5822
38.294893 84.048 165.4096
38.572394 84.026 165.2238
38.851905 84.003 165.0260
39.133442 83.978 164.8208
39.417019 83.950 164.6143
39.702651 83.921 164.4119
39.990353 83.891 164.2162
40.280140 83.860 164.0266
40.572026 83.831 163.8398
40.866028 83.802 163.6513
41.162160 83.773 163.4577
41.460438 83.744 163.2576
41.760877 83.715 163.0521
42.063494 83.685 162.8441
42.368303 83.654 162.6371
42.675322 83.622 162.4342
42.984565 83.590 162.2375
43.296048 83.558 162.0473
43.609789 83.526 161.8627
43.925804 83.495 161.6815
44.244108 83.465 161.5014
44.564719 83.436 161.3206
44.887654 83.406 161.1387
45.212928 83.376 160.9574
45.540560 83.346 160.7797
45.870565 83.316 160.6085
46.202962 83.286 160.4446
46.537768 83.257 160.2858
46.875000 83.229 160.1266
47.214676 83.203 159.9612
47.556813 83.177 159.7861
47.901429 83.149 159.6030
48.248542 83.120 159.4185
48.598171 83.088 159.2419
48.950334 83.055 159.0810
49.305048 83.022 158.9383
49.662333 82.991 158.8096
50.022206 82.962 158.6861
50.384688 82.935 158.5576
50.749796 82.908 158.4170
51.117550 82.881 158.2627
51.487969 82.852 158.0983
51.861072 82.821 157.9309
52.236879 82.786 157.7682
52.615409 82.750 157.6167
52.996681 82.713 157.4794
53.380717 82.676 157.3557
53.767536 82.640 157.2414
54.157158 82.606 157.1301
54.549603 82.573 157.0149
54.944892 82.543 156.8907
55.343045 82.512 156.7559
55.744084 82.482 156.6121
56.148028 82.452 156.4626
56.554900 82.421 156.3106
56.964720 82.390 156.1577
57.377510 82.358 156.0042
57.793291 82.326 155.8518
58.212085 82.292 155.7048
58.633914 82.257 155.5700
59.058799 82.221 155.4543
59.486764 82.186 155.3604
59.917829 82.153 155.2835
60.352019 82.123 155.2117
60.789354 82.097 155.1291
61.229859 82.071 155.0229
61.673556 82.044 154.8897
62.120468 82.014 154.7370
62.570618 81.979 154.5787
63.024031 81.941 154.4270
63.480729 81.901 154.2859
63.940736 81.859 154.1534
64.404077 81.815 154.0282
64.870776 81.769 153.9174
65.340856 81.721 153.8333
65.814343 81.674 153.7838
66.291261 81.630 153.7632
66.771635 81.592 153.7545
67.255489 81.558 153.7399
67.742850 81.526 153.7114
68.233743 81.495 153.6705
68.728193 81.465 153.6210
69.226226 81.435 153.5630
69.727867 81.406 153.4922
70.233144 81.377 153.4023
70.742083 81.348 153.2884
71.254709 81.316 153.1514
71.771050 81.280 153.0007
72.291132 81.240 152.8521
72.814984 81.198 152.7193
73.342631 81.155 152.6063
73.874102 81.113 152.5101
74.409424 81.071 152.4290
74.948626 81.031 152.3663
75.491734 80.993 152.3242
76.038779 80.958 152.2972
76.589787 80.927 152.2742
77.144788 80.899 152.2457
77.703811 80.872 152.2079
78.266885 80.844 152.1601
78.834039 80.816 152.1025
79.405303 80.786 152.0366
79.980706 80.755 151.9645
80.560280 80.721 151.8875
81.144053 80.687 151.8044
81.732056 80.650 151.7144
82.324320 80.612 151.6186
82.920876 80.573 151.5201
83.521755 80.532 151.4224
84.126988 80.491 151.3280
84.736607 80.448 151.2396
85.350643 80.404 151.1598
85.969129 80.360 151.0908
86.592097 80.315 151.0339
87.219579 80.270 150.9891
87.851608 80.225 150.9550
88.488217 80.180 150.9293
89.129439 80.135 150.9083
89.775308 80.091 150.8889
90.425856 80.048 150.8695
91.081119 80.006 150.8504
91.741131 79.965 150.8318
92.405925 79.926 150.8132
93.075536 79.888 150.7932
93.750000 79.852 150.7701
94.429351 79.814 150.7435
95.113625 79.775 150.7148
95.802858 79.733 150.6900
96.497085 79.686 150.6796
97.196342 79.637 150.6938
97.900667 79.587 150.7312
98.610096 79.539 150.7770
99.324665 79.493 150.8157
100.044413 79.449 150.8446
100.769376 79.406 150.8720
101.499592 79.367 150.9075
102.235100 79.330 150.9562
102.975938 79.297 151.0182
103.722144 79.266 151.0901
104.473757 79.235 151.1677
105.230817 79.200 151.2477
105.993363 79.161 151.3246
106.761435 79.117 151.3898
107.535072 79.069 151.4333
108.314315 79.017 151.4457
109.099206 78.964 151.4250
109.889783 78.913 151.3807
110.686090 78.865 151.3309
111.488167 78.821 151.2983
112.296056 78.779 151.3133
113.109800 78.735 151.4177
113.929440 78.687 151.6586
114.755020 78.633 152.0706
115.586582 78.575 152.6588
116.424170 78.519 153.3873
117.267827 78.472 154.1720
118.117598 78.440 154.8940
118.973527 78.425 155.4119
119.835658 78.421 155.5840
120.704037 78.412 155.3651
121.578708 78.383 154.8852
122.459718 78.338 154.3545
123.347111 78.296 153.9079
124.240935 78.267 153.5793
125.141236 78.252 153.3668
126.048061 78.244 153.2634
126.961458 78.237 153.2489
127.881473 78.225 153.2852
128.808154 78.201 153.3317
129.741551 78.164 153.3629
130.681712 78.116 153.3696
131.628686 78.064 153.3503
132.582521 78.012 153.3104
133.543269 77.964 153.2660
134.510979 77.922 153.2390
135.485701 77.886 153.2465
136.467486 77.854 153.2956
137.456386 77.822 153.3840
138.452451 77.787 153.5035
139.455735 77.750 153.6409
140.466288 77.711 153.7776
141.484165 77.673 153.8954
142.509418 77.635 153.9875
143.542100 77.599 154.0651
144.582265 77.565 154.1520
145.629968 77.533 154.2709
146.685262 77.501 154.4348
147.748204 77.470 154.6443
148.818849 77.438 154.8824
149.897251 77.402 155.1140
150.983469 77.363 155.3007
152.077557 77.316 155.4254
153.179574 77.262 155.5052
154.289576 77.206 155.5720
155.407622 77.155 155.6489
156.533770 77.112 155.7395
157.668078 77.079 155.8357
158.810606 77.054 155.9313
159.961413 77.030 156.0294
161.120559 77.003 156.1400
162.288105 76.973 156.2696
163.464112 76.938 156.4163
164.648640 76.899 156.5779
165.841752 76.858 156.7581
167.043510 76.817 156.9643
168.253976 76.780 157.2009
169.473213 76.748 157.4626
170.701286 76.723 157.7283
171.938258 76.706 157.9626
173.184194 76.692 158.1347
174.439158 76.676 158.2509
175.703216 76.655 158.3500
176.976434 76.632 158.4622
178.258878 76.608 158.5957
179.550615 76.583 158.7438
180.851713 76.556 158.8986
182.162239 76.528 159.0564
183.482262 76.500 159.2176
184.811850 76.473 159.3879
186.151073 76.446 159.5818
187.500000 76.415 159.8194
188.858702 76.376 160.1179
190.227250 76.324 160.4822
191.605715 76.257 160.8979
192.994169 76.183 161.3286
194.392685 76.115 161.7230
195.801334 76.067 162.0172
197.220191 76.048 162.1411
198.649330 76.052 162.0588
200.088825 76.063 161.8245
201.538751 76.066 161.5562
202.999184 76.058 161.3429
204.470200 76.041 161.2217
205.951875 76.020 161.1982
207.444287 76.000 161.2603
208.947514 75.984 161.3827
210.461634 75.970 161.5415
211.986726 75.956 161.7220
213.522869 75.939 161.9154
215.070144 75.918 162.1162
216.628631 75.895 162.3214
218.198411 75.872 162.5282
219.779567 75.849 162.7298
221.372180 75.828 162.9152
222.976334 75.809 163.0743
224.592112 75.789 163.2062
226.219600 75.770 163.3192
227.858880 75.750 163.4252
229.510039 75.730 163.5340
231.173164 75.708 163.6503
232.848340 75.686 163.7741
234.535655 75.663 163.9032
236.235197 75.639 164.0349
237.947054 75.615 164.1668
239.671317 75.590 164.2985
241.408074 75.563 164.4310
243.157416 75.536 164.5658
244.919435 75.506 164.7044
246.694223 75.475 164.8488
248.481871 75.443 165.0021
250.282473 75.410 165.1683
252.096123 75.378 165.3521
253.922915 75.347 165.5547
255.762945 75.318 165.7711
257.616309 75.293 165.9898
259.483103 75.269 166.1985
261.363424 75.247 166.3903
263.257372 75.225 166.5660
265.165043 75.201 166.7330
267.086538 75.175 166.9012
269.021957 75.148 167.0788
270.971401 75.121 167.2702
272.934972 75.094 167.4756
274.912771 75.069 167.6925
276.904902 75.045 167.9169
278.911469 75.023 168.1449
280.932577 75.002 168.3728
282.968330 74.984 168.5967
285.018835 74.967 168.8123
287.084199 74.952 169.0145
289.164530 74.936 169.1975
291.259935 74.920 169.3599
293.370525 74.900 169.5063
295.496408 74.878 169.6461
297.637697 74.854 169.7889
299.794503 74.828 169.9421
301.966937 74.802 170.1086
304.155114 74.777 170.2888
306.359147 74.753 170.4807
308.579152 74.730 170.6812
310.815244 74.708 170.8863
313.067539 74.686 171.0933
315.336156 74.663 171.3009
317.621211 74.639 171.5101
319.922826 74.614 171.7236
322.241118 74.589 171.9446
324.576210 74.565 172.1746
326.928223 74.541 172.4131
329.297280 74.519 172.6579
331.683504 74.497 172.9062
334.087019 74.477 173.1545
336.507952 74.458 173.3990
338.946427 74.439 173.6368
341.402572 74.421 173.8683
343.876516 74.402 174.0968
346.368387 74.383 174.3270
348.878315 74.363 174.5624
351.406431 74.343 174.8039
353.952867 74.321 175.0504
356.517756 74.299 175.3001
359.101230 74.277 175.5508
361.703426 74.256 175.8007
364.324478 74.236 176.0489
366.964523 74.216 176.2968
369.623699 74.197 176.5464
372.302145 74.178 176.7986
375.000000 74.160 177.0535
377.717405 74.142 177.3109
380.454501 74.124 177.5712
383.211431 74.106 177.8340
385.988339 74.089 178.0974
388.785369 74.073 178.3589
391.602668 74.058 178.6172
394.440383 74.044 178.8747
397.298660 74.030 179.1357
400.177650 74.016 179.4044
403.077502 74.001 179.6802
405.998368 73.986 179.9580
408.940400 73.971 -179.7671
411.903750 73.955 -179.4959
414.888575 73.939 -179.2249
417.895028 73.922 -178.9482
420.923268 73.905 -178.6607
423.973452 73.889 -178.3612
427.045738 73.874 -178.0530
430.140287 73.862 -177.7427
433.257261 73.852 -177.4364
436.396822 73.843 -177.1367
439.559133 73.837 -176.8430
442.744360 73.831 -176.5549
445.952668 73.826 -176.2737
449.184225 73.822 -176.0028
452.439199 73.818 -175.7470
455.717760 73.814 -175.5092
459.020079 73.808 -175.2861
462.346327 73.799 -175.0686
465.696680 73.787 -174.8471
469.071310 73.774 -174.6151
472.470394 73.758 -174.3696
475.894109 73.743 -174.1103
479.342634 73.728 -173.8419
482.816148 73.713 -173.5714
486.314833 73.698 -173.3013
489.838871 73.683 -173.0274
493.388445 73.667 -172.7421
496.963741 73.652 -172.4415
500.564945 73.637 -172.1292
504.192245 73.624 -171.8141
507.845830 73.612 -171.5048
511.525890 73.601 -171.2048
515.232618 73.589 -170.9123
518.966206 73.577 -170.6211
522.726849 73.565 -170.3233
526.514743 73.551 -170.0128
530.330086 73.539 -169.6878
534.173076 73.527 -169.3517
538.043915 73.517 -169.0096
541.942803 73.508 -168.6640
545.869944 73.499 -168.3148
549.825542 73.491 -167.9624
553.809805 73.483 -167.6102
557.822939 73.476 -167.2630
561.865154 73.469 -166.9236
565.936660 73.463 -166.5912
570.037671 73.457 -166.2620
574.168399 73.450 -165.9315
578.329060 73.443 -165.5966
582.519870 73.436 -165.2560
586.741049 73.428 -164.9089
590.992817 73.419 -164.5533
595.275394 73.411 -164.1880
599.589005 73.404 -163.8157
603.933874 73.398 -163.4421
608.310228 73.394 -163.0720
612.718295 73.389 -162.7060
617.158304 73.385 -162.3398
621.630488 73.380 -161.9655
626.135079 73.375 -161.5757
630.672311 73.372 -161.1675
635.242423 73.370 -160.7444
639.845651 73.371 -160.3125
644.482237 73.373 -159.8762
649.152421 73.376 -159.4372
653.856447 73.382 -158.9991
658.594560 73.390 -158.5693
663.367008 73.401 -158.1576
668.174039 73.413 -157.7703
673.015903 73.425 -157.4055
677.892854 73.436 -157.0549
682.805145 73.445 -156.7100
687.753032 73.452 -156.3642
692.736774 73.459 -156.0115
697.756631 73.465 -155.6458
702.812863 73.470 -155.2640
707.905735 73.476 -154.8687
713.035511 73.483 -154.4655
718.202461 73.490 -154.0603
723.406852 73.497 -153.6563
728.648956 73.504 -153.2532
733.929047 73.512 -152.8475
739.247399 73.521 -152.4352
744.604290 73.530 -152.0133
750.000000 73.542 -151.5822
755.434809 73.554 -151.1443
760.909001 73.568 -150.7019
766.422861 73.583 -150.2565
771.976677 73.600 -149.8090
777.570739 73.619 -149.3607
783.205337 73.639 -148.9129
788.880766 73.660 -148.4664
794.597321 73.681 -148.0200
800.355301 73.704 -147.5734
806.155005 73.728 -147.1300
811.996736 73.756 -146.6970
817.880799 73.786 -146.2828
823.807501 73.816 -145.8935
829.777150 73.846 -145.5293
835.790057 73.873 -145.1804
841.846536 73.895 -144.8282
847.946903 73.915 -144.4559
854.091476 73.934 -144.0598
860.280575 73.954 -143.6480
866.514523 73.976 -143.2288
872.793644 73.998 -142.8027
879.118267 74.021 -142.3659
885.488720 74.045 -141.9156
891.905336 74.072 -141.4519
898.368450 74.101 -140.9766
904.878398 74.135 -140.4938
911.435520 74.172 -140.0087
918.040157 74.214 -139.5279
924.692655 74.258 -139.0558
931.393359 74.304 -138.5964
938.142619 74.351 -138.1528
944.940787 74.399 -137.7259
951.788218 74.447 -137.3134
958.685268 74.494 -136.9117
965.632296 74.541 -136.5157
972.629666 74.588 -136.1198
979.677741 74.636 -135.7215
986.776890 74.685 -135.3224
993.927482 74.734 -134.9254
1001.129891 74.785 -134.5308
1008.384491 74.837 -134.1363
1015.691660 74.891 -133.7404
1023.051781 74.948 -133.3456
1030.465236 75.010 -132.9583
1037.932411 75.076 -132.5892
1045.453698 75.144 -132.2497
1053.029486 75.214 -131.9442
1060.660172 75.283 -131.6688
1068.346153 75.350 -131.4157
1076.087829 75.415 -131.1770
1083.885605 75.477 -130.9469
1091.739887 75.539 -130.7227
1099.651084 75.599 -130.5031
1107.619609 75.657 -130.2864
1115.645878 75.715 -130.0716
1123.730308 75.772 -129.8583
1131.873321 75.828 -129.6468
1140.075341 75.885 -129.4369
1148.336797 75.941 -129.2277
1156.658119 75.997 -129.0171
1165.039741 76.054 -128.8020
1173.482099 76.111 -128.5802
1181.985634 76.169 -128.3529
1190.550789 76.229 -128.1274
1199.178011 76.292 -127.9160
1207.867749 76.357 -127.7313
1216.620457 76.422 -127.5793
1225.436590 76.485 -127.4564
1234.316609 76.545 -127.3535
1243.260976 76.602 -127.2612
1252.270157 76.656 -127.1714
1261.344623 76.707 -127.0798
1270.484846 76.756 -126.9845
1279.691303 76.804 -126.8833
1288.964474 76.851 -126.7744
1298.304842 76.897 -126.6586
1307.712894 76.943 -126.5389
1317.189120 76.989 -126.4185
1326.734016 77.034 -126.2993
1336.348077 77.078 -126.1802
1346.031806 77.121 -126.0584
1355.785708 77.162 -125.9305
1365.610290 77.203 -125.7925
1375.506065 77.242 -125.6391
1385.473549 77.282 -125.4645
1395.513261 77.323 -125.2677
1405.625726 77.367 -125.0546
1415.811469 77.415 -124.8378
1426.071023 77.467 -124.6329
1436.404921 77.521 -124.4498
1446.813703 77.575 -124.2892
1457.297912 77.629 -124.1457
1467.858093 77.681 -124.0122
1478.494798 77.732 -123.8834
1489.208581 77.782 -123.7551
1500.000000 77.830 -123.6243
1510.869618 77.878 -123.4881
1521.818002 77.925 -123.3440
1532.845723 77.971 -123.1898
1543.953355 78.018 -123.0241
1555.141477 78.067 -122.8470
1566.410674 78.118 -122.6624
1577.761531 78.174 -122.4804
1589.194642 78.233 -122.3144
1600.710601 78.294 -122.1732
1612.310010 78.356 -122.0572
1623.993473 78.417 -121.9604
1635.761599 78.475 -121.8744
1647.615002 78.532 -121.7924
1659.554299 78.586 -121.7095
1671.580114 78.640 -121.6226
1683.693072 78.692 -121.5318
1695.893807 78.745 -121.4400
1708.182952 78.797 -121.3501
1720.561150 78.848 -121.2617
1733.029045 78.898 -121.1712
1745.587288 78.947 -121.0727
1758.236533 78.996 -120.9601
1770.977440 79.045 -120.8287
1783.810673 79.097 -120.6793
1796.736900 79.152 -120.5205
1809.756796 79.212 -120.3658
1822.871040 79.275 -120.2257
1836.080315 79.339 -120.1041
1849.385310 79.404 -120.0004
1862.786718 79.468 -119.9118
1876.285239 79.532 -119.8341
1889.881575 79.595 -119.7615
1903.576436 79.657 -119.6876
1917.370535 79.719 -119.6064
1931.264593 79.783 -119.5143
1945.259332 79.848 -119.4125
1959.355483 79.918 -119.3105
1973.553781 79.991 -119.2226
1987.854965 80.067 -119.1596
2002.259781 80.144 -119.1250
2016.768981 80.220 -119.1161
2031.383320 80.296 -119.1280
2046.103561 80.370 -119.1556
2060.930471 80.443 -119.1955
2075.864823 80.513 -119.2474
2090.907395 80.582 -119.3112
2106.058972 80.649 -119.3839
2121.320344 80.714 -119.4587
2136.692305 80.776 -119.5260
2152.175658 80.836 -119.5760
2167.771210 80.897 -119.6049
2183.479774 80.960 -119.6194
2199.302169 81.026 -119.6312
2215.239219 81.093 -119.6490
2231.291755 81.161 -119.6748
2247.460615 81.229 -119.7056
2263.746641 81.297 -119.7352
2280.150683 81.364 -119.7549
2296.673595 81.431 -119.7551
2313.316238 81.500 -119.7284
2330.079481 81.575 -119.6744
2346.964198 81.658 -119.6040
2363.971268 81.750 -119.5364
2381.101578 81.851 -119.4920
2398.356022 81.960 -119.4882
2415.735498 82.076 -119.5392
2433.240913 82.197 -119.6549
2450.873180 82.320 -119.8420
2468.633217 82.443 -120.1036
2486.521951 82.564 -120.4366
2504.540314 82.680 -120.8303
2522.689246 82.789 -121.2678
2540.969692 82.892 -121.7309
2559.382606 82.990 -122.2085
2577.928947 83.085 -122.6991
2596.609683 83.177 -123.2056
2615.425787 83.266 -123.7305
2634.378241 83.351 -124.2733
2653.468031 83.433 -124.8306
2672.696154 83.512 -125.3958
2692.063613 83.588 -125.9617
2711.571415 83.663 -126.5252
2731.220579 83.739 -127.0913
2751.012130 83.817 -127.6724
2770.947098 83.896 -128.2810
2791.026522 83.976 -128.9264
2811.251451 84.055 -129.6129
2831.622938 84.132 -130.3421
2852.142045 84.206 -131.1146
2872.809842 84.275 -131.9296
2893.627406 84.338 -132.7826
2914.595823 84.395 -133.6642
2935.716186 84.445 -134.5655
2956.989596 84.490 -135.4843
2978.417161 84.531 -136.4243
3000.000000 84.566 -137.3913
3021.739237 84.594 -138.3889
3043.636005 84.615 -139.4146
3065.691446 84.626 -140.4601
3087.906710 84.628 -141.5132
3110.282955 84.620 -142.5648
3132.821347 84.605 -143.6118
3155.523062 84.583 -144.6549
3178.389283 84.552 -145.6948
3201.421202 84.513 -146.7300
3224.620020 84.465 -147.7574
3247.986946 84.407 -148.7717
3271.523198 84.338 -149.7644
3295.230004 84.259 -150.7213
3319.108599 84.169 -151.6265
3343.160228 84.071 -152.4691
3367.386145 83.968 -153.2461
3391.787613 83.859 -153.9595
3416.365904 83.747 -154.6121
3441.122300 83.632 -155.2025
3466.058091 83.514 -155.7245
3491.174576 83.395 -156.1715
3516.473066 83.277 -156.5436
3541.954880 83.163 -156.8495
3567.621345 83.055 -157.1026
3593.473800 82.952 -157.3173
3619.513592 82.855 -157.5061
3645.742080 82.763 -157.6786
3672.160630 82.675 -157.8376
3698.770620 82.589 -157.9789
3725.573436 82.507 -158.0988
3752.570477 82.429 -158.1993
3779.763150 82.355 -158.2889
3807.152872 82.287 -158.3772
3834.741071 82.222 -158.4701
3862.529185 82.160 -158.5677
3890.518664 82.101 -158.6689
3918.710966 82.045 -158.7763
3947.107561 81.992 -158.8969
3975.709929 81.941 -159.0396
4004.519563 81.893 -159.2130
4033.537962 81.843 -159.4230
4062.766641 81.791 -159.6678
4092.207123 81.733 -159.9372
4121.860942 81.669 -160.2188
4151.729646 81.599 -160.5031
4181.814790 81.523 -160.7830
4212.117944 81.439 -161.0496
4242.640687 81.346 -161.2872
4273.384610 81.246 -161.4768
4304.351317 81.141 -161.6028
4335.542421 81.031 -161.6569
4366.959549 80.921 -161.6368
4398.604338 80.812 -161.5448
4430.478438 80.705 -161.3839
4462.583511 80.601 -161.1525
4494.921231 80.501 -160.8450
4527.493283 80.409 -160.4594
4560.301365 80.328 -160.0011
4593.347189 80.259 -159.4810
4626.632476 80.206 -158.9101
4660.158962 80.171 -158.3007
4693.928395 80.156 -157.6728
4727.942535 80.165 -157.0589
4762.203156 80.198 -156.5018
4796.712043 80.253 -156.0492
4831.470996 80.325 -155.7433
4866.481826 80.409 -155.6119
4901.746360 80.497 -155.6680
4937.266434 80.582 -155.9132
4973.043902 80.657 -156.3385
5009.080628 80.717 -156.9208
5045.378492 80.755 -157.6241
5081.939384 80.771 -158.4060
5118.765212 80.763 -159.2272
5155.857894 80.732 -160.0558
5193.219366 80.681 -160.8701
5230.851574 80.610 -161.6542
5268.756481 80.522 -162.3933
5306.936062 80.419 -163.0748
5345.392309 80.302 -163.6915
5384.127225 80.175 -164.2393
5423.142830 80.036 -164.7115
5462.441159 79.888 -165.0974
5502.024259 79.733 -165.3854
5541.894195 79.572 -165.5683
5582.053045 79.409 -165.6461
5622.502902 79.247 -165.6254
5663.245876 79.086 -165.5145
5704.284090 78.928 -165.3223
5745.619684 78.775 -165.0598
5787.254813 78.627 -164.7371
5829.191647 78.482 -164.3583
5871.432373 78.341 -163.9203
5913.979192 78.204 -163.4164
5956.834323 78.072 -162.8422
6000.000000 77.948 -162.1994
6043.478473 77.832 -161.4928
6087.272010 77.726 -160.7298
6131.382892 77.632 -159.9219
6175.813420 77.550 -159.0832
6220.565910 77.480 -158.2255
6265.642695 77.421 -157.3557
6311.046124 77.374 -156.4779
6356.778566 77.339 -155.5983
6402.842404 77.318 -154.7280
6449.240040 77.310 -153.8835
6495.973891 77.315 -153.0859
6543.046396 77.330 -152.3588
6590.460007 77.353 -151.7220
6638.217197 77.379 -151.1837
6686.320456 77.403 -150.7386
6734.772290 77.421 -150.3700
6783.575226 77.429 -150.0534
6832.731809 77.426 -149.7584
6882.244600 77.410 -149.4513
6932.116181 77.384 -149.1005
6982.349153 77.348 -148.6779
7032.946133 77.307 -148.1584
7083.909760 77.264 -147.5211
7135.242690 77.225 -146.7532
7186.947600 77.195 -145.8533
7239.027185 77.179 -144.8303
7291.484160 77.182 -143.7031
7344.321260 77.207 -142.4988
7397.541239 77.257 -141.2460
7451.146872 77.331 -139.9672
7505.140954 77.431 -138.6778
7559.526299 77.557 -137.3899
7614.305743 77.710 -136.1150
7669.482141 77.891 -134.8683
7725.058371 78.103 -133.6723
7781.037328 78.346 -132.5548
7837.421932 78.618 -131.5415
7894.215122 78.921 -130.6526
7951.419859 79.253 -129.9054
8009.039125 79.616 -129.3181
8067.075924 80.010 -128.9161
8125.533282 80.435 -128.7371
8184.414245 80.890 -128.8272
8243.721885 81.371 -129.2330
8303.459292 81.872 -129.9955
8363.629581 82.386 -131.1497
8424.235888 82.904 -132.7254
8485.281374 83.419 -134.7477
8546.769221 83.917 -137.2368
8608.702634 84.385 -140.1994
8671.084842 84.808 -143.6195
8733.919097 85.171 -147.4533
8797.208675 85.460 -151.6293
8860.956876 85.668 -156.0521
8925.167022 85.787 -160.6125
8989.842461 85.818 -165.1967
9054.986566 85.763 -169.6924
9120.602731 85.629 -173.9953
9186.694378 85.426 -178.0144
9253.264952 85.170 178.3224
9320.317925 84.876 175.0615
9387.856790 84.562 172.2183
9455.885071 84.245 169.7795
9524.406312 83.942 167.7085
9593.424086 83.665 165.9531
9662.941992 83.425 164.4508
9732.963653 83.232 163.1288
9803.492719 83.092 161.9017
9874.532869 83.009 160.6749
9946.087805 82.981 159.3512
10018.161257 83.006 157.8401
10090.756983 83.074 156.0623
10163.878768 83.177 153.9490
10237.530423 83.303 151.4420
10311.715789 83.435 148.4983
10386.438732 83.558 145.0984
10461.703149 83.653 141.2511
10537.512962 83.705 136.9925
10613.872125 83.699 132.3787
10690.784618 83.624 127.4818
10768.254450 83.470 122.3857
10846.285661 83.232 117.1861
10924.882318 82.905 111.9843
11004.048518 82.491 106.8785
11083.788390 81.995 101.9561
11164.106090 81.423 97.2899
11245.005805 80.784 92.9406
11326.491752 80.088 88.9587
11408.568180 79.343 85.3815
11491.239368 78.562 82.2283
11574.509626 77.757 79.4993
11658.383294 76.937 77.1818
11742.864745 76.111 75.2580
11827.958384 75.287 73.7072
11913.668646 74.473 72.5034
12000.000000 73.675 71.6137
12086.956947 72.899 71.0024
12174.544019 72.148 70.6356
12262.765784 71.425 70.4819
12351.626840 70.733 70.5079
12441.131819 70.074 70.6774
12531.285389 69.449 70.9575
12622.092249 68.857 71.3222
12713.557132 68.298 71.7501
12805.684808 67.772 72.2173
12898.480079 67.278 72.6972
12991.947783 66.815 73.1669
13086.092792 66.383 73.6092
13180.920015 65.980 74.0095
13276.434395 65.606 74.3559
13372.640911 65.259 74.6474
13469.544580 64.939 74.8996
13567.150452 64.651 75.1318
13665.463617 64.404 75.3370
13764.489200 64.210 75.4531
13864.232362 64.072 75.3707
13964.698305 63.988 74.9831
14065.892266 63.949 74.2251
14167.819519 63.943 73.0718
14270.485380 63.965 71.5185
14373.895200 64.008 69.5602
14478.054370 64.066 67.1790
14582.968320 64.129 64.3535
14688.642520 64.181 61.0819
14795.082478 64.205 57.4037
14902.293745 64.181 53.4144
15010.281908 64.095 49.2743
15119.052599 63.946 45.1895
15228.611486 63.754 41.3591
15338.964283 63.559 37.9026
15450.116741 63.408 34.8194
15562.074656 63.344 32.0130
15674.843864 63.397 29.3546
15788.430244 63.584 26.7197
15902.839718 63.916 23.9578
16018.078250 64.383 20.8348
16134.151848 64.944 17.0435
16251.066563 65.524 12.3428
16368.828491 66.047 6.7379
16487.443769 66.473 0.4963
16606.918584 66.805 -6.0303
16727.259161 67.074 -12.5751
16848.471777 67.319 -19.0089
16970.562748 67.575 -25.3262
17093.538442 67.861 -31.6039
17217.405268 68.185 -37.9551
17342.169684 68.537 -44.4953
17467.838194 68.903 -51.3211
17594.417350 69.262 -58.4955
17721.913751 69.593 -66.0437
17850.334044 69.881 -73.9597
17979.684923 70.112 -82.2148
18109.973131 70.281 -90.7737
18241.205462 70.382 -99.6147
18373.388756 70.403 -108.7316
18506.529905 70.323 -118.1000
18640.635849 70.116 -127.6389
18775.713581 69.762 -137.2007
18911.770141 69.249 -146.6029
19048.812624 68.579 -155.6712
19186.848172 67.767 -164.2629
19325.883983 66.833 -172.2654
19465.927305 65.808 -179.5717
19606.985439 64.743 173.9518
19749.065738 63.722 168.5162
19892.175609 62.879 164.4684
20036.322514 62.390 162.2651
