* Measurement data measured by REW V5.31
* Source: EXCL: Microphone (USB Sound Device        ), MICROPHONE (Master Volume), L, volume: 0.560
* Format: 256k Log Swept Sine, 1 sweep at -9.0 dBFS with no timing reference
* Dated: Apr 16, 2024 5:25:27 PM
* REW Settings:
*  C-weighting compensation: Off
*  Target level: 75.0 dB
* Note: L KZ ZS10 PRO 2 0001 18
* Measurement: L KZ ZS10 PRO 2 0001 18
* Smoothing: 1/12 octave
* Frequency Step: 96 ppo
* Start Frequency: 0.36621094 Hz
*
* Freq(Hz) SPL(dB) Phase(degrees)
0.366211 86.192 157.1565
0.368865 86.186 157.1330
0.371538 86.177 157.0976
0.374230 86.166 157.0532
0.376942 86.154 157.0020
0.379673 86.141 156.9458
0.382424 86.127 156.8855
0.385196 86.112 156.8219
0.387987 86.098 156.7554
0.390798 86.083 156.6861
0.393630 86.068 156.6142
0.396483 86.053 156.5397
0.399356 86.038 156.4626
0.402250 86.023 156.3830
0.405165 86.008 156.3007
0.408101 85.992 156.2158
0.411058 85.977 156.1282
0.414037 85.961 156.0380
0.417037 85.945 155.9450
0.420059 85.929 155.8493
0.423103 85.913 155.7509
0.426169 85.897 155.6496
0.429257 85.881 155.5456
0.432368 85.864 155.4387
0.435501 85.848 155.3289
0.438656 85.831 155.2163
0.441835 85.814 155.1008
0.445037 85.798 154.9823
0.448262 85.781 154.8609
0.451510 85.763 154.7365
0.454782 85.746 154.6091
0.458077 85.729 154.4787
0.461397 85.711 154.3452
0.464740 85.694 154.2088
0.468108 85.676 154.0692
0.471500 85.658 153.9265
0.474917 85.640 153.7808
0.478358 85.622 153.6319
0.481825 85.604 153.4799
0.485316 85.585 153.3248
0.488833 85.567 153.1664
0.492375 85.548 153.0050
0.495943 85.530 152.8403
0.499537 85.511 152.6725
0.503157 85.492 152.5014
0.506803 85.472 152.3272
0.510475 85.453 152.1498
0.514175 85.433 151.9691
0.517900 85.414 151.7853
0.521653 85.394 151.5983
0.525434 85.374 151.4081
0.529241 85.354 151.2147
0.533076 85.334 151.0182
0.536939 85.314 150.8185
0.540830 85.293 150.6156
0.544749 85.272 150.4097
0.548696 85.252 150.2006
0.552673 85.231 149.9884
0.556677 85.210 149.7733
0.560711 85.188 149.5551
0.564774 85.167 149.3338
0.568867 85.145 149.1097
0.572989 85.124 148.8827
0.577141 85.102 148.6528
0.581324 85.080 148.4201
0.585536 85.058 148.1846
0.589779 85.035 147.9465
0.594053 85.013 147.7057
0.598358 84.990 147.4624
0.602694 84.967 147.2165
0.607061 84.944 146.9683
0.611460 84.921 146.7178
0.615891 84.898 146.4650
0.620354 84.874 146.2101
0.624849 84.851 145.9532
0.629377 84.827 145.6944
0.633938 84.803 145.4338
0.638532 84.779 145.1716
0.643159 84.754 144.9077
0.647819 84.730 144.6426
0.652514 84.705 144.3761
0.657242 84.680 144.1086
0.662005 84.655 143.8402
0.666802 84.630 143.5710
0.671634 84.604 143.3013
0.676501 84.579 143.0312
0.681403 84.553 142.7610
0.686341 84.527 142.4908
0.691314 84.501 142.2209
0.696324 84.474 141.9514
0.701370 84.447 141.6826
0.706452 84.420 141.4147
0.711571 84.392 141.1477
0.716728 84.364 140.8816
0.721921 84.334 140.6161
0.727153 84.303 140.3508
0.732422 84.270 140.0849
0.737729 84.234 139.8173
0.743075 84.197 139.5470
0.748460 84.158 139.2730
0.753883 84.117 138.9947
0.759346 84.075 138.7113
0.764849 84.033 138.4227
0.770391 83.990 138.1285
0.775974 83.947 137.8286
0.781597 83.902 137.5229
0.787261 83.858 137.2113
0.792966 83.813 136.8937
0.798712 83.767 136.5700
0.804500 83.720 136.2402
0.810329 83.673 135.9043
0.816201 83.626 135.5620
0.822116 83.577 135.2136
0.828073 83.529 134.8588
0.834074 83.479 134.4977
0.840118 83.428 134.1303
0.846206 83.377 133.7564
0.852338 83.325 133.3762
0.858514 83.272 132.9896
0.864735 83.218 132.5966
0.871001 83.163 132.1973
0.877313 83.107 131.7916
0.883670 83.050 131.3797
0.890074 82.992 130.9615
0.896524 82.933 130.5371
0.903020 82.873 130.1067
0.909564 82.811 129.6703
0.916155 82.749 129.2280
0.922794 82.685 128.7800
0.929481 82.619 128.3264
0.936216 82.552 127.8675
0.943000 82.484 127.4034
0.949834 82.414 126.9343
0.956717 82.343 126.4606
0.963649 82.270 125.9824
0.970632 82.195 125.5002
0.977666 82.118 125.0143
0.984750 82.040 124.5251
0.991886 81.959 124.0329
0.999074 81.877 123.5384
1.006314 81.793 123.0419
1.013606 81.706 122.5441
1.020951 81.617 122.0455
1.028349 81.526 121.5469
1.035801 81.433 121.0489
1.043307 81.337 120.5522
1.050867 81.239 120.0577
1.058482 81.138 119.5662
1.066152 81.034 119.0784
1.073878 80.928 118.5952
1.081660 80.820 118.1170
1.089498 80.709 117.6443
1.097393 80.597 117.1771
1.105345 80.483 116.7149
1.113355 80.368 116.2573
1.121423 80.252 115.8036
1.129549 80.136 115.3530
1.137734 80.019 114.9049
1.145979 79.902 114.4590
1.154283 79.785 114.0147
1.162647 79.667 113.5717
1.171072 79.548 113.1295
1.179558 79.428 112.6878
1.188106 79.306 112.2462
1.196715 79.183 111.8044
1.205387 79.058 111.3618
1.214122 78.930 110.9181
1.222920 78.800 110.4729
1.231782 78.667 110.0257
1.240708 78.530 109.5760
1.249699 78.390 109.1234
1.258754 78.246 108.6672
1.267876 78.097 108.2070
1.277063 77.943 107.7421
1.286318 77.784 107.2720
1.295639 77.619 106.7961
1.305027 77.448 106.3135
1.314484 77.271 105.8238
1.324009 77.086 105.3261
1.333604 76.894 104.8197
1.343268 76.693 104.3038
1.353002 76.484 103.7777
1.362806 76.266 103.2404
1.372681 76.037 102.6913
1.382628 75.799 102.1293
1.392647 75.549 101.5539
1.402739 75.287 100.9643
1.412904 75.013 100.3599
1.423142 74.726 99.7403
1.433455 74.423 99.1055
1.443843 74.104 98.4559
1.454305 73.767 97.7925
1.464844 73.407 97.1166
1.475459 73.022 96.4303
1.486150 72.608 95.7350
1.496920 72.163 95.0319
1.507767 71.685 94.3212
1.518693 71.174 93.6023
1.529698 70.631 92.8740
1.540783 70.056 92.1345
1.551948 69.452 91.3811
1.563194 68.820 90.6109
1.574521 68.163 89.8200
1.585931 67.484 89.0037
1.597423 66.786 88.1561
1.608999 66.072 87.2700
1.620658 65.345 86.3361
1.632402 64.609 85.3428
1.644232 63.868 84.2746
1.656146 63.126 83.1114
1.668147 62.388 81.8256
1.680235 61.658 80.3791
1.692411 60.943 78.7177
1.704675 60.247 76.7613
1.717028 59.576 74.3877
1.729470 58.939 71.4009
1.742003 58.341 67.4700
1.754626 57.791 62.0013
1.767341 57.298 53.8626
1.780147 56.870 40.8560
1.793047 56.518 19.5473
1.806040 56.251 -9.8872
1.819128 56.077 -36.5978
1.832310 56.004 -54.0648
1.845587 56.037 -64.9030
1.858961 56.176 -72.1059
1.872432 56.419 -77.3034
1.886001 56.762 -81.3200
1.899667 57.196 -84.5903
1.913433 57.713 -87.3578
1.927299 58.305 -89.7668
1.941265 58.960 -91.9076
1.955332 59.670 -93.8395
1.969501 60.424 -95.6027
1.983773 61.213 -97.2256
1.998148 62.027 -98.7287
2.012627 62.856 -100.1272
2.027212 63.693 -101.4327
2.041902 64.527 -102.6539
2.056698 65.350 -103.7977
2.071602 66.154 -104.8697
2.086614 66.931 -105.8743
2.101734 67.672 -106.8156
2.116964 68.372 -107.6975
2.132304 69.023 -108.5241
2.147756 69.621 -109.3008
2.163320 70.163 -110.0348
2.178996 70.648 -110.7358
2.194786 71.077 -111.4161
2.210690 71.455 -112.0896
2.226710 71.786 -112.7695
2.242845 72.076 -113.4654
2.259098 72.329 -114.1828
2.275468 72.548 -114.9232
2.291957 72.735 -115.6853
2.308566 72.895 -116.4663
2.325295 73.027 -117.2620
2.342145 73.135 -118.0676
2.359117 73.221 -118.8781
2.376212 73.287 -119.6881
2.393431 73.335 -120.4919
2.410775 73.367 -121.2840
2.428244 73.387 -122.0586
2.445840 73.397 -122.8101
2.463564 73.399 -123.5328
2.481416 73.396 -124.2219
2.499397 73.390 -124.8732
2.517509 73.384 -125.4844
2.535752 73.377 -126.0555
2.554127 73.369 -126.5897
2.572635 73.360 -127.0933
2.591277 73.346 -127.5745
2.610055 73.326 -128.0411
2.628968 73.297 -128.4987
2.648019 73.258 -128.9505
2.667208 73.210 -129.3972
2.686535 73.151 -129.8375
2.706003 73.083 -130.2688
2.725612 73.005 -130.6870
2.745363 72.918 -131.0874
2.765257 72.823 -131.4640
2.785295 72.720 -131.8100
2.805478 72.611 -132.1177
2.825808 72.495 -132.3787
2.846285 72.374 -132.5838
2.866910 72.247 -132.7236
2.887685 72.115 -132.7892
2.908611 71.976 -132.7720
2.929688 71.830 -132.6651
2.950917 71.673 -132.4631
2.972301 71.504 -132.1617
2.993839 71.322 -131.7570
3.015534 71.129 -131.2449
3.037386 70.924 -130.6211
3.059396 70.711 -129.8806
3.081565 70.492 -129.0187
3.103896 70.272 -128.0305
3.126388 70.054 -126.9122
3.149043 69.843 -125.6608
3.171862 69.643 -124.2749
3.194847 69.460 -122.7549
3.217998 69.299 -121.1025
3.241317 69.163 -119.3209
3.264805 69.057 -117.4131
3.288463 68.985 -115.3814
3.312293 68.946 -113.2278
3.336295 68.941 -110.9566
3.360471 68.968 -108.5796
3.384822 69.026 -106.1178
3.409350 69.111 -103.6013
3.434056 69.221 -101.0670
3.458940 69.353 -98.5551
3.484005 69.503 -96.1063
3.509252 69.668 -93.7583
3.534681 69.846 -91.5442
3.560295 70.033 -89.4903
3.586094 70.229 -87.6154
3.612081 70.431 -85.9306
3.638255 70.641 -84.4384
3.664620 70.858 -83.1346
3.691175 71.085 -82.0089
3.717923 71.322 -81.0483
3.744864 71.569 -80.2392
3.772001 71.826 -79.5682
3.799335 72.090 -79.0229
3.826866 72.358 -78.5920
3.854597 72.627 -78.2647
3.882529 72.894 -78.0318
3.910664 73.154 -77.8851
3.939002 73.404 -77.8182
3.967546 73.643 -77.8264
3.996296 73.867 -77.9073
4.025255 74.077 -78.0598
4.054423 74.272 -78.2837
4.083804 74.454 -78.5776
4.113396 74.622 -78.9376
4.143204 74.778 -79.3570
4.173227 74.923 -79.8270
4.203468 75.056 -80.3377
4.233928 75.179 -80.8790
4.264609 75.292 -81.4417
4.295512 75.394 -82.0178
4.326639 75.487 -82.6021
4.357992 75.569 -83.1923
4.389572 75.640 -83.7899
4.421380 75.701 -84.3987
4.453419 75.750 -85.0229
4.485691 75.789 -85.6645
4.518196 75.815 -86.3217
4.550936 75.832 -86.9896
4.583914 75.837 -87.6605
4.617131 75.833 -88.3252
4.650589 75.820 -88.9741
4.684289 75.798 -89.5984
4.718233 75.767 -90.1912
4.752424 75.727 -90.7488
4.786862 75.678 -91.2706
4.821549 75.620 -91.7583
4.856488 75.552 -92.2135
4.891680 75.476 -92.6367
4.927127 75.392 -93.0262
4.962831 75.301 -93.3782
4.998794 75.205 -93.6875
5.035017 75.106 -93.9476
5.071503 75.003 -94.1516
5.108253 74.899 -94.2924
5.145270 74.792 -94.3645
5.182555 74.684 -94.3642
5.220110 74.574 -94.2909
5.257937 74.463 -94.1466
5.296038 74.353 -93.9361
5.334415 74.246 -93.6657
5.373071 74.144 -93.3423
5.412006 74.050 -92.9724
5.451224 73.965 -92.5613
5.490725 73.891 -92.1120
5.530514 73.830 -91.6262
5.570590 73.780 -91.1069
5.610957 73.743 -90.5610
5.651616 73.716 -90.0005
5.692570 73.701 -89.4411
5.733821 73.697 -88.9006
5.775370 73.703 -88.3961
5.817221 73.720 -87.9423
5.859375 73.747 -87.5494
5.901834 73.786 -87.2228
5.944602 73.834 -86.9652
5.987679 73.892 -86.7787
6.031068 73.957 -86.6662
6.074771 74.027 -86.6316
6.118792 74.100 -86.6792
6.163131 74.173 -86.8134
6.207792 74.245 -87.0377
6.252776 74.315 -87.3536
6.298086 74.382 -87.7598
6.343725 74.447 -88.2516
6.389694 74.508 -88.8215
6.435996 74.565 -89.4613
6.482634 74.616 -90.1629
6.529610 74.661 -90.9200
6.576926 74.698 -91.7291
6.624585 74.727 -92.5887
6.672590 74.748 -93.4974
6.720942 74.760 -94.4511
6.769645 74.765 -95.4421
6.818700 74.762 -96.4604
6.868111 74.752 -97.4958
6.917881 74.734 -98.5392
6.968010 74.709 -99.5852
7.018504 74.676 -100.6310
7.069362 74.637 -101.6745
7.120590 74.592 -102.7118
7.172189 74.541 -103.7367
7.224161 74.487 -104.7412
7.276511 74.430 -105.7170
7.329239 74.372 -106.6572
7.382350 74.312 -107.5578
7.435845 74.251 -108.4172
7.489729 74.192 -109.2355
7.544002 74.135 -110.0127
7.598669 74.082 -110.7487
7.653732 74.035 -111.4426
7.709194 73.995 -112.0934
7.765058 73.963 -112.7015
7.821327 73.940 -113.2700
7.878004 73.926 -113.8052
7.935091 73.923 -114.3151
7.992592 73.931 -114.8079
8.050510 73.950 -115.2907
8.108847 73.981 -115.7683
8.167607 74.024 -116.2453
8.226793 74.078 -116.7272
8.286408 74.142 -117.2209
8.346454 74.214 -117.7335
8.406936 74.295 -118.2708
8.467856 74.382 -118.8362
8.529218 74.476 -119.4304
8.591024 74.574 -120.0527
8.653278 74.676 -120.7017
8.715983 74.780 -121.3759
8.779143 74.884 -122.0738
8.842760 74.987 -122.7931
8.906839 75.090 -123.5301
8.971381 75.190 -124.2792
9.036392 75.288 -125.0339
9.101873 75.382 -125.7879
9.167829 75.473 -126.5357
9.234263 75.559 -127.2729
9.301178 75.642 -127.9948
9.368578 75.720 -128.6962
9.436467 75.795 -129.3713
9.504847 75.867 -130.0150
9.573723 75.935 -130.6238
9.643099 76.001 -131.1954
9.712976 76.065 -131.7284
9.783361 76.127 -132.2218
9.854255 76.188 -132.6749
9.925663 76.248 -133.0877
9.997588 76.309 -133.4613
10.070035 76.371 -133.7982
10.143007 76.433 -134.1018
10.216507 76.496 -134.3756
10.290540 76.561 -134.6232
10.365109 76.627 -134.8480
10.440219 76.693 -135.0538
10.515873 76.761 -135.2446
10.592076 76.829 -135.4244
10.668830 76.898 -135.5963
10.746141 76.966 -135.7626
10.824012 77.033 -135.9249
10.902447 77.099 -136.0847
10.981451 77.163 -136.2426
11.061027 77.225 -136.3993
11.141180 77.284 -136.5543
11.221913 77.340 -136.7069
11.303232 77.393 -136.8561
11.385140 77.443 -137.0010
11.467641 77.490 -137.1408
11.550741 77.533 -137.2748
11.634442 77.574 -137.4025
11.718750 77.611 -137.5236
11.803669 77.645 -137.6382
11.889203 77.677 -137.7472
11.975357 77.706 -137.8515
12.062136 77.733 -137.9527
12.149543 77.758 -138.0523
12.237583 77.780 -138.1520
12.326262 77.800 -138.2536
12.415583 77.818 -138.3589
12.505552 77.834 -138.4695
12.596172 77.846 -138.5866
12.687449 77.856 -138.7109
12.779387 77.863 -138.8428
12.871992 77.867 -138.9823
12.965268 77.867 -139.1291
13.059220 77.864 -139.2825
13.153852 77.858 -139.4415
13.249170 77.849 -139.6051
13.345179 77.838 -139.7728
13.441884 77.823 -139.9441
13.539289 77.807 -140.1187
13.637401 77.789 -140.2973
13.736223 77.771 -140.4807
13.835761 77.751 -140.6709
13.936021 77.732 -140.8701
14.037007 77.713 -141.0809
14.138725 77.695 -141.3063
14.241180 77.677 -141.5496
14.344377 77.660 -141.8136
14.448323 77.644 -142.1007
14.553021 77.628 -142.4128
14.658478 77.613 -142.7509
14.764700 77.597 -143.1151
14.871691 77.581 -143.5044
14.979457 77.565 -143.9168
15.088005 77.548 -144.3497
15.197339 77.531 -144.7996
15.307465 77.513 -145.2629
15.418389 77.495 -145.7357
15.530117 77.477 -146.2144
15.642655 77.460 -146.6958
15.756008 77.445 -147.1777
15.870182 77.433 -147.6584
15.985184 77.423 -148.1375
16.101019 77.418 -148.6151
16.217694 77.416 -149.0924
16.335214 77.419 -149.5708
16.453586 77.426 -150.0521
16.572815 77.437 -150.5376
16.692909 77.452 -151.0282
16.813872 77.471 -151.5240
16.935713 77.492 -152.0241
17.058436 77.515 -152.5265
17.182048 77.539 -153.0281
17.306556 77.564 -153.5251
17.431967 77.590 -154.0132
17.558286 77.616 -154.4875
17.685521 77.642 -154.9439
17.813677 77.667 -155.3782
17.942762 77.693 -155.7874
18.072783 77.720 -156.1694
18.203746 77.747 -156.5234
18.335658 77.775 -156.8495
18.468526 77.804 -157.1490
18.602356 77.834 -157.4238
18.737156 77.865 -157.6763
18.872934 77.897 -157.9092
19.009695 77.928 -158.1248
19.147447 77.960 -158.3255
19.286197 77.990 -158.5129
19.425953 78.020 -158.6883
19.566721 78.047 -158.8529
19.708510 78.073 -159.0074
19.851326 78.096 -159.1525
19.995177 78.117 -159.2889
20.140070 78.136 -159.4177
20.286013 78.151 -159.5400
20.433014 78.164 -159.6571
20.581080 78.174 -159.7705
20.730219 78.180 -159.8815
20.880439 78.184 -159.9914
21.031747 78.184 -160.1012
21.184152 78.181 -160.2119
21.337661 78.174 -160.3243
21.492282 78.165 -160.4391
21.648024 78.153 -160.5573
21.804895 78.139 -160.6799
21.962902 78.122 -160.8086
22.122054 78.103 -160.9450
22.282360 78.083 -161.0910
22.443827 78.062 -161.2487
22.606464 78.040 -161.4198
22.770280 78.017 -161.6056
22.935283 77.993 -161.8067
23.101481 77.968 -162.0232
23.268884 77.944 -162.2547
23.437500 77.920 -162.5003
23.607338 77.896 -162.7592
23.778406 77.873 -163.0306
23.950714 77.852 -163.3141
24.124271 77.832 -163.6096
24.299086 77.815 -163.9173
24.475167 77.801 -164.2373
24.652524 77.788 -164.5692
24.831166 77.778 -164.9120
25.011103 77.770 -165.2634
25.192344 77.764 -165.6200
25.374898 77.759 -165.9777
25.558775 77.755 -166.3315
25.743984 77.753 -166.6766
25.930536 77.752 -167.0087
26.118439 77.753 -167.3248
26.307704 77.756 -167.6229
26.498341 77.761 -167.9027
26.690359 77.769 -168.1651
26.883768 77.778 -168.4118
27.078579 77.790 -168.6446
27.274801 77.802 -168.8652
27.472446 77.814 -169.0745
27.671522 77.826 -169.2727
27.872042 77.837 -169.4593
28.074014 77.846 -169.6333
28.277450 77.853 -169.7935
28.482360 77.858 -169.9393
28.688755 77.861 -170.0702
28.896645 77.861 -170.1869
29.106042 77.860 -170.2909
29.316957 77.856 -170.3845
29.529400 77.851 -170.4710
29.743382 77.844 -170.5538
29.958915 77.836 -170.6369
30.176009 77.826 -170.7238
30.394677 77.815 -170.8176
30.614929 77.802 -170.9207
30.836778 77.787 -171.0345
31.060234 77.770 -171.1595
31.285309 77.752 -171.2956
31.512015 77.733 -171.4422
31.740364 77.713 -171.5990
31.970368 77.692 -171.7655
32.202039 77.672 -171.9419
32.435388 77.652 -172.1280
32.670428 77.633 -172.3238
32.907171 77.615 -172.5284
33.145630 77.599 -172.7405
33.385817 77.584 -172.9584
33.627745 77.570 -173.1800
33.871425 77.558 -173.4036
34.116871 77.549 -173.6276
34.364096 77.541 -173.8511
34.613113 77.535 -174.0732
34.863934 77.530 -174.2931
35.116572 77.526 -174.5090
35.371041 77.523 -174.7191
35.627354 77.520 -174.9210
35.885525 77.517 -175.1124
36.145566 77.513 -175.2918
36.407492 77.509 -175.4585
36.671316 77.505 -175.6125
36.937051 77.499 -175.7545
37.204712 77.492 -175.8850
37.474313 77.484 -176.0046
37.745867 77.475 -176.1138
38.019389 77.465 -176.2137
38.294893 77.453 -176.3062
38.572394 77.441 -176.3943
38.851905 77.429 -176.4820
39.133442 77.415 -176.5731
39.417019 77.402 -176.6707
39.702651 77.387 -176.7763
39.990353 77.371 -176.8897
40.280140 77.354 -177.0096
40.572026 77.336 -177.1341
40.866028 77.318 -177.2618
41.162160 77.300 -177.3921
41.460438 77.282 -177.5248
41.760877 77.265 -177.6599
42.063494 77.249 -177.7971
42.368303 77.234 -177.9354
42.675322 77.219 -178.0734
42.984565 77.206 -178.2095
43.296048 77.193 -178.3427
43.609789 77.181 -178.4725
43.925804 77.170 -178.5987
44.244108 77.159 -178.7215
44.564719 77.148 -178.8403
44.887654 77.138 -178.9547
45.212928 77.127 -179.0638
45.540560 77.117 -179.1679
45.870565 77.106 -179.2677
46.202962 77.095 -179.3647
46.537768 77.083 -179.4603
46.875000 77.071 -179.5554
47.214676 77.058 -179.6496
47.556813 77.044 -179.7415
47.901429 77.029 -179.8298
48.248542 77.014 -179.9135
48.598171 76.998 -179.9922
48.950334 76.983 179.9331
49.305048 76.968 179.8611
49.662333 76.954 179.7896
50.022206 76.941 179.7162
50.384688 76.929 179.6389
50.749796 76.916 179.5570
51.117550 76.902 179.4725
51.487969 76.887 179.3894
51.861072 76.871 179.3130
52.236879 76.855 179.2468
52.615409 76.838 179.1912
52.996681 76.823 179.1426
53.380717 76.808 179.0955
53.767536 76.795 179.0450
54.157158 76.781 178.9885
54.549603 76.768 178.9268
54.944892 76.754 178.8623
55.343045 76.740 178.7973
55.744084 76.727 178.7323
56.148028 76.714 178.6659
56.554900 76.703 178.5952
56.964720 76.693 178.5176
57.377510 76.682 178.4314
57.793291 76.672 178.3379
58.212085 76.661 178.2411
58.633914 76.648 178.1473
59.058799 76.634 178.0630
59.486764 76.619 177.9922
59.917829 76.604 177.9344
60.352019 76.590 177.8850
60.789354 76.577 177.8381
61.229859 76.565 177.7889
61.673556 76.552 177.7354
62.120468 76.539 177.6772
62.570618 76.525 177.6147
63.024031 76.510 177.5480
63.480729 76.494 177.4779
63.940736 76.478 177.4068
64.404077 76.461 177.3385
64.870776 76.444 177.2764
65.340856 76.428 177.2217
65.814343 76.412 177.1733
66.291261 76.399 177.1287
66.771635 76.386 177.0856
67.255489 76.374 177.0427
67.742850 76.363 177.0005
68.233743 76.351 176.9598
68.728193 76.339 176.9213
69.226226 76.326 176.8848
69.727867 76.313 176.8489
70.233144 76.300 176.8124
70.742083 76.286 176.7746
71.254709 76.271 176.7357
71.771050 76.256 176.6959
72.291132 76.241 176.6553
72.814984 76.226 176.6144
73.342631 76.211 176.5735
73.874102 76.197 176.5328
74.409424 76.183 176.4932
74.948626 76.170 176.4561
75.491734 76.157 176.4245
76.038779 76.144 176.4011
76.589787 76.132 176.3853
77.144788 76.122 176.3727
77.703811 76.112 176.3580
78.266885 76.103 176.3372
78.834039 76.094 176.3095
79.405303 76.084 176.2747
79.980706 76.074 176.2320
80.560280 76.063 176.1806
81.144053 76.051 176.1204
81.732056 76.038 176.0531
82.324320 76.023 175.9818
82.920876 76.007 175.9103
83.521755 75.990 175.8419
84.126988 75.972 175.7784
84.736607 75.954 175.7200
85.350643 75.934 175.6678
85.969129 75.913 175.6242
86.592097 75.892 175.5917
87.219579 75.870 175.5712
87.851608 75.848 175.5612
88.488217 75.827 175.5595
89.129439 75.806 175.5626
89.775308 75.786 175.5672
90.425856 75.767 175.5708
91.081119 75.747 175.5730
91.741131 75.727 175.5748
92.405925 75.708 175.5773
93.075536 75.688 175.5812
93.750000 75.669 175.5864
94.429351 75.651 175.5919
95.113625 75.634 175.5964
95.802858 75.618 175.5990
96.497085 75.602 175.6004
97.196342 75.587 175.6022
97.900667 75.571 175.6063
98.610096 75.556 175.6139
99.324665 75.540 175.6257
100.044413 75.525 175.6415
100.769376 75.509 175.6610
101.499592 75.492 175.6840
102.235100 75.476 175.7100
102.975938 75.460 175.7377
103.722144 75.444 175.7661
104.473757 75.429 175.7936
105.230817 75.415 175.8190
105.993363 75.401 175.8403
106.761435 75.388 175.8558
107.535072 75.375 175.8654
108.314315 75.362 175.8702
109.099206 75.348 175.8704
109.889783 75.334 175.8645
110.686090 75.320 175.8516
111.488167 75.305 175.8322
112.296056 75.289 175.8095
113.109800 75.272 175.7900
113.929440 75.252 175.7822
114.755020 75.231 175.7941
115.586582 75.209 175.8312
116.424170 75.186 175.8954
117.267827 75.164 175.9838
118.117598 75.143 176.0865
118.973527 75.124 176.1871
119.835658 75.106 176.2681
120.704037 75.089 176.3226
121.578708 75.070 176.3578
122.459718 75.050 176.3860
123.347111 75.031 176.4161
124.240935 75.012 176.4531
125.141236 74.995 176.4982
126.048061 74.979 176.5503
126.961458 74.965 176.6071
127.881473 74.952 176.6653
128.808154 74.938 176.7219
129.741551 74.925 176.7756
130.681712 74.911 176.8270
131.628686 74.896 176.8766
132.582521 74.882 176.9232
133.543269 74.867 176.9642
134.510979 74.851 176.9991
135.485701 74.834 177.0290
136.467486 74.816 177.0559
137.456386 74.797 177.0814
138.452451 74.777 177.1066
139.455735 74.757 177.1325
140.466288 74.737 177.1609
141.484165 74.719 177.1929
142.509418 74.702 177.2290
143.542100 74.686 177.2704
144.582265 74.670 177.3185
145.629968 74.655 177.3734
146.685262 74.639 177.4335
147.748204 74.621 177.4973
148.818849 74.603 177.5639
149.897251 74.583 177.6320
150.983469 74.563 177.7008
152.077557 74.541 177.7722
153.179574 74.520 177.8499
154.289576 74.498 177.9372
155.407622 74.478 178.0338
156.533770 74.460 178.1359
157.668078 74.444 178.2383
158.810606 74.429 178.3362
159.961413 74.416 178.4268
161.120559 74.403 178.5108
162.288105 74.390 178.5905
163.464112 74.375 178.6684
164.648640 74.358 178.7458
165.841752 74.339 178.8239
167.043510 74.317 178.9051
168.253976 74.294 178.9929
169.473213 74.271 179.0886
170.701286 74.250 179.1890
171.938258 74.231 179.2906
173.184194 74.216 179.3932
174.439158 74.203 179.4988
175.703216 74.191 179.6088
176.976434 74.180 179.7223
178.258878 74.168 179.8369
179.550615 74.155 179.9504
180.851713 74.142 -179.9387
182.162239 74.128 -179.8317
183.482262 74.114 -179.7301
184.811850 74.100 -179.6344
186.151073 74.086 -179.5431
187.500000 74.070 -179.4525
188.858702 74.054 -179.3595
190.227250 74.037 -179.2624
191.605715 74.019 -179.1604
192.994169 74.001 -179.0538
194.392685 73.983 -178.9433
195.801334 73.964 -178.8291
197.220191 73.945 -178.7105
198.649330 73.926 -178.5859
200.088825 73.907 -178.4539
201.538751 73.889 -178.3152
202.999184 73.872 -178.1728
204.470200 73.856 -178.0310
205.951875 73.841 -177.8931
207.444287 73.826 -177.7602
208.947514 73.811 -177.6311
210.461634 73.795 -177.5035
211.986726 73.778 -177.3750
213.522869 73.760 -177.2430
215.070144 73.741 -177.1043
216.628631 73.721 -176.9554
218.198411 73.701 -176.7941
219.779567 73.682 -176.6222
221.372180 73.664 -176.4449
222.976334 73.648 -176.2681
224.592112 73.634 -176.0957
226.219600 73.622 -175.9296
227.858880 73.612 -175.7702
229.510039 73.602 -175.6153
231.173164 73.592 -175.4596
232.848340 73.581 -175.2988
234.535655 73.571 -175.1329
236.235197 73.559 -174.9661
237.947054 73.547 -174.8035
239.671317 73.534 -174.6489
241.408074 73.520 -174.5039
243.157416 73.505 -174.3676
244.919435 73.490 -174.2382
246.694223 73.475 -174.1117
248.481871 73.461 -173.9818
250.282473 73.448 -173.8385
252.096123 73.435 -173.6685
253.922915 73.421 -173.4600
255.762945 73.406 -173.2160
257.616309 73.392 -172.9567
259.483103 73.380 -172.7072
261.363424 73.368 -172.4836
263.257372 73.358 -172.2887
265.165043 73.347 -172.1148
267.086538 73.336 -171.9491
269.021957 73.324 -171.7808
270.971401 73.312 -171.6033
272.934972 73.300 -171.4142
274.912771 73.289 -171.2145
276.904902 73.280 -171.0064
278.911469 73.273 -170.7924
280.932577 73.268 -170.5757
282.968330 73.265 -170.3617
285.018835 73.263 -170.1574
287.084199 73.263 -169.9698
289.164530 73.263 -169.8032
291.259935 73.261 -169.6575
293.370525 73.257 -169.5271
295.496408 73.250 -169.4039
297.637697 73.239 -169.2804
299.794503 73.227 -169.1506
301.966937 73.212 -169.0104
304.155114 73.197 -168.8583
306.359147 73.182 -168.6967
308.579152 73.167 -168.5297
310.815244 73.153 -168.3603
313.067539 73.139 -168.1888
315.336156 73.125 -168.0123
317.621211 73.109 -167.8266
319.922826 73.094 -167.6291
322.241118 73.079 -167.4205
324.576210 73.066 -167.2041
326.928223 73.054 -166.9826
329.297280 73.042 -166.7575
331.683504 73.032 -166.5311
334.087019 73.021 -166.3069
336.507952 73.009 -166.0888
338.946427 72.997 -165.8777
341.402572 72.985 -165.6710
343.876516 72.972 -165.4651
346.368387 72.959 -165.2569
348.878315 72.946 -165.0447
351.406431 72.933 -164.8283
353.952867 72.920 -164.6090
356.517756 72.908 -164.3873
359.101230 72.895 -164.1618
361.703426 72.882 -163.9305
364.324478 72.870 -163.6931
366.964523 72.857 -163.4512
369.623699 72.844 -163.2063
372.302145 72.832 -162.9593
375.000000 72.819 -162.7105
377.717405 72.807 -162.4600
380.454501 72.794 -162.2077
383.211431 72.782 -161.9539
385.988339 72.770 -161.6990
388.785369 72.759 -161.4424
391.602668 72.749 -161.1826
394.440383 72.739 -160.9185
397.298660 72.731 -160.6494
400.177650 72.722 -160.3754
403.077502 72.714 -160.0980
405.998368 72.706 -159.8201
408.940400 72.696 -159.5445
411.903750 72.686 -159.2723
414.888575 72.675 -159.0014
417.895028 72.664 -158.7263
420.923268 72.653 -158.4408
423.973452 72.643 -158.1412
427.045738 72.634 -157.8285
430.140287 72.626 -157.5066
433.257261 72.619 -157.1808
436.396822 72.613 -156.8562
439.559133 72.608 -156.5373
442.744360 72.605 -156.2275
445.952668 72.603 -155.9293
449.184225 72.603 -155.6456
452.439199 72.604 -155.3800
455.717760 72.604 -155.1332
459.020079 72.602 -154.8989
462.346327 72.597 -154.6653
465.696680 72.589 -154.4210
469.071310 72.579 -154.1603
472.470394 72.568 -153.8827
475.894109 72.558 -153.5906
479.342634 72.549 -153.2901
482.816148 72.540 -152.9889
486.314833 72.531 -152.6905
489.838871 72.520 -152.3903
493.388445 72.509 -152.0779
496.963741 72.498 -151.7460
500.564945 72.488 -151.3962
504.192245 72.480 -151.0370
507.845830 72.472 -150.6780
511.525890 72.466 -150.3260
515.232618 72.459 -149.9819
518.966206 72.452 -149.6413
522.726849 72.444 -149.2978
526.514743 72.436 -148.9473
530.330086 72.429 -148.5888
534.173076 72.423 -148.2239
538.043915 72.416 -147.8552
541.942803 72.410 -147.4826
545.869944 72.403 -147.1041
549.825542 72.398 -146.7200
553.809805 72.393 -146.3336
557.822939 72.390 -145.9494
561.865154 72.388 -145.5704
565.936660 72.386 -145.1964
570.037671 72.384 -144.8235
574.168399 72.381 -144.4465
578.329060 72.376 -144.0620
582.519870 72.372 -143.6698
586.741049 72.367 -143.2715
590.992817 72.362 -142.8666
595.275394 72.357 -142.4541
599.589005 72.353 -142.0356
603.933874 72.349 -141.6150
608.310228 72.347 -141.1947
612.718295 72.345 -140.7740
617.158304 72.343 -140.3501
621.630488 72.341 -139.9185
626.135079 72.340 -139.4740
630.672311 72.340 -139.0144
635.242423 72.341 -138.5430
639.845651 72.345 -138.0645
644.482237 72.350 -137.5792
649.152421 72.357 -137.0844
653.856447 72.366 -136.5817
658.594560 72.379 -136.0798
663.367008 72.394 -135.5919
668.174039 72.410 -135.1280
673.015903 72.426 -134.6886
677.892854 72.440 -134.2666
682.805145 72.451 -133.8525
687.753032 72.460 -133.4381
692.736774 72.467 -133.0157
697.756631 72.473 -132.5791
702.812863 72.480 -132.1266
707.905735 72.488 -131.6620
713.035511 72.496 -131.1906
718.202461 72.506 -130.7162
723.406852 72.517 -130.2391
728.648956 72.528 -129.7588
733.929047 72.538 -129.2744
739.247399 72.549 -128.7839
744.604290 72.560 -128.2850
750.000000 72.572 -127.7762
755.434809 72.584 -127.2573
760.909001 72.598 -126.7298
766.422861 72.613 -126.1960
771.976677 72.629 -125.6578
777.570739 72.647 -125.1173
783.205337 72.667 -124.5752
788.880766 72.688 -124.0300
794.597321 72.711 -123.4801
800.355301 72.736 -122.9259
806.155005 72.764 -122.3715
811.996736 72.795 -121.8256
817.880799 72.829 -121.2995
823.807501 72.864 -120.8040
829.777150 72.900 -120.3440
835.790057 72.933 -119.9136
841.846536 72.961 -119.4949
847.946903 72.984 -119.0660
854.091476 73.005 -118.6122
860.280575 73.025 -118.1316
866.514523 73.046 -117.6300
872.793644 73.067 -117.1130
879.118267 73.090 -116.5836
885.488720 73.113 -116.0415
891.905336 73.137 -115.4824
898.368450 73.162 -114.9013
904.878398 73.190 -114.2988
911.435520 73.221 -113.6826
918.040157 73.257 -113.0643
924.692655 73.296 -112.4541
931.393359 73.339 -111.8607
938.142619 73.384 -111.2898
944.940787 73.431 -110.7417
951.788218 73.478 -110.2108
958.685268 73.526 -109.6902
965.632296 73.574 -109.1742
972.629666 73.622 -108.6591
979.677741 73.670 -108.1440
986.776890 73.718 -107.6292
993.927482 73.766 -107.1128
1001.129891 73.813 -106.5900
1008.384491 73.861 -106.0563
1015.691660 73.911 -105.5120
1023.051781 73.964 -104.9617
1030.465236 74.022 -104.4134
1037.932411 74.085 -103.8795
1045.453698 74.151 -103.3732
1053.029486 74.218 -102.9004
1060.660172 74.284 -102.4580
1068.346153 74.347 -102.0374
1076.087829 74.408 -101.6296
1083.885605 74.467 -101.2279
1091.739887 74.525 -100.8297
1099.651084 74.581 -100.4347
1107.619609 74.636 -100.0418
1115.645878 74.690 -99.6499
1123.730308 74.744 -99.2574
1131.873321 74.797 -98.8623
1140.075341 74.850 -98.4631
1148.336797 74.903 -98.0595
1156.658119 74.957 -97.6513
1165.039741 75.011 -97.2386
1173.482099 75.066 -96.8209
1181.985634 75.123 -96.3990
1190.550789 75.181 -95.9776
1199.178011 75.242 -95.5674
1207.867749 75.305 -95.1800
1216.620457 75.368 -94.8212
1225.436590 75.429 -94.4875
1234.316609 75.488 -94.1706
1243.260976 75.543 -93.8616
1252.270157 75.596 -93.5525
1261.344623 75.646 -93.2387
1270.484846 75.693 -92.9186
1279.691303 75.740 -92.5911
1288.964474 75.785 -92.2553
1298.304842 75.830 -91.9112
1307.712894 75.875 -91.5602
1317.189120 75.920 -91.2049
1326.734016 75.965 -90.8477
1336.348077 76.008 -90.4884
1346.031806 76.051 -90.1251
1355.785708 76.092 -89.7549
1365.610290 76.133 -89.3749
1375.506065 76.173 -88.9804
1385.473549 76.214 -88.5657
1395.513261 76.256 -88.1284
1405.625726 76.301 -87.6733
1415.811469 76.350 -87.2119
1426.071023 76.402 -86.7589
1436.404921 76.456 -86.3238
1446.813703 76.510 -85.9077
1457.297912 76.563 -85.5058
1467.858093 76.615 -85.1115
1478.494798 76.666 -84.7192
1489.208581 76.716 -84.3242
1500.000000 76.764 -83.9230
1510.869618 76.812 -83.5128
1521.818002 76.860 -83.0917
1532.845723 76.907 -82.6570
1543.953355 76.956 -82.2065
1555.141477 77.007 -81.7393
1566.410674 77.061 -81.2598
1577.761531 77.118 -80.7799
1589.194642 77.179 -80.3148
1600.710601 77.242 -79.8745
1612.310010 77.305 -79.4601
1623.993473 77.367 -79.0661
1635.761599 77.427 -78.6846
1647.615002 77.486 -78.3078
1659.554299 77.543 -77.9297
1671.580114 77.599 -77.5460
1683.693072 77.655 -77.1562
1695.893807 77.711 -76.7623
1708.182952 77.766 -76.3667
1720.561150 77.821 -75.9691
1733.029045 77.874 -75.5659
1745.587288 77.927 -75.1516
1758.236533 77.979 -74.7195
1770.977440 78.031 -74.2638
1783.810673 78.087 -73.7855
1796.736900 78.147 -73.2945
1809.756796 78.211 -72.8064
1822.871040 78.278 -72.3330
1836.080315 78.347 -71.8780
1849.385310 78.417 -71.4392
1862.786718 78.486 -71.0119
1876.285239 78.554 -70.5909
1889.881575 78.622 -70.1703
1903.576436 78.690 -69.7443
1917.370535 78.757 -69.3079
1931.264593 78.826 -68.8580
1945.259332 78.899 -68.3962
1959.355483 78.975 -67.9318
1973.553781 79.056 -67.4788
1987.854965 79.140 -67.0483
2002.259781 79.225 -66.6447
2016.768981 79.309 -66.2662
2031.383320 79.392 -65.9081
2046.103561 79.474 -65.5652
2060.930471 79.555 -65.2335
2075.864823 79.635 -64.9111
2090.907395 79.714 -64.5968
2106.058972 79.791 -64.2880
2121.320344 79.867 -63.9792
2136.692305 79.941 -63.6622
2152.175658 80.014 -63.3289
2167.771210 80.090 -62.9774
2183.479774 80.168 -62.6156
2199.302169 80.250 -62.2573
2215.239219 80.335 -61.9136
2231.291755 80.421 -61.5898
2247.460615 80.508 -61.2857
2263.746641 80.595 -60.9969
2280.150683 80.680 -60.7164
2296.673595 80.765 -60.4362
2313.316238 80.850 -60.1498
2330.079481 80.937 -59.8562
2346.964198 81.027 -59.5641
2363.971268 81.121 -59.2872
2381.101578 81.218 -59.0372
2398.356022 81.316 -58.8195
2415.735498 81.415 -58.6340
2433.240913 81.512 -58.4775
2450.873180 81.609 -58.3467
2468.633217 81.703 -58.2395
2486.521951 81.795 -58.1531
2504.540314 81.885 -58.0813
2522.689246 81.970 -58.0145
2540.969692 82.054 -57.9434
2559.382606 82.137 -57.8658
2577.928947 82.221 -57.7890
2596.609683 82.306 -57.7233
2615.425787 82.392 -57.6768
2634.378241 82.477 -57.6522
2653.468031 82.561 -57.6470
2672.696154 82.643 -57.6547
2692.063613 82.724 -57.6675
2711.571415 82.804 -57.6817
2731.220579 82.885 -57.7017
2751.012130 82.968 -57.7386
2770.947098 83.053 -57.8036
2791.026522 83.138 -57.9039
2811.251451 83.222 -58.0424
2831.622938 83.304 -58.2197
2852.142045 83.382 -58.4354
2872.809842 83.456 -58.6876
2893.627406 83.525 -58.9701
2914.595823 83.587 -59.2726
2935.716186 83.645 -59.5864
2956.989596 83.697 -59.9099
2978.417161 83.747 -60.2482
3000.000000 83.792 -60.6071
3021.739237 83.832 -60.9900
3043.636005 83.866 -61.3948
3065.691446 83.893 -61.8145
3087.906710 83.913 -62.2398
3110.282955 83.926 -62.6654
3132.821347 83.933 -63.0930
3155.523062 83.935 -63.5276
3178.389283 83.930 -63.9732
3201.421202 83.918 -64.4308
3224.620020 83.897 -64.8980
3247.986946 83.865 -65.3700
3271.523198 83.822 -65.8372
3295.230004 83.766 -66.2829
3319.108599 83.697 -66.6873
3343.160228 83.617 -67.0346
3367.386145 83.527 -67.3156
3391.787613 83.430 -67.5256
3416.365904 83.325 -67.6604
3441.122300 83.215 -67.7127
3466.058091 83.100 -67.6721
3491.174576 82.983 -67.5295
3516.473066 82.868 -67.2841
3541.954880 82.757 -66.9449
3567.621345 82.653 -66.5272
3593.473800 82.558 -66.0490
3619.513592 82.470 -65.5293
3645.742080 82.392 -64.9853
3672.160630 82.320 -64.4274
3698.770620 82.253 -63.8581
3725.573436 82.193 -63.2779
3752.570477 82.138 -62.6912
3779.763150 82.088 -62.1058
3807.152872 82.041 -61.5281
3834.741071 81.997 -60.9587
3862.529185 81.955 -60.3914
3890.518664 81.913 -59.8197
3918.710966 81.874 -59.2426
3947.107561 81.839 -58.6651
3975.709929 81.806 -58.0959
4004.519563 81.776 -57.5443
4033.537962 81.747 -57.0178
4062.766641 81.717 -56.5168
4092.207123 81.685 -56.0340
4121.860942 81.648 -55.5600
4151.729646 81.608 -55.0886
4181.814790 81.563 -54.6158
4212.117944 81.512 -54.1351
4242.640687 81.455 -53.6332
4273.384610 81.392 -53.0934
4304.351317 81.325 -52.5027
4335.542421 81.255 -51.8546
4366.959549 81.186 -51.1485
4398.604338 81.117 -50.3889
4430.478438 81.049 -49.5806
4462.583511 80.983 -48.7230
4494.921231 80.919 -47.8096
4527.493283 80.858 -46.8338
4560.301365 80.801 -45.7935
4593.347189 80.751 -44.6896
4626.632476 80.710 -43.5206
4660.158962 80.679 -42.2836
4693.928395 80.662 -40.9816
4727.942535 80.664 -39.6303
4762.203156 80.687 -38.2597
4796.712043 80.733 -36.9115
4831.470996 80.802 -35.6304
4866.481826 80.889 -34.4549
4901.746360 80.992 -33.4149
4937.266434 81.105 -32.5347
4973.043902 81.222 -31.8301
5009.080628 81.336 -31.3027
5045.378492 81.441 -30.9366
5081.939384 81.532 -30.7050
5118.765212 81.607 -30.5776
5155.857894 81.663 -30.5261
5193.219366 81.701 -30.5271
5230.851574 81.721 -30.5592
5268.756481 81.721 -30.5998
5306.936062 81.702 -30.6271
5345.392309 81.667 -30.6250
5384.127225 81.615 -30.5800
5423.142830 81.548 -30.4767
5462.441159 81.466 -30.2965
5502.024259 81.373 -30.0222
5541.894195 81.271 -29.6430
5582.053045 81.165 -29.1578
5622.502902 81.056 -28.5724
5663.245876 80.948 -27.8942
5704.284090 80.842 -27.1312
5745.619684 80.739 -26.2943
5787.254813 80.639 -25.3933
5829.191647 80.543 -24.4323
5871.432373 80.450 -23.4089
5913.979192 80.361 -22.3184
5956.834323 80.277 -21.1591
6000.000000 80.201 -19.9355
6043.478473 80.134 -18.6554
6087.272010 80.077 -17.3281
6131.382892 80.032 -15.9670
6175.813420 79.999 -14.5875
6220.565910 79.977 -13.2028
6265.642695 79.967 -11.8206
6311.046124 79.968 -10.4456
6356.778566 79.981 -9.0852
6402.842404 80.006 -7.7528
6449.240040 80.044 -6.4668
6495.973891 80.092 -5.2493
6543.046396 80.151 -4.1247
6590.460007 80.214 -3.1139
6638.217197 80.279 -2.2264
6686.320456 80.338 -1.4571
6734.772290 80.389 -0.7884
6783.575226 80.426 -0.1939
6832.731809 80.449 0.3588
6882.244600 80.457 0.9048
6932.116181 80.451 1.4758
6982.349153 80.433 2.0981
7032.946133 80.408 2.7921
7083.909760 80.380 3.5717
7135.242690 80.353 4.4403
7186.947600 80.332 5.3883
7239.027185 80.322 6.3953
7291.484160 80.326 7.4312
7344.321260 80.344 8.4593
7397.541239 80.377 9.4436
7451.146872 80.422 10.3563
7505.140954 80.476 11.1796
7559.526299 80.536 11.9019
7614.305743 80.599 12.5160
7669.482141 80.663 13.0157
7725.058371 80.725 13.3929
7781.037328 80.782 13.6404
7837.421932 80.829 13.7588
7894.215122 80.861 13.7599
7951.419859 80.875 13.6645
8009.039125 80.868 13.4991
8067.075924 80.838 13.2922
8125.533282 80.786 13.0678
8184.414245 80.712 12.8452
8243.721885 80.614 12.6452
8303.459292 80.494 12.4929
8363.629581 80.351 12.4174
8424.235888 80.187 12.4496
8485.281374 80.007 12.6161
8546.769221 79.813 12.9330
8608.702634 79.611 13.4058
8671.084842 79.404 14.0367
8733.919097 79.195 14.8279
8797.208675 78.987 15.7839
8860.956876 78.783 16.9086
8925.167022 78.590 18.1994
8989.842461 78.410 19.6436
9054.986566 78.248 21.2224
9120.602731 78.106 22.9161
9186.694378 77.987 24.7066
9253.264952 77.893 26.5780
9320.317925 77.827 28.5118
9387.856790 77.791 30.4821
9455.885071 77.787 32.4568
9524.406312 77.817 34.4006
9593.424086 77.882 36.2792
9662.941992 77.981 38.0615
9732.963653 78.115 39.7130
9803.492719 78.284 41.1901
9874.532869 78.484 42.4415
9946.087805 78.713 43.4144
10018.161257 78.964 44.0634
10090.756983 79.228 44.3545
10163.878768 79.498 44.2618
10237.530423 79.765 43.7665
10311.715789 80.016 42.8607
10386.438732 80.240 41.5536
10461.703149 80.426 39.8767
10537.512962 80.565 37.8786
10613.872125 80.648 35.6169
10690.784618 80.670 33.1537
10768.254450 80.629 30.5537
10846.285661 80.521 27.8859
10924.882318 80.346 25.2208
11004.048518 80.107 22.6235
11083.788390 79.807 20.1493
11164.106090 79.451 17.8435
11245.005805 79.043 15.7473
11326.491752 78.588 13.8999
11408.568180 78.093 12.3359
11491.239368 77.564 11.0796
11574.509626 77.010 10.1416
11658.383294 76.437 9.5232
11742.864745 75.852 9.2209
11827.958384 75.263 9.2274
11913.668646 74.675 9.5280
12000.000000 74.094 10.0992
12086.956947 73.524 10.9146
12174.544019 72.971 11.9489
12262.765784 72.437 13.1770
12351.626840 71.925 14.5674
12441.131819 71.439 16.0840
12531.285389 70.980 17.6931
12622.092249 70.548 19.3665
12713.557132 70.144 21.0773
12805.684808 69.769 22.7941
12898.480079 69.421 24.4840
12991.947783 69.098 26.1184
13086.092792 68.800 27.6724
13180.920015 68.522 29.1212
13276.434395 68.262 30.4435
13372.640911 68.014 31.6334
13469.544580 67.774 32.7066
13567.150452 67.544 33.6931
13665.463617 67.328 34.6144
13764.489200 67.133 35.4547
13864.232362 66.966 36.1435
13964.698305 66.825 36.5844
14065.892266 66.698 36.7137
14167.819519 66.571 36.5256
14270.485380 66.436 36.0581
14373.895200 66.286 35.3625
14478.054370 66.118 34.4821
14582.968320 65.932 33.4485
14688.642520 65.726 32.2869
14795.082478 65.499 31.0241
14902.293745 65.247 29.7000
15010.281908 64.965 28.3826
15119.052599 64.651 27.1798
15228.611486 64.309 26.2327
15338.964283 63.956 25.6879
15450.116741 63.621 25.6551
15562.074656 63.345 26.1817
15674.843864 63.171 27.2583
15788.430244 63.148 28.8301
15902.839718 63.322 30.7615
16018.078250 63.725 32.7433
16134.151848 64.344 34.2302
16251.066563 65.110 34.5635
16368.828491 65.916 33.2882
16487.443769 66.664 30.4016
16606.918584 67.301 26.2828
16727.259161 67.823 21.3977
16848.471777 68.248 16.0846
16970.562748 68.597 10.5152
17093.538442 68.883 4.7470
17217.405268 69.103 -1.2084
17342.169684 69.246 -7.3355
17467.838194 69.299 -13.5884
17594.417350 69.247 -19.8830
17721.913751 69.081 -26.1004
17850.334044 68.799 -32.1021
17979.684923 68.403 -37.7460
18109.973131 67.902 -42.8968
18241.205462 67.308 -47.4312
18373.388756 66.642 -51.2438
18506.529905 65.930 -54.2668
18640.635849 65.207 -56.5151
18775.713581 64.513 -58.1407
18911.770141 63.879 -59.4360
19048.812624 63.306 -60.7349
19186.848172 62.769 -62.2449
19325.883983 62.227 -63.9618
19465.927305 61.659 -65.7292
19606.985439 61.071 -67.3498
19749.065738 60.511 -68.6599
19892.175609 60.057 -69.5587
20036.322514 59.800 -70.0077
