* Measurement data measured by REW V5.31
* Source: EXCL: Microphone (USB Sound Device        ), MICROPHONE (Master Volume), L, volume: 0.390
* Format: 256k Log Swept Sine, 1 sweep at -4.0 dBFS with no timing reference
* Dated: Jul 27, 2024 1:08:37 AM
* REW Settings:
*  C-weighting compensation: Off
*  Target level: 75.0 dB
* Note: KZ ZS12 Pro X 1110 L
* Measurement: L KZ ZS12 Pro X 1110
* Smoothing: 1/12 octave
* Frequency Step: 96 ppo
* Start Frequency: 0.36621094 Hz
*
* Freq(Hz) SPL(dB) Phase(degrees)
0.366211 80.303 -95.7275
0.368865 80.317 -95.8150
0.371538 80.339 -95.9455
0.374230 80.365 -96.1085
0.376942 80.395 -96.2948
0.379673 80.427 -96.4979
0.382424 80.461 -96.7133
0.385196 80.495 -96.9383
0.387987 80.530 -97.1713
0.390798 80.565 -97.4114
0.393630 80.601 -97.6581
0.396483 80.637 -97.9111
0.399356 80.673 -98.1702
0.402250 80.709 -98.4355
0.405165 80.746 -98.7067
0.408101 80.783 -98.9839
0.411058 80.820 -99.2669
0.414037 80.858 -99.5558
0.417037 80.896 -99.8504
0.420059 80.934 -100.1507
0.423103 80.972 -100.4566
0.426169 81.011 -100.7681
0.429257 81.050 -101.0851
0.432368 81.089 -101.4075
0.435501 81.129 -101.7351
0.438656 81.168 -102.0680
0.441835 81.208 -102.4061
0.445037 81.249 -102.7491
0.448262 81.289 -103.0971
0.451510 81.330 -103.4500
0.454782 81.372 -103.8075
0.458077 81.413 -104.1697
0.461397 81.455 -104.5363
0.464740 81.497 -104.9073
0.468108 81.540 -105.2826
0.471500 81.582 -105.6620
0.474917 81.626 -106.0454
0.478358 81.669 -106.4326
0.481825 81.713 -106.8237
0.485316 81.757 -107.2183
0.488833 81.801 -107.6164
0.492375 81.846 -108.0178
0.495943 81.891 -108.4224
0.499537 81.936 -108.8301
0.503157 81.982 -109.2408
0.506803 82.028 -109.6542
0.510475 82.074 -110.0703
0.514175 82.121 -110.4889
0.517900 82.168 -110.9099
0.521653 82.215 -111.3332
0.525434 82.263 -111.7585
0.529241 82.311 -112.1859
0.533076 82.359 -112.6151
0.536939 82.408 -113.0461
0.540830 82.457 -113.4787
0.544749 82.506 -113.9127
0.548696 82.556 -114.3481
0.552673 82.606 -114.7848
0.556677 82.657 -115.2226
0.560711 82.707 -115.6615
0.564774 82.759 -116.1013
0.568867 82.810 -116.5420
0.572989 82.862 -116.9834
0.577141 82.915 -117.4254
0.581324 82.967 -117.8680
0.585536 83.020 -118.3111
0.589779 83.074 -118.7547
0.594053 83.128 -119.1986
0.598358 83.182 -119.6428
0.602694 83.237 -120.0873
0.607061 83.292 -120.5320
0.611460 83.347 -120.9768
0.615891 83.403 -121.4218
0.620354 83.460 -121.8669
0.624849 83.516 -122.3120
0.629377 83.573 -122.7573
0.633938 83.631 -123.2026
0.638532 83.689 -123.6480
0.643159 83.747 -124.0935
0.647819 83.806 -124.5391
0.652514 83.865 -124.9848
0.657242 83.925 -125.4308
0.662005 83.985 -125.8769
0.666802 84.045 -126.3234
0.671634 84.106 -126.7702
0.676501 84.168 -127.2175
0.681403 84.230 -127.6653
0.686341 84.292 -128.1138
0.691314 84.354 -128.5630
0.696324 84.417 -129.0131
0.701370 84.481 -129.4643
0.706452 84.544 -129.9168
0.711571 84.607 -130.3709
0.716728 84.670 -130.8269
0.721921 84.732 -131.2855
0.727153 84.793 -131.7473
0.732422 84.851 -132.2131
0.737729 84.907 -132.6839
0.743075 84.961 -133.1604
0.748460 85.013 -133.6433
0.753883 85.064 -134.1329
0.759346 85.113 -134.6295
0.764849 85.162 -135.1328
0.770391 85.211 -135.6430
0.775974 85.258 -136.1596
0.781597 85.306 -136.6826
0.787261 85.353 -137.2116
0.792966 85.400 -137.7465
0.798712 85.446 -138.2868
0.804500 85.493 -138.8324
0.810329 85.538 -139.3830
0.816201 85.584 -139.9382
0.822116 85.629 -140.4978
0.828073 85.674 -141.0616
0.834074 85.718 -141.6291
0.840118 85.762 -142.2002
0.846206 85.806 -142.7745
0.852338 85.850 -143.3519
0.858514 85.893 -143.9319
0.864735 85.936 -144.5143
0.871001 85.978 -145.0989
0.877313 86.020 -145.6854
0.883670 86.062 -146.2735
0.890074 86.104 -146.8631
0.896524 86.145 -147.4538
0.903020 86.186 -148.0454
0.909564 86.226 -148.6377
0.916155 86.266 -149.2306
0.922794 86.306 -149.8236
0.929481 86.346 -150.4168
0.936216 86.385 -151.0098
0.943000 86.424 -151.6026
0.949834 86.463 -152.1949
0.956717 86.502 -152.7867
0.963649 86.540 -153.3776
0.970632 86.578 -153.9677
0.977666 86.616 -154.5569
0.984750 86.653 -155.1449
0.991886 86.690 -155.7318
0.999074 86.727 -156.3175
1.006314 86.764 -156.9018
1.013606 86.801 -157.4849
1.020951 86.837 -158.0666
1.028349 86.874 -158.6469
1.035801 86.910 -159.2259
1.043307 86.946 -159.8037
1.050867 86.982 -160.3803
1.058482 87.017 -160.9561
1.066152 87.053 -161.5313
1.073878 87.089 -162.1066
1.081660 87.124 -162.6828
1.089498 87.159 -163.2611
1.097393 87.194 -163.8434
1.105345 87.229 -164.4316
1.113355 87.264 -165.0278
1.121423 87.298 -165.6335
1.129549 87.331 -166.2499
1.137734 87.364 -166.8778
1.145979 87.397 -167.5175
1.154283 87.429 -168.1691
1.162647 87.460 -168.8325
1.171072 87.491 -169.5074
1.179558 87.521 -170.1936
1.188106 87.550 -170.8909
1.196715 87.579 -171.5987
1.205387 87.608 -172.3166
1.214122 87.636 -173.0442
1.222920 87.663 -173.7811
1.231782 87.689 -174.5266
1.240708 87.715 -175.2802
1.249699 87.741 -176.0413
1.258754 87.766 -176.8092
1.267876 87.790 -177.5833
1.277063 87.813 -178.3628
1.286318 87.836 -179.1469
1.295639 87.858 -179.9350
1.305027 87.880 179.2739
1.314484 87.901 178.4806
1.324009 87.922 177.6860
1.333604 87.941 176.8911
1.343268 87.961 176.0968
1.353002 87.979 175.3042
1.362806 87.997 174.5142
1.372681 88.014 173.7280
1.382628 88.031 172.9465
1.392647 88.047 172.1708
1.402739 88.063 171.4019
1.412904 88.078 170.6406
1.423142 88.092 169.8875
1.433455 88.105 169.1429
1.443843 88.118 168.4065
1.454305 88.131 167.6771
1.464844 88.142 166.9525
1.475459 88.153 166.2302
1.486150 88.163 165.5071
1.496920 88.173 164.7808
1.507767 88.181 164.0495
1.518693 88.188 163.3120
1.529698 88.195 162.5677
1.540783 88.200 161.8162
1.551948 88.204 161.0578
1.563194 88.208 160.2924
1.574521 88.210 159.5205
1.585931 88.212 158.7424
1.597423 88.212 157.9586
1.608999 88.211 157.1697
1.620658 88.209 156.3761
1.632402 88.207 155.5786
1.644232 88.203 154.7778
1.656146 88.197 153.9746
1.668147 88.191 153.1697
1.680235 88.184 152.3642
1.692411 88.175 151.5588
1.704675 88.165 150.7546
1.717028 88.154 149.9528
1.729470 88.142 149.1543
1.742003 88.129 148.3604
1.754626 88.114 147.5722
1.767341 88.098 146.7907
1.780147 88.081 146.0168
1.793047 88.063 145.2509
1.806040 88.043 144.4929
1.819128 88.022 143.7419
1.832310 87.999 142.9960
1.845587 87.975 142.2528
1.858961 87.949 141.5094
1.872432 87.921 140.7634
1.886001 87.892 140.0131
1.899667 87.861 139.2574
1.913433 87.828 138.4959
1.927299 87.794 137.7283
1.941265 87.758 136.9550
1.955332 87.720 136.1764
1.969501 87.680 135.3932
1.983773 87.639 134.6065
1.998148 87.595 133.8171
2.012627 87.551 133.0266
2.027212 87.504 132.2363
2.041902 87.456 131.4480
2.056698 87.406 130.6636
2.071602 87.355 129.8852
2.086614 87.302 129.1152
2.101734 87.248 128.3561
2.116964 87.192 127.6106
2.132304 87.134 126.8813
2.147756 87.075 126.1710
2.163320 87.014 125.4817
2.178996 86.951 124.8150
2.194786 86.886 124.1716
2.210690 86.818 123.5510
2.226710 86.747 122.9521
2.242845 86.673 122.3735
2.259098 86.596 121.8139
2.275468 86.516 121.2726
2.291957 86.433 120.7488
2.308566 86.347 120.2425
2.325295 86.259 119.7537
2.342145 86.169 119.2827
2.359117 86.077 118.8303
2.376212 85.985 118.3970
2.393431 85.892 117.9840
2.410775 85.798 117.5924
2.428244 85.706 117.2238
2.445840 85.614 116.8798
2.463564 85.523 116.5624
2.481416 85.435 116.2740
2.499397 85.349 116.0175
2.517509 85.265 115.7960
2.535752 85.185 115.6135
2.554127 85.106 115.4748
2.572635 85.030 115.3847
2.591277 84.955 115.3481
2.610055 84.881 115.3683
2.628968 84.807 115.4475
2.648019 84.735 115.5860
2.667208 84.663 115.7826
2.686535 84.594 116.0351
2.706003 84.526 116.3404
2.725612 84.462 116.6943
2.745363 84.402 117.0921
2.765257 84.347 117.5283
2.785295 84.297 117.9966
2.805478 84.255 118.4905
2.825808 84.221 119.0030
2.846285 84.196 119.5276
2.866910 84.182 120.0583
2.887685 84.178 120.5911
2.908611 84.187 121.1244
2.929688 84.209 121.6594
2.950917 84.244 122.1995
2.972301 84.293 122.7481
2.993839 84.355 123.3064
3.015534 84.430 123.8724
3.037386 84.516 124.4414
3.059396 84.614 125.0067
3.081565 84.721 125.5602
3.103896 84.837 126.0933
3.126388 84.960 126.5975
3.149043 85.090 127.0644
3.171862 85.225 127.4863
3.194847 85.365 127.8563
3.217998 85.507 128.1690
3.241317 85.652 128.4204
3.264805 85.800 128.6089
3.288463 85.950 128.7353
3.312293 86.104 128.8025
3.336295 86.262 128.8151
3.360471 86.424 128.7775
3.384822 86.592 128.6938
3.409350 86.764 128.5668
3.434056 86.940 128.3987
3.458940 87.118 128.1910
3.484005 87.298 127.9445
3.509252 87.479 127.6600
3.534681 87.658 127.3375
3.560295 87.836 126.9768
3.586094 88.011 126.5774
3.612081 88.182 126.1383
3.638255 88.349 125.6584
3.664620 88.512 125.1367
3.691175 88.670 124.5729
3.717923 88.824 123.9681
3.744864 88.975 123.3250
3.772001 89.123 122.6476
3.799335 89.268 121.9410
3.826866 89.409 121.2104
3.854597 89.546 120.4612
3.882529 89.681 119.6981
3.910664 89.811 118.9251
3.939002 89.937 118.1452
3.967546 90.059 117.3597
3.996296 90.177 116.5685
4.025255 90.290 115.7695
4.054423 90.398 114.9597
4.083804 90.502 114.1364
4.113396 90.600 113.2988
4.143204 90.694 112.4482
4.173227 90.783 111.5880
4.203468 90.868 110.7227
4.233928 90.948 109.8577
4.264609 91.025 108.9982
4.295512 91.097 108.1492
4.326639 91.166 107.3141
4.357992 91.230 106.4951
4.389572 91.291 105.6918
4.421380 91.347 104.9023
4.453419 91.400 104.1241
4.485691 91.447 103.3554
4.518196 91.491 102.5961
4.550936 91.531 101.8478
4.583914 91.568 101.1136
4.617131 91.601 100.3974
4.650589 91.632 99.7034
4.684289 91.662 99.0358
4.718233 91.689 98.3979
4.752424 91.715 97.7921
4.786862 91.739 97.2186
4.821549 91.762 96.6770
4.856488 91.782 96.1657
4.891680 91.802 95.6835
4.927127 91.820 95.2291
4.962831 91.838 94.8020
4.998794 91.857 94.4019
5.035017 91.877 94.0292
5.071503 91.899 93.6848
5.108253 91.924 93.3698
5.145270 91.951 93.0855
5.182555 91.981 92.8322
5.220110 92.014 92.6087
5.257937 92.050 92.4123
5.296038 92.088 92.2389
5.334415 92.131 92.0834
5.373071 92.176 91.9408
5.412006 92.227 91.8066
5.451224 92.281 91.6774
5.490725 92.341 91.5515
5.530514 92.405 91.4283
5.570590 92.475 91.3070
5.610957 92.549 91.1863
5.651616 92.628 91.0628
5.692570 92.710 90.9322
5.733821 92.796 90.7897
5.775370 92.884 90.6307
5.817221 92.975 90.4513
5.859375 93.068 90.2493
5.901834 93.163 90.0241
5.944602 93.261 89.7761
5.987679 93.359 89.5059
6.031068 93.459 89.2139
6.074771 93.559 88.9003
6.118792 93.659 88.5648
6.163131 93.757 88.2068
6.207792 93.854 87.8257
6.252776 93.949 87.4214
6.298086 94.041 86.9946
6.343725 94.132 86.5471
6.389694 94.219 86.0818
6.435996 94.304 85.6021
6.482634 94.386 85.1114
6.529610 94.465 84.6124
6.576926 94.539 84.1069
6.624585 94.610 83.5959
6.672590 94.677 83.0804
6.720942 94.740 82.5618
6.769645 94.799 82.0430
6.818700 94.855 81.5276
6.868111 94.907 81.0191
6.917881 94.956 80.5207
6.968010 95.002 80.0345
7.018504 95.045 79.5614
7.069362 95.085 79.1021
7.120590 95.123 78.6571
7.172189 95.158 78.2275
7.224161 95.192 77.8148
7.276511 95.226 77.4203
7.329239 95.258 77.0451
7.382350 95.290 76.6893
7.435845 95.322 76.3524
7.489729 95.355 76.0327
7.544002 95.388 75.7285
7.598669 95.422 75.4377
7.653732 95.457 75.1586
7.709194 95.494 74.8898
7.765058 95.533 74.6299
7.821327 95.574 74.3768
7.878004 95.617 74.1278
7.935091 95.662 73.8797
7.992592 95.708 73.6292
8.050510 95.756 73.3735
8.108847 95.806 73.1108
8.167607 95.858 72.8398
8.226793 95.910 72.5591
8.286408 95.964 72.2672
8.346454 96.017 71.9626
8.406936 96.071 71.6442
8.467856 96.124 71.3113
8.529218 96.177 70.9639
8.591024 96.229 70.6028
8.653278 96.279 70.2290
8.715983 96.328 69.8439
8.779143 96.375 69.4485
8.842760 96.420 69.0439
8.906839 96.463 68.6314
8.971381 96.503 68.2129
9.036392 96.541 67.7906
9.101873 96.577 67.3668
9.167829 96.611 66.9433
9.234263 96.642 66.5216
9.301178 96.672 66.1028
9.368578 96.700 65.6881
9.436467 96.726 65.2789
9.504847 96.751 64.8761
9.573723 96.775 64.4805
9.643099 96.797 64.0921
9.712976 96.819 63.7104
9.783361 96.838 63.3351
9.854255 96.856 62.9651
9.925663 96.873 62.5999
9.997588 96.887 62.2383
10.070035 96.900 61.8790
10.143007 96.912 61.5205
10.216507 96.923 61.1611
10.290540 96.933 60.7995
10.365109 96.942 60.4345
10.440219 96.951 60.0652
10.515873 96.960 59.6906
10.592076 96.969 59.3101
10.668830 96.977 58.9231
10.746141 96.985 58.5295
10.824012 96.993 58.1298
10.902447 97.001 57.7243
10.981451 97.007 57.3138
11.061027 97.013 56.8990
11.141180 97.018 56.4807
11.221913 97.023 56.0600
11.303232 97.026 55.6381
11.385140 97.029 55.2160
11.467641 97.031 54.7944
11.550741 97.033 54.3741
11.634442 97.035 53.9555
11.718750 97.036 53.5390
11.803669 97.038 53.1249
11.889203 97.041 52.7130
11.975357 97.044 52.3029
12.062136 97.048 51.8943
12.149543 97.052 51.4866
12.237583 97.057 51.0794
12.326262 97.063 50.6721
12.415583 97.069 50.2642
12.505552 97.075 49.8553
12.596172 97.081 49.4452
12.687449 97.087 49.0341
12.779387 97.093 48.6220
12.871992 97.099 48.2094
12.965268 97.104 47.7968
13.059220 97.110 47.3849
13.153852 97.115 46.9745
13.249170 97.120 46.5664
13.345179 97.125 46.1612
13.441884 97.130 45.7596
13.539289 97.135 45.3621
13.637401 97.140 44.9688
13.736223 97.145 44.5799
13.835761 97.151 44.1950
13.936021 97.157 43.8138
14.037007 97.163 43.4355
14.138725 97.170 43.0594
14.241180 97.177 42.6848
14.344377 97.184 42.3109
14.448323 97.191 41.9368
14.553021 97.198 41.5623
14.658478 97.204 41.1870
14.764700 97.210 40.8110
14.871691 97.216 40.4344
14.979457 97.221 40.0579
15.088005 97.226 39.6822
15.197339 97.230 39.3081
15.307465 97.233 38.9366
15.418389 97.235 38.5686
15.530117 97.236 38.2047
15.642655 97.237 37.8456
15.756008 97.237 37.4914
15.870182 97.236 37.1420
15.985184 97.235 36.7971
16.101019 97.234 36.4559
16.217694 97.234 36.1175
16.335214 97.233 35.7810
16.453586 97.232 35.4452
16.572815 97.231 35.1091
16.692909 97.230 34.7719
16.813872 97.229 34.4330
16.935713 97.228 34.0922
17.058436 97.227 33.7494
17.182048 97.225 33.4049
17.306556 97.222 33.0593
17.431967 97.219 32.7131
17.558286 97.215 32.3669
17.685521 97.211 32.0213
17.813677 97.206 31.6768
17.942762 97.200 31.3333
18.072783 97.194 30.9910
18.203746 97.188 30.6494
18.335658 97.181 30.3082
18.468526 97.175 29.9666
18.602356 97.168 29.6242
18.737156 97.162 29.2804
18.872934 97.156 28.9348
19.009695 97.151 28.5873
19.147447 97.145 28.2379
19.286197 97.139 27.8867
19.425953 97.133 27.5342
19.566721 97.127 27.1807
19.708510 97.121 26.8267
19.851326 97.115 26.4725
19.995177 97.109 26.1185
20.140070 97.103 25.7645
20.286013 97.097 25.4108
20.433014 97.091 25.0570
20.581080 97.085 24.7033
20.730219 97.079 24.3495
20.880439 97.074 23.9959
21.031747 97.069 23.6426
21.184152 97.064 23.2902
21.337661 97.059 22.9390
21.492282 97.054 22.5895
21.648024 97.050 22.2423
21.804895 97.046 21.8976
21.962902 97.042 21.5557
22.122054 97.038 21.2162
22.282360 97.034 20.8793
22.443827 97.031 20.5444
22.606464 97.027 20.2112
22.770280 97.023 19.8798
22.935283 97.020 19.5498
23.101481 97.015 19.2217
23.268884 97.011 18.8958
23.437500 97.006 18.5724
23.607338 97.000 18.2521
23.778406 96.994 17.9353
23.950714 96.987 17.6222
24.124271 96.980 17.3125
24.299086 96.973 17.0060
24.475167 96.965 16.7020
24.652524 96.957 16.3998
24.831166 96.948 16.0989
25.011103 96.939 15.7988
25.192344 96.930 15.4990
25.374898 96.920 15.1996
25.558775 96.910 14.9005
25.743984 96.899 14.6021
25.930536 96.888 14.3041
26.118439 96.876 14.0070
26.307704 96.864 13.7103
26.498341 96.852 13.4139
26.690359 96.839 13.1175
26.883768 96.826 12.8208
27.078579 96.813 12.5234
27.274801 96.800 12.2255
27.472446 96.786 11.9269
27.671522 96.773 11.6279
27.872042 96.759 11.3285
28.074014 96.745 11.0290
28.277450 96.731 10.7294
28.482360 96.717 10.4298
28.688755 96.703 10.1302
28.896645 96.689 9.8309
29.106042 96.675 9.5317
29.316957 96.661 9.2333
29.529400 96.648 8.9355
29.743382 96.635 8.6388
29.958915 96.622 8.3433
30.176009 96.609 8.0491
30.394677 96.597 7.7560
30.614929 96.585 7.4639
30.836778 96.573 7.1727
31.060234 96.562 6.8826
31.285309 96.550 6.5939
31.512015 96.538 6.3068
31.740364 96.526 6.0217
31.970368 96.514 5.7391
32.202039 96.501 5.4591
32.435388 96.488 5.1816
32.670428 96.476 4.9062
32.907171 96.463 4.6328
33.145630 96.449 4.3607
33.385817 96.436 4.0896
33.627745 96.422 3.8193
33.871425 96.408 3.5496
34.116871 96.394 3.2805
34.364096 96.379 3.0118
34.613113 96.363 2.7435
34.863934 96.348 2.4758
35.116572 96.331 2.2086
35.371041 96.315 1.9421
35.627354 96.297 1.6766
35.885525 96.280 1.4123
36.145566 96.262 1.1492
36.407492 96.244 0.8872
36.671316 96.226 0.6263
36.937051 96.208 0.3664
37.204712 96.190 0.1073
37.474313 96.172 -0.1509
37.745867 96.153 -0.4082
38.019389 96.135 -0.6645
38.294893 96.117 -0.9197
38.572394 96.099 -1.1739
38.851905 96.081 -1.4269
39.133442 96.063 -1.6788
39.417019 96.045 -1.9293
39.702651 96.027 -2.1780
39.990353 96.009 -2.4244
40.280140 95.991 -2.6685
40.572026 95.972 -2.9100
40.866028 95.954 -3.1493
41.162160 95.935 -3.3865
41.460438 95.917 -3.6223
41.760877 95.898 -3.8568
42.063494 95.879 -4.0903
42.368303 95.860 -4.3228
42.675322 95.841 -4.5540
42.984565 95.821 -4.7839
43.296048 95.801 -5.0125
43.609789 95.780 -5.2397
43.925804 95.760 -5.4657
44.244108 95.739 -5.6905
44.564719 95.718 -5.9142
44.887654 95.697 -6.1368
45.212928 95.676 -6.3580
45.540560 95.654 -6.5776
45.870565 95.633 -6.7958
46.202962 95.611 -7.0124
46.537768 95.590 -7.2279
46.875000 95.568 -7.4424
47.214676 95.547 -7.6561
47.556813 95.525 -7.8687
47.901429 95.503 -8.0799
48.248542 95.481 -8.2893
48.598171 95.460 -8.4966
48.950334 95.438 -8.7020
49.305048 95.416 -8.9056
49.662333 95.394 -9.1077
50.022206 95.372 -9.3082
50.384688 95.349 -9.5073
50.749796 95.327 -9.7048
51.117550 95.305 -9.9009
51.487969 95.283 -10.0952
51.861072 95.260 -10.2877
52.236879 95.238 -10.4781
52.615409 95.215 -10.6664
52.996681 95.193 -10.8521
53.380717 95.171 -11.0349
53.767536 95.149 -11.2150
54.157158 95.128 -11.3925
54.549603 95.107 -11.5681
54.944892 95.087 -11.7428
55.343045 95.066 -11.9176
55.744084 95.046 -12.0931
56.148028 95.026 -12.2700
56.554900 95.006 -12.4485
56.964720 94.986 -12.6288
57.377510 94.966 -12.8110
57.793291 94.945 -12.9950
58.212085 94.923 -13.1803
58.633914 94.901 -13.3665
59.058799 94.878 -13.5527
59.486764 94.855 -13.7389
59.917829 94.831 -13.9243
60.352019 94.807 -14.1086
60.789354 94.782 -14.2913
61.229859 94.757 -14.4716
61.673556 94.731 -14.6490
62.120468 94.706 -14.8232
62.570618 94.680 -14.9940
63.024031 94.654 -15.1614
63.480729 94.628 -15.3254
63.940736 94.601 -15.4861
64.404077 94.575 -15.6436
64.870776 94.549 -15.7980
65.340856 94.522 -15.9497
65.814343 94.496 -16.0994
66.291261 94.470 -16.2473
66.771635 94.443 -16.3937
67.255489 94.416 -16.5390
67.742850 94.389 -16.6831
68.233743 94.362 -16.8262
68.728193 94.335 -16.9680
69.226226 94.307 -17.1084
69.727867 94.280 -17.2476
70.233144 94.253 -17.3853
70.742083 94.225 -17.5217
71.254709 94.198 -17.6566
71.771050 94.171 -17.7900
72.291132 94.144 -17.9215
72.814984 94.117 -18.0510
73.342631 94.090 -18.1785
73.874102 94.064 -18.3041
74.409424 94.037 -18.4280
74.948626 94.011 -18.5507
75.491734 93.985 -18.6725
76.038779 93.959 -18.7937
76.589787 93.933 -18.9147
77.144788 93.907 -19.0361
77.703811 93.882 -19.1587
78.266885 93.856 -19.2830
78.834039 93.831 -19.4095
79.405303 93.806 -19.5389
79.980706 93.781 -19.6718
80.560280 93.756 -19.8091
81.144053 93.730 -19.9516
81.732056 93.703 -20.0994
82.324320 93.676 -20.2518
82.920876 93.647 -20.4066
83.521755 93.617 -20.5612
84.126988 93.585 -20.7120
84.736607 93.552 -20.8564
85.350643 93.518 -20.9917
85.969129 93.484 -21.1163
86.592097 93.449 -21.2301
87.219579 93.414 -21.3335
87.851608 93.379 -21.4280
88.488217 93.345 -21.5154
89.129439 93.311 -21.5973
89.775308 93.278 -21.6750
90.425856 93.245 -21.7498
91.081119 93.213 -21.8224
91.741131 93.181 -21.8938
92.405925 93.149 -21.9644
93.075536 93.118 -22.0339
93.750000 93.087 -22.1023
94.429351 93.056 -22.1691
95.113625 93.025 -22.2344
95.802858 92.994 -22.2981
96.497085 92.963 -22.3598
97.196342 92.932 -22.4193
97.900667 92.900 -22.4764
98.610096 92.869 -22.5311
99.324665 92.836 -22.5828
100.044413 92.804 -22.6309
100.769376 92.772 -22.6749
101.499592 92.739 -22.7145
102.235100 92.708 -22.7502
102.975938 92.677 -22.7828
103.722144 92.647 -22.8138
104.473757 92.617 -22.8451
105.230817 92.589 -22.8776
105.993363 92.561 -22.9121
106.761435 92.533 -22.9494
107.535072 92.505 -22.9904
108.314315 92.477 -23.0356
109.099206 92.448 -23.0856
109.889783 92.419 -23.1402
110.686090 92.389 -23.1991
111.488167 92.358 -23.2614
112.296056 92.327 -23.3253
113.109800 92.293 -23.3882
113.929440 92.258 -23.4456
114.755020 92.221 -23.4921
115.586582 92.183 -23.5223
116.424170 92.144 -23.5325
117.267827 92.105 -23.5217
118.117598 92.066 -23.4936
118.973527 92.030 -23.4557
119.835658 91.995 -23.4180
120.704037 91.961 -23.3875
121.578708 91.928 -23.3651
122.459718 91.896 -23.3481
123.347111 91.864 -23.3336
124.240935 91.832 -23.3199
125.141236 91.802 -23.3063
126.048061 91.772 -23.2924
126.961458 91.743 -23.2783
127.881473 91.714 -23.2643
128.808154 91.686 -23.2512
129.741551 91.657 -23.2395
130.681712 91.629 -23.2295
131.628686 91.600 -23.2202
132.582521 91.570 -23.2106
133.543269 91.540 -23.1992
134.510979 91.510 -23.1858
135.485701 91.480 -23.1703
136.467486 91.449 -23.1533
137.456386 91.417 -23.1346
138.452451 91.384 -23.1141
139.455735 91.351 -23.0922
140.466288 91.318 -23.0702
141.484165 91.285 -23.0492
142.509418 91.253 -23.0287
143.542100 91.221 -23.0068
144.582265 91.189 -22.9816
145.629968 91.158 -22.9526
146.685262 91.126 -22.9203
147.748204 91.094 -22.8859
148.818849 91.061 -22.8500
149.897251 91.028 -22.8121
150.983469 90.994 -22.7706
152.077557 90.960 -22.7222
153.179574 90.926 -22.6632
154.289576 90.892 -22.5903
155.407622 90.859 -22.5020
156.533770 90.826 -22.3995
157.668078 90.794 -22.2877
158.810606 90.762 -22.1747
159.961413 90.731 -22.0690
161.120559 90.700 -21.9764
162.288105 90.669 -21.8987
163.464112 90.636 -21.8334
164.648640 90.604 -21.7759
165.841752 90.570 -21.7200
167.043510 90.535 -21.6594
168.253976 90.500 -21.5894
169.473213 90.464 -21.5070
170.701286 90.428 -21.4123
171.938258 90.394 -21.3083
173.184194 90.360 -21.1987
174.439158 90.328 -21.0865
175.703216 90.297 -20.9739
176.976434 90.266 -20.8615
178.258878 90.236 -20.7495
179.550615 90.206 -20.6381
180.851713 90.177 -20.5274
182.162239 90.148 -20.4180
183.482262 90.120 -20.3103
184.811850 90.091 -20.2048
186.151073 90.063 -20.1014
187.500000 90.034 -19.9989
188.858702 90.004 -19.8954
190.227250 89.975 -19.7890
191.605715 89.946 -19.6788
192.994169 89.916 -19.5643
194.392685 89.887 -19.4448
195.801334 89.859 -19.3194
197.220191 89.830 -19.1870
198.649330 89.802 -19.0468
200.088825 89.775 -18.8982
201.538751 89.748 -18.7422
202.999184 89.724 -18.5813
204.470200 89.701 -18.4200
205.951875 89.680 -18.2637
207.444287 89.659 -18.1162
208.947514 89.639 -17.9792
210.461634 89.617 -17.8510
211.986726 89.594 -17.7276
213.522869 89.569 -17.6040
215.070144 89.542 -17.4745
216.628631 89.514 -17.3347
218.198411 89.486 -17.1833
219.779567 89.459 -17.0231
221.372180 89.433 -16.8595
222.976334 89.408 -16.6979
224.592112 89.384 -16.5414
226.219600 89.360 -16.3910
227.858880 89.336 -16.2457
229.510039 89.312 -16.1035
231.173164 89.287 -15.9619
232.848340 89.262 -15.8176
234.535655 89.236 -15.6680
236.235197 89.210 -15.5124
237.947054 89.184 -15.3529
239.671317 89.158 -15.1921
241.408074 89.131 -15.0309
243.157416 89.104 -14.8679
244.919435 89.077 -14.7009
246.694223 89.049 -14.5278
248.481871 89.021 -14.3460
250.282473 88.995 -14.1519
252.096123 88.970 -13.9420
253.922915 88.947 -13.7168
255.762945 88.927 -13.4821
257.616309 88.910 -13.2488
259.483103 88.894 -13.0279
261.363424 88.879 -12.8259
263.257372 88.864 -12.6423
265.165043 88.848 -12.4716
267.086538 88.830 -12.3054
269.021957 88.811 -12.1366
270.971401 88.790 -11.9606
272.934972 88.770 -11.7754
274.912771 88.751 -11.5814
276.904902 88.732 -11.3801
278.911469 88.715 -11.1729
280.932577 88.700 -10.9620
282.968330 88.687 -10.7513
285.018835 88.675 -10.5469
287.084199 88.666 -10.3565
289.164530 88.657 -10.1863
291.259935 88.647 -10.0374
293.370525 88.635 -9.9043
295.496408 88.620 -9.7767
297.637697 88.602 -9.6450
299.794503 88.581 -9.5027
301.966937 88.560 -9.3480
304.155114 88.538 -9.1824
306.359147 88.516 -9.0085
308.579152 88.494 -8.8304
310.815244 88.472 -8.6506
313.067539 88.450 -8.4706
315.336156 88.427 -8.2891
317.621211 88.403 -8.1019
319.922826 88.379 -7.9047
322.241118 88.355 -7.6946
324.576210 88.332 -7.4725
326.928223 88.310 -7.2417
329.297280 88.289 -7.0065
331.683504 88.269 -6.7709
334.087019 88.250 -6.5379
336.507952 88.232 -6.3090
338.946427 88.213 -6.0841
341.402572 88.194 -5.8616
343.876516 88.175 -5.6387
346.368387 88.154 -5.4130
348.878315 88.134 -5.1831
351.406431 88.114 -4.9490
353.952867 88.094 -4.7109
356.517756 88.074 -4.4695
359.101230 88.055 -4.2253
361.703426 88.036 -3.9785
364.324478 88.017 -3.7291
366.964523 87.998 -3.4768
369.623699 87.979 -3.2212
372.302145 87.961 -2.9623
375.000000 87.943 -2.7002
377.717405 87.925 -2.4354
380.454501 87.907 -2.1685
383.211431 87.890 -1.9001
385.988339 87.873 -1.6306
388.785369 87.857 -1.3597
391.602668 87.841 -1.0872
394.440383 87.825 -0.8126
397.298660 87.810 -0.5361
400.177650 87.796 -0.2584
403.077502 87.782 0.0193
405.998368 87.769 0.2955
408.940400 87.756 0.5701
411.903750 87.743 0.8445
414.888575 87.729 1.1221
417.895028 87.714 1.4059
420.923268 87.700 1.6984
423.973452 87.687 2.0004
427.045738 87.675 2.3102
430.140287 87.664 2.6244
433.257261 87.655 2.9384
436.396822 87.648 3.2490
439.559133 87.642 3.5560
442.744360 87.636 3.8594
445.952668 87.632 4.1571
449.184225 87.630 4.4445
452.439199 87.627 4.7152
455.717760 87.624 4.9658
459.020079 87.619 5.1998
462.346327 87.611 5.4276
465.696680 87.600 5.6616
469.071310 87.587 5.9094
472.470394 87.573 6.1731
475.894109 87.560 6.4498
479.342634 87.547 6.7336
482.816148 87.534 7.0192
486.314833 87.522 7.3047
489.838871 87.508 7.5951
493.388445 87.494 7.8983
496.963741 87.480 8.2184
500.564945 87.467 8.5514
504.192245 87.456 8.8892
507.845830 87.447 9.2242
511.525890 87.438 9.5535
515.232618 87.430 9.8778
518.966206 87.421 10.2011
522.726849 87.411 10.5282
526.514743 87.402 10.8636
530.330086 87.392 11.2092
534.173076 87.384 11.5624
538.043915 87.377 11.9187
541.942803 87.371 12.2754
545.869944 87.365 12.6333
549.825542 87.361 12.9933
553.809805 87.357 13.3539
557.822939 87.354 13.7122
561.865154 87.352 14.0663
565.936660 87.350 14.4166
570.037671 87.347 14.7664
574.168399 87.344 15.1194
578.329060 87.341 15.4777
582.519870 87.338 15.8411
586.741049 87.335 16.2088
590.992817 87.332 16.5828
595.275394 87.329 16.9653
599.589005 87.327 17.3558
603.933874 87.327 17.7503
608.310228 87.327 18.1448
612.718295 87.328 18.5378
617.158304 87.329 18.9318
621.630488 87.329 19.3324
626.135079 87.329 19.7456
630.672311 87.331 20.1732
635.242423 87.334 20.6110
639.845651 87.340 21.0532
644.482237 87.347 21.4981
649.152421 87.357 21.9471
653.856447 87.370 22.3989
658.594560 87.386 22.8464
663.367008 87.404 23.2787
668.174039 87.424 23.6873
673.015903 87.443 24.0723
677.892854 87.460 24.4421
682.805145 87.476 24.8062
687.753032 87.489 25.1716
692.736774 87.500 25.5440
697.756631 87.511 25.9274
702.812863 87.521 26.3239
707.905735 87.533 26.7313
713.035511 87.546 27.1453
718.202461 87.560 27.5624
723.406852 87.575 27.9813
728.648956 87.591 28.4028
733.929047 87.607 28.8274
739.247399 87.624 29.2553
744.604290 87.642 29.6866
750.000000 87.661 30.1213
755.434809 87.680 30.5598
760.909001 87.701 31.0016
766.422861 87.723 31.4460
771.976677 87.747 31.8918
777.570739 87.773 32.3377
783.205337 87.800 32.7829
788.880766 87.829 33.2280
794.597321 87.860 33.6750
800.355301 87.894 34.1249
806.155005 87.933 34.5738
811.996736 87.976 35.0115
817.880799 88.024 35.4226
823.807501 88.078 35.7878
829.777150 88.135 36.0851
835.790057 88.190 36.2949
841.846536 88.240 36.4073
847.946903 88.277 36.4285
854.091476 88.293 36.3894
860.280575 88.284 36.3538
866.514523 88.249 36.4134
872.793644 88.197 36.6611
879.118267 88.141 37.1442
885.488720 88.098 37.8356
891.905336 88.077 38.6529
898.368450 88.082 39.5040
904.878398 88.108 40.3228
911.435520 88.149 41.0757
918.040157 88.200 41.7536
924.692655 88.257 42.3616
931.393359 88.316 42.9102
938.142619 88.376 43.4105
944.940787 88.435 43.8730
951.788218 88.494 44.3090
958.685268 88.552 44.7277
965.632296 88.608 45.1362
972.629666 88.664 45.5395
979.677741 88.720 45.9395
986.776890 88.775 46.3365
993.927482 88.829 46.7318
1001.129891 88.884 47.1296
1008.384491 88.939 47.5344
1015.691660 88.997 47.9459
1023.051781 89.057 48.3597
1030.465236 89.120 48.7683
1037.932411 89.187 49.1602
1045.453698 89.257 49.5233
1053.029486 89.328 49.8522
1060.660172 89.398 50.1508
1068.346153 89.465 50.4279
1076.087829 89.531 50.6927
1083.885605 89.595 50.9517
1091.739887 89.658 51.2069
1099.651084 89.719 51.4583
1107.619609 89.781 51.7060
1115.645878 89.841 51.9511
1123.730308 89.901 52.1949
1131.873321 89.960 52.4387
1140.075341 90.019 52.6835
1148.336797 90.078 52.9302
1156.658119 90.137 53.1792
1165.039741 90.197 53.4316
1173.482099 90.258 53.6889
1181.985634 90.321 53.9505
1190.550789 90.387 54.2101
1199.178011 90.456 54.4563
1207.867749 90.528 54.6772
1216.620457 90.600 54.8669
1225.436590 90.671 55.0291
1234.316609 90.739 55.1722
1243.260976 90.804 55.3051
1252.270157 90.867 55.4357
1261.344623 90.928 55.5682
1270.484846 90.987 55.7039
1279.691303 91.045 55.8443
1288.964474 91.102 55.9911
1298.304842 91.159 56.1441
1307.712894 91.217 56.3007
1317.189120 91.274 56.4573
1326.734016 91.333 56.6116
1336.348077 91.391 56.7643
1346.031806 91.450 56.9182
1355.785708 91.509 57.0773
1365.610290 91.569 57.2451
1375.506065 91.631 57.4260
1385.473549 91.695 57.6246
1395.513261 91.761 57.8417
1405.625726 91.832 58.0720
1415.811469 91.908 58.3036
1426.071023 91.987 58.5222
1436.404921 92.068 58.7182
1446.813703 92.150 58.8913
1457.297912 92.230 59.0466
1467.858093 92.309 59.1904
1478.494798 92.386 59.3271
1489.208581 92.461 59.4604
1500.000000 92.532 59.5937
1510.869618 92.600 59.7303
1521.818002 92.664 59.8731
1532.845723 92.724 60.0244
1543.953355 92.781 60.1859
1555.141477 92.837 60.3578
1566.410674 92.894 60.5357
1577.761531 92.952 60.7089
1589.194642 93.013 60.8637
1600.710601 93.075 60.9910
1612.310010 93.136 61.0901
1623.993473 93.197 61.1661
1635.761599 93.255 61.2263
1647.615002 93.312 61.2768
1659.554299 93.368 61.3226
1671.580114 93.422 61.3670
1683.693072 93.477 61.4108
1695.893807 93.531 61.4524
1708.182952 93.584 61.4894
1720.561150 93.636 61.5220
1733.029045 93.687 61.5533
1745.587288 93.735 61.5886
1758.236533 93.781 61.6343
1770.977440 93.827 61.6959
1783.810673 93.875 61.7726
1796.736900 93.926 61.8552
1809.756796 93.980 61.9296
1822.871040 94.038 61.9845
1836.080315 94.096 62.0159
1849.385310 94.155 62.0250
1862.786718 94.215 62.0148
1876.285239 94.274 61.9902
1889.881575 94.334 61.9564
1903.576436 94.396 61.9193
1917.370535 94.461 61.8841
1931.264593 94.530 61.8540
1945.259332 94.605 61.8277
1959.355483 94.686 61.7964
1973.553781 94.772 61.7465
1987.854965 94.862 61.6672
2002.259781 94.953 61.5549
2016.768981 95.043 61.4113
2031.383320 95.132 61.2412
2046.103561 95.218 61.0498
2060.930471 95.302 60.8414
2075.864823 95.384 60.6180
2090.907395 95.464 60.3802
2106.058972 95.540 60.1302
2121.320344 95.613 59.8731
2136.692305 95.682 59.6168
2152.175658 95.748 59.3690
2167.771210 95.813 59.1323
2183.479774 95.877 58.9002
2199.302169 95.943 58.6614
2215.239219 96.008 58.4067
2231.291755 96.073 58.1315
2247.460615 96.136 57.8357
2263.746641 96.196 57.5229
2280.150683 96.254 57.1997
2296.673595 96.309 56.8737
2313.316238 96.362 56.5519
2330.079481 96.415 56.2358
2346.964198 96.470 55.9189
2363.971268 96.525 55.5894
2381.101578 96.581 55.2378
2398.356022 96.636 54.8594
2415.735498 96.688 54.4547
2433.240913 96.738 54.0265
2450.873180 96.784 53.5787
2468.633217 96.827 53.1142
2486.521951 96.866 52.6366
2504.540314 96.900 52.1523
2522.689246 96.929 51.6706
2540.969692 96.954 51.2011
2559.382606 96.978 50.7470
2577.928947 97.001 50.3036
2596.609683 97.024 49.8625
2615.425787 97.046 49.4174
2634.378241 97.066 48.9650
2653.468031 97.084 48.5071
2672.696154 97.099 48.0494
2692.063613 97.112 47.6000
2711.571415 97.123 47.1642
2731.220579 97.134 46.7397
2751.012130 97.147 46.3179
2770.947098 97.160 45.8884
2791.026522 97.173 45.4440
2811.251451 97.185 44.9815
2831.622938 97.194 44.5004
2852.142045 97.201 44.0018
2872.809842 97.204 43.4889
2893.627406 97.201 42.9688
2914.595823 97.194 42.4530
2935.716186 97.182 41.9520
2956.989596 97.167 41.4701
2978.417161 97.150 41.0049
3000.000000 97.131 40.5522
3021.739237 97.110 40.1096
3043.636005 97.086 39.6794
3065.691446 97.059 39.2690
3087.906710 97.029 38.8878
3110.282955 96.999 38.5410
3132.821347 96.969 38.2261
3155.523062 96.941 37.9354
3178.389283 96.914 37.6603
3201.421202 96.889 37.3940
3224.620020 96.865 37.1316
3247.986946 96.840 36.8703
3271.523198 96.815 36.6109
3295.230004 96.788 36.3600
3319.108599 96.759 36.1269
3343.160228 96.731 35.9167
3367.386145 96.703 35.7282
3391.787613 96.678 35.5564
3416.365904 96.653 35.3968
3441.122300 96.630 35.2497
3466.058091 96.609 35.1204
3491.174576 96.589 35.0152
3516.473066 96.572 34.9338
3541.954880 96.560 34.8695
3567.621345 96.553 34.8114
3593.473800 96.550 34.7480
3619.513592 96.551 34.6688
3645.742080 96.555 34.5665
3672.160630 96.559 34.4402
3698.770620 96.562 34.2959
3725.573436 96.565 34.1407
3752.570477 96.567 33.9769
3779.763150 96.568 33.8031
3807.152872 96.568 33.6172
3834.741071 96.565 33.4217
3862.529185 96.559 33.2249
3890.518664 96.550 33.0347
3918.710966 96.540 32.8530
3947.107561 96.531 32.6753
3975.709929 96.524 32.4925
4004.519563 96.518 32.2935
4033.537962 96.512 32.0681
4062.766641 96.505 31.8119
4092.207123 96.496 31.5277
4121.860942 96.483 31.2207
4151.729646 96.466 30.8936
4181.814790 96.444 30.5473
4212.117944 96.416 30.1857
4242.640687 96.381 29.8197
4273.384610 96.337 29.4651
4304.351317 96.285 29.1356
4335.542421 96.226 28.8396
4366.959549 96.162 28.5804
4398.604338 96.092 28.3580
4430.478438 96.018 28.1729
4462.583511 95.937 28.0321
4494.921231 95.851 27.9500
4527.493283 95.760 27.9426
4560.301365 95.666 28.0240
4593.347189 95.571 28.2078
4626.632476 95.476 28.5113
4660.158962 95.385 28.9536
4693.928395 95.305 29.5467
4727.942535 95.241 30.2875
4762.203156 95.202 31.1528
4796.712043 95.194 32.0972
4831.470996 95.221 33.0594
4866.481826 95.283 33.9712
4901.746360 95.378 34.7636
4937.266434 95.500 35.3705
4973.043902 95.641 35.7378
5009.080628 95.790 35.8356
5045.378492 95.935 35.6640
5081.939384 96.068 35.2474
5118.765212 96.181 34.6256
5155.857894 96.270 33.8439
5193.219366 96.334 32.9467
5230.851574 96.369 31.9764
5268.756481 96.378 30.9740
5306.936062 96.361 29.9757
5345.392309 96.320 29.0096
5384.127225 96.256 28.0975
5423.142830 96.172 27.2605
5462.441159 96.069 26.5211
5502.024259 95.949 25.8998
5541.894195 95.818 25.4113
5582.053045 95.678 25.0607
5622.502902 95.534 24.8456
5663.245876 95.389 24.7605
5704.284090 95.245 24.7974
5745.619684 95.105 24.9448
5787.254813 94.970 25.1910
5829.191647 94.840 25.5289
5871.432373 94.716 25.9572
5913.979192 94.599 26.4775
5956.834323 94.491 27.0884
6000.000000 94.394 27.7825
6043.478473 94.311 28.5487
6087.272010 94.242 29.3739
6131.382892 94.189 30.2417
6175.813420 94.151 31.1344
6220.565910 94.130 32.0377
6265.642695 94.122 32.9427
6311.046124 94.130 33.8442
6356.778566 94.152 34.7355
6402.842404 94.189 35.6054
6449.240040 94.241 36.4400
6495.973891 94.308 37.2232
6543.046396 94.387 37.9378
6590.460007 94.477 38.5700
6638.217197 94.574 39.1146
6686.320456 94.676 39.5760
6734.772290 94.782 39.9649
6783.575226 94.889 40.2942
6832.731809 94.997 40.5764
6882.244600 95.108 40.8211
6932.116181 95.220 41.0329
6982.349153 95.336 41.2115
7032.946133 95.457 41.3553
7083.909760 95.584 41.4612
7135.242690 95.720 41.5224
7186.947600 95.868 41.5249
7239.027185 96.028 41.4476
7291.484160 96.203 41.2616
7344.321260 96.391 40.9318
7397.541239 96.589 40.4227
7451.146872 96.795 39.7047
7505.140954 97.002 38.7565
7559.526299 97.208 37.5630
7614.305743 97.405 36.1151
7669.482141 97.589 34.4083
7725.058371 97.754 32.4423
7781.037328 97.894 30.2246
7837.421932 98.000 27.7766
7894.215122 98.067 25.1366
7951.419859 98.088 22.3578
8009.039125 98.062 19.5037
8067.075924 97.987 16.6415
8125.533282 97.865 13.8350
8184.414245 97.698 11.1399
8243.721885 97.491 8.6057
8303.459292 97.246 6.2772
8363.629581 96.970 4.1932
8424.235888 96.668 2.3847
8485.281374 96.349 0.8707
8546.769221 96.020 -0.3464
8608.702634 95.688 -1.2792
8671.084842 95.360 -1.9476
8733.919097 95.040 -2.3733
8797.208675 94.732 -2.5757
8860.956876 94.439 -2.5728
8925.167022 94.166 -2.3862
8989.842461 93.916 -2.0450
9054.986566 93.690 -1.5814
9120.602731 93.491 -1.0253
9186.694378 93.318 -0.4007
9253.264952 93.172 0.2745
9320.317925 93.054 0.9827
9387.856790 92.965 1.7007
9455.885071 92.906 2.4005
9524.406312 92.876 3.0531
9593.424086 92.877 3.6340
9662.941992 92.905 4.1240
9732.963653 92.962 4.5034
9803.492719 93.048 4.7456
9874.532869 93.159 4.8179
9946.087805 93.294 4.6853
10018.161257 93.448 4.3179
10090.756983 93.616 3.6917
10163.878768 93.794 2.7838
10237.530423 93.976 1.5704
10311.715789 94.155 0.0294
10386.438732 94.322 -1.8512
10461.703149 94.468 -4.0665
10537.512962 94.583 -6.5950
10613.872125 94.660 -9.4031
10690.784618 94.691 -12.4467
10768.254450 94.671 -15.6718
10846.285661 94.595 -19.0134
10924.882318 94.463 -22.4050
11004.048518 94.278 -25.7921
11083.788390 94.043 -29.1417
11164.106090 93.760 -32.4382
11245.005805 93.429 -35.6678
11326.491752 93.047 -38.8051
11408.568180 92.611 -41.8101
11491.239368 92.121 -44.6356
11574.509626 91.578 -47.2371
11658.383294 90.984 -49.5800
11742.864745 90.344 -51.6415
11827.958384 89.658 -53.4038
11913.668646 88.925 -54.8404
12000.000000 88.142 -55.8944
12086.956947 87.306 -56.4603
12174.544019 86.414 -56.3770
12262.765784 85.473 -55.4320
12351.626840 84.498 -53.3737
12441.131819 83.521 -49.9291
12531.285389 82.593 -44.8561
12622.092249 81.785 -38.0682
12713.557132 81.181 -29.8383
12805.684808 80.852 -20.9233
12898.480079 80.822 -12.3588
12991.947783 81.056 -4.9943
13086.092792 81.479 0.7912
13180.920015 82.014 5.0177
13276.434395 82.600 7.8970
13372.640911 83.199 9.6800
13469.544580 83.789 10.5823
13567.150452 84.363 10.7550
13665.463617 84.913 10.2869
13764.489200 85.436 9.2251
13864.232362 85.927 7.5984
13964.698305 86.381 5.4266
14065.892266 86.789 2.7238
14167.819519 87.145 -0.4927
14270.485380 87.437 -4.1949
14373.895200 87.655 -8.3455
14478.054370 87.787 -12.8929
14582.968320 87.819 -17.7613
14688.642520 87.739 -22.8431
14795.082478 87.539 -28.0026
14902.293745 87.214 -33.0871
15010.281908 86.767 -37.9369
15119.052599 86.206 -42.3950
15228.611486 85.543 -46.3160
15338.964283 84.798 -49.5676
15450.116741 83.996 -52.0242
15562.074656 83.175 -53.5626
15674.843864 82.386 -54.0804
15788.430244 81.705 -53.5648
15902.839718 81.213 -52.2217
16018.078250 80.962 -50.5853
16134.151848 80.925 -49.3804
16251.066563 80.993 -49.0828
16368.828491 81.047 -49.6678
16487.443769 81.013 -50.8430
16606.918584 80.873 -52.3116
16727.259161 80.639 -53.8672
16848.471777 80.337 -55.3983
16970.562748 79.997 -56.8677
17093.538442 79.641 -58.2991
17217.405268 79.288 -59.7665
17342.169684 78.947 -61.3737
17467.838194 78.619 -63.2250
17594.417350 78.292 -65.3953
17721.913751 77.945 -67.9089
17850.334044 77.557 -70.7359
17979.684923 77.105 -73.7968
18109.973131 76.574 -76.9758
18241.205462 75.952 -80.1443
18373.388756 75.235 -83.1799
18506.529905 74.423 -85.9705
18640.635849 73.517 -88.3979
18775.713581 72.517 -90.2905
18911.770141 71.424 -91.3260
19048.812624 70.249 -90.8864
19186.848172 69.034 -87.9254
19325.883983 67.885 -81.1930
19465.927305 66.974 -70.6254
19606.985439 66.450 -59.1323
19749.065738 66.302 -50.4822
19892.175609 66.362 -45.6763
20036.322514 66.444 -43.7358
