* Measurement data measured by REW V5.31
* Source: EXCL: Microphone (USB Sound Device        ), MICROPHONE (Master Volume), L, volume: 0.560
* Format: 256k Log Swept Sine, 1 sweep at 0.0 dBFS with no timing reference
* Dated: Apr 18, 2024 12:05:40 PM
* REW Settings:
*  C-weighting compensation: Off
*  Target level: 75.0 dB
* Note: KZ ZS10 Pro 2 1000 L
* Measurement: L KZ ZS10 Pro 2 1000
* Smoothing: 1/12 octave
* Frequency Step: 96 ppo
* Start Frequency: 0.36621094 Hz
*
* Freq(Hz) SPL(dB) Phase(degrees)
0.366211 86.146 159.7470
0.368865 86.140 159.7257
0.371538 86.130 159.6938
0.374230 86.119 159.6538
0.376942 86.106 159.6076
0.379673 86.092 159.5569
0.382424 86.077 159.5025
0.385196 86.062 159.4452
0.387987 86.047 159.3853
0.390798 86.031 159.3229
0.393630 86.016 159.2581
0.396483 86.000 159.1910
0.399356 85.984 159.1216
0.402250 85.968 159.0499
0.405165 85.952 158.9758
0.408101 85.935 158.8993
0.411058 85.919 158.8205
0.414037 85.903 158.7392
0.417037 85.886 158.6555
0.420059 85.869 158.5694
0.423103 85.852 158.4808
0.426169 85.836 158.3897
0.429257 85.818 158.2960
0.432368 85.801 158.1998
0.435501 85.784 158.1011
0.438656 85.766 157.9997
0.441835 85.749 157.8958
0.445037 85.731 157.7892
0.448262 85.713 157.6799
0.451510 85.695 157.5680
0.454782 85.677 157.4534
0.458077 85.659 157.3360
0.461397 85.641 157.2160
0.464740 85.622 157.0932
0.468108 85.603 156.9676
0.471500 85.585 156.8392
0.474917 85.566 156.7081
0.478358 85.547 156.5741
0.481825 85.528 156.4373
0.485316 85.508 156.2976
0.488833 85.489 156.1552
0.492375 85.469 156.0098
0.495943 85.449 155.8616
0.499537 85.430 155.7105
0.503157 85.409 155.5565
0.506803 85.389 155.3996
0.510475 85.369 155.2398
0.514175 85.349 155.0771
0.517900 85.328 154.9116
0.521653 85.307 154.7431
0.525434 85.286 154.5717
0.529241 85.265 154.3974
0.533076 85.244 154.2202
0.536939 85.223 154.0402
0.540830 85.201 153.8573
0.544749 85.179 153.6715
0.548696 85.158 153.4829
0.552673 85.136 153.2915
0.556677 85.113 153.0972
0.560711 85.091 152.9002
0.564774 85.069 152.7005
0.568867 85.046 152.4980
0.572989 85.023 152.2928
0.577141 85.000 152.0850
0.581324 84.977 151.8745
0.585536 84.954 151.6615
0.589779 84.930 151.4460
0.594053 84.907 151.2280
0.598358 84.883 151.0076
0.602694 84.859 150.7848
0.607061 84.835 150.5598
0.611460 84.810 150.3325
0.615891 84.786 150.1031
0.620354 84.761 149.8717
0.624849 84.736 149.6382
0.629377 84.711 149.4029
0.633938 84.686 149.1658
0.638532 84.660 148.9271
0.643159 84.635 148.6868
0.647819 84.609 148.4450
0.652514 84.583 148.2019
0.657242 84.557 147.9576
0.662005 84.531 147.7123
0.666802 84.504 147.4661
0.671634 84.477 147.2192
0.676501 84.450 146.9716
0.681403 84.423 146.7237
0.686341 84.396 146.4756
0.691314 84.368 146.2275
0.696324 84.340 145.9795
0.701370 84.312 145.7318
0.706452 84.284 145.4845
0.711571 84.254 145.2378
0.716728 84.224 144.9915
0.721921 84.193 144.7455
0.727153 84.160 144.4993
0.732422 84.125 144.2522
0.737729 84.087 144.0032
0.743075 84.047 143.7513
0.748460 84.006 143.4956
0.753883 83.962 143.2355
0.759346 83.918 142.9705
0.764849 83.873 142.7001
0.770391 83.827 142.4242
0.775974 83.781 142.1427
0.781597 83.734 141.8553
0.787261 83.687 141.5620
0.792966 83.639 141.2626
0.798712 83.590 140.9572
0.804500 83.541 140.6456
0.810329 83.491 140.3277
0.816201 83.441 140.0036
0.822116 83.390 139.6731
0.828073 83.338 139.3361
0.834074 83.285 138.9926
0.840118 83.232 138.6426
0.846206 83.177 138.2860
0.852338 83.122 137.9227
0.858514 83.066 137.5528
0.864735 83.009 137.1761
0.871001 82.950 136.7927
0.877313 82.891 136.4026
0.883670 82.830 136.0057
0.890074 82.769 135.6021
0.896524 82.706 135.1917
0.903020 82.641 134.7746
0.909564 82.576 134.3508
0.916155 82.509 133.9204
0.922794 82.440 133.4834
0.929481 82.370 133.0400
0.936216 82.298 132.5902
0.943000 82.225 132.1342
0.949834 82.149 131.6720
0.956717 82.072 131.2039
0.963649 81.993 130.7301
0.970632 81.912 130.2507
0.977666 81.829 129.7661
0.984750 81.744 129.2764
0.991886 81.657 128.7820
0.999074 81.567 128.2833
1.006314 81.475 127.7805
1.013606 81.380 127.2742
1.020951 81.283 126.7648
1.028349 81.183 126.2527
1.035801 81.080 125.7386
1.043307 80.974 125.2230
1.050867 80.866 124.7066
1.058482 80.754 124.1899
1.066152 80.638 123.6736
1.073878 80.520 123.1581
1.081660 80.397 122.6440
1.089498 80.270 122.1312
1.097393 80.138 121.6195
1.105345 80.001 121.1084
1.113355 79.858 120.5969
1.121423 79.709 120.0840
1.129549 79.553 119.5688
1.137734 79.391 119.0503
1.145979 79.222 118.5279
1.154283 79.047 118.0007
1.162647 78.865 117.4679
1.171072 78.678 116.9289
1.179558 78.484 116.3828
1.188106 78.285 115.8288
1.196715 78.080 115.2659
1.205387 77.870 114.6933
1.214122 77.656 114.1099
1.222920 77.437 113.5147
1.231782 77.215 112.9063
1.240708 76.988 112.2837
1.249699 76.759 111.6453
1.258754 76.527 110.9897
1.267876 76.292 110.3153
1.277063 76.056 109.6202
1.286318 75.818 108.9027
1.295639 75.579 108.1605
1.305027 75.340 107.3915
1.314484 75.101 106.5931
1.324009 74.863 105.7628
1.333604 74.626 104.8975
1.343268 74.392 103.9942
1.353002 74.160 103.0494
1.362806 73.932 102.0593
1.372681 73.708 101.0201
1.382628 73.488 99.9272
1.392647 73.275 98.7762
1.402739 73.067 97.5619
1.412904 72.868 96.2790
1.423142 72.675 94.9220
1.433455 72.492 93.4848
1.443843 72.317 91.9606
1.454305 72.151 90.3423
1.464844 71.993 88.6213
1.475459 71.843 86.7872
1.486150 71.699 84.8276
1.496920 71.561 82.7273
1.507767 71.428 80.4689
1.518693 71.300 78.0319
1.529698 71.176 75.3938
1.540783 71.057 72.5293
1.551948 70.942 69.4113
1.563194 70.833 66.0117
1.574521 70.728 62.3025
1.585931 70.629 58.2584
1.597423 70.536 53.8601
1.608999 70.449 49.0988
1.620658 70.368 43.9813
1.632402 70.294 38.5358
1.644232 70.227 32.8155
1.656146 70.168 26.8990
1.668147 70.116 20.8859
1.680235 70.073 14.8874
1.692411 70.039 9.0140
1.704675 70.013 3.3627
1.717028 69.998 -1.9914
1.729470 69.992 -6.9989
1.742003 69.997 -11.6352
1.754626 70.014 -15.8965
1.767341 70.042 -19.7944
1.780147 70.083 -23.3511
1.793047 70.138 -26.5952
1.806040 70.208 -29.5590
1.819128 70.294 -32.2763
1.832310 70.400 -34.7809
1.845587 70.525 -37.1050
1.858961 70.672 -39.2763
1.872432 70.842 -41.3177
1.886001 71.033 -43.2465
1.899667 71.247 -45.0758
1.913433 71.481 -46.8158
1.927299 71.733 -48.4740
1.941265 72.003 -50.0564
1.955332 72.288 -51.5681
1.969501 72.585 -53.0129
1.983773 72.894 -54.3942
1.998148 73.212 -55.7148
2.012627 73.537 -56.9772
2.027212 73.865 -58.1833
2.041902 74.195 -59.3348
2.056698 74.525 -60.4332
2.071602 74.852 -61.4798
2.086614 75.172 -62.4757
2.101734 75.485 -63.4219
2.116964 75.787 -64.3197
2.132304 76.076 -65.1705
2.147756 76.351 -65.9761
2.163320 76.609 -66.7394
2.178996 76.851 -67.4641
2.194786 77.077 -68.1554
2.210690 77.287 -68.8192
2.226710 77.483 -69.4616
2.242845 77.666 -70.0874
2.259098 77.839 -70.7001
2.275468 78.001 -71.3015
2.291957 78.154 -71.8927
2.308566 78.299 -72.4736
2.325295 78.436 -73.0439
2.342145 78.566 -73.6028
2.359117 78.690 -74.1494
2.376212 78.807 -74.6825
2.393431 78.920 -75.2009
2.410775 79.029 -75.7032
2.428244 79.134 -76.1881
2.445840 79.236 -76.6542
2.463564 79.336 -77.0998
2.481416 79.435 -77.5239
2.499397 79.533 -77.9251
2.517509 79.631 -78.3028
2.535752 79.728 -78.6568
2.554127 79.825 -78.9874
2.572635 79.921 -79.2961
2.591277 80.015 -79.5846
2.610055 80.106 -79.8550
2.628968 80.194 -80.1089
2.648019 80.279 -80.3478
2.667208 80.360 -80.5727
2.686535 80.438 -80.7844
2.706003 80.514 -80.9835
2.725612 80.587 -81.1703
2.745363 80.658 -81.3453
2.765257 80.727 -81.5086
2.785295 80.795 -81.6603
2.805478 80.863 -81.8006
2.825808 80.930 -81.9294
2.846285 80.998 -82.0466
2.866910 81.066 -82.1521
2.887685 81.135 -82.2453
2.908611 81.206 -82.3257
2.929688 81.277 -82.3927
2.950917 81.349 -82.4455
2.972301 81.421 -82.4838
2.993839 81.493 -82.5078
3.015534 81.565 -82.5182
3.037386 81.637 -82.5161
3.059396 81.709 -82.5030
3.081565 81.780 -82.4805
3.103896 81.852 -82.4505
3.126388 81.925 -82.4148
3.149043 81.998 -82.3754
3.171862 82.072 -82.3339
3.194847 82.147 -82.2921
3.217998 82.223 -82.2512
3.241317 82.301 -82.2121
3.264805 82.380 -82.1750
3.288463 82.461 -82.1395
3.312293 82.544 -82.1045
3.336295 82.629 -82.0687
3.360471 82.715 -82.0317
3.384822 82.803 -81.9935
3.409350 82.892 -81.9551
3.434056 82.983 -81.9182
3.458940 83.074 -81.8848
3.484005 83.166 -81.8571
3.509252 83.259 -81.8375
3.534681 83.353 -81.8283
3.560295 83.447 -81.8317
3.586094 83.541 -81.8497
3.612081 83.635 -81.8836
3.638255 83.729 -81.9342
3.664620 83.823 -82.0015
3.691175 83.918 -82.0850
3.717923 84.012 -82.1837
3.744864 84.107 -82.2965
3.772001 84.203 -82.4229
3.799335 84.298 -82.5621
3.826866 84.393 -82.7140
3.854597 84.487 -82.8783
3.882529 84.581 -83.0552
3.910664 84.674 -83.2446
3.939002 84.765 -83.4470
3.967546 84.855 -83.6625
3.996296 84.943 -83.8918
4.025255 85.030 -84.1352
4.054423 85.115 -84.3932
4.083804 85.197 -84.6659
4.113396 85.279 -84.9528
4.143204 85.358 -85.2530
4.173227 85.436 -85.5654
4.203468 85.512 -85.8883
4.233928 85.586 -86.2204
4.264609 85.657 -86.5603
4.295512 85.727 -86.9067
4.326639 85.795 -87.2588
4.357992 85.860 -87.6164
4.389572 85.922 -87.9798
4.421380 85.982 -88.3496
4.453419 86.040 -88.7265
4.485691 86.095 -89.1105
4.518196 86.147 -89.5010
4.550936 86.197 -89.8967
4.583914 86.244 -90.2959
4.617131 86.290 -90.6965
4.650589 86.333 -91.0966
4.684289 86.374 -91.4945
4.718233 86.413 -91.8890
4.752424 86.451 -92.2796
4.786862 86.486 -92.6663
4.821549 86.519 -93.0498
4.856488 86.550 -93.4304
4.891680 86.579 -93.8083
4.927127 86.606 -94.1830
4.962831 86.631 -94.5539
4.998794 86.656 -94.9200
5.035017 86.679 -95.2803
5.071503 86.702 -95.6336
5.108253 86.724 -95.9794
5.145270 86.745 -96.3170
5.182555 86.766 -96.6467
5.220110 86.786 -96.9688
5.257937 86.806 -97.2840
5.296038 86.826 -97.5933
5.334415 86.845 -97.8976
5.373071 86.865 -98.1976
5.412006 86.886 -98.4940
5.451224 86.907 -98.7871
5.490725 86.929 -99.0771
5.530514 86.952 -99.3638
5.570590 86.976 -99.6475
5.610957 87.001 -99.9289
5.651616 87.028 -100.2093
5.692570 87.055 -100.4904
5.733821 87.083 -100.7741
5.775370 87.113 -101.0621
5.817221 87.143 -101.3557
5.859375 87.176 -101.6559
5.901834 87.209 -101.9631
5.944602 87.244 -102.2774
5.987679 87.280 -102.5993
6.031068 87.317 -102.9295
6.074771 87.355 -103.2692
6.118792 87.394 -103.6195
6.163131 87.434 -103.9816
6.207792 87.473 -104.3566
6.252776 87.514 -104.7448
6.298086 87.554 -105.1465
6.343725 87.595 -105.5612
6.389694 87.636 -105.9884
6.435996 87.677 -106.4276
6.482634 87.717 -106.8782
6.529610 87.757 -107.3400
6.576926 87.796 -107.8128
6.624585 87.835 -108.2964
6.672590 87.873 -108.7906
6.720942 87.909 -109.2946
6.769645 87.945 -109.8071
6.818700 87.980 -110.3266
6.868111 88.014 -110.8515
6.917881 88.046 -111.3804
6.968010 88.078 -111.9125
7.018504 88.108 -112.4473
7.069362 88.138 -112.9842
7.120590 88.166 -113.5221
7.172189 88.193 -114.0598
7.224161 88.220 -114.5956
7.276511 88.246 -115.1283
7.329239 88.271 -115.6567
7.382350 88.296 -116.1802
7.435845 88.321 -116.6985
7.489729 88.345 -117.2115
7.544002 88.370 -117.7186
7.598669 88.394 -118.2196
7.653732 88.420 -118.7139
7.709194 88.445 -119.2014
7.765058 88.472 -119.6818
7.821327 88.499 -120.1556
7.878004 88.527 -120.6234
7.935091 88.556 -121.0857
7.992592 88.586 -121.5433
8.050510 88.617 -121.9967
8.108847 88.650 -122.4464
8.167607 88.684 -122.8929
8.226793 88.719 -123.3369
8.286408 88.756 -123.7792
8.346454 88.794 -124.2207
8.406936 88.832 -124.6623
8.467856 88.872 -125.1044
8.529218 88.913 -125.5474
8.591024 88.954 -125.9915
8.653278 88.996 -126.4367
8.715983 89.038 -126.8834
8.779143 89.081 -127.3317
8.842760 89.124 -127.7814
8.906839 89.167 -128.2323
8.971381 89.209 -128.6840
9.036392 89.252 -129.1357
9.101873 89.293 -129.5868
9.167829 89.335 -130.0367
9.234263 89.376 -130.4847
9.301178 89.416 -130.9303
9.368578 89.455 -131.3725
9.436467 89.494 -131.8105
9.504847 89.531 -132.2434
9.573723 89.568 -132.6707
9.643099 89.603 -133.0918
9.712976 89.637 -133.5063
9.783361 89.669 -133.9138
9.854255 89.698 -134.3139
9.925663 89.725 -134.7064
9.997588 89.749 -135.0913
10.070035 89.770 -135.4688
10.143007 89.789 -135.8391
10.216507 89.807 -136.2024
10.290540 89.822 -136.5592
10.365109 89.836 -136.9099
10.440219 89.849 -137.2550
10.515873 89.861 -137.5950
10.592076 89.873 -137.9305
10.668830 89.883 -138.2622
10.746141 89.894 -138.5903
10.824012 89.903 -138.9154
10.902447 89.913 -139.2379
10.981451 89.921 -139.5580
11.061027 89.929 -139.8760
11.141180 89.935 -140.1921
11.221913 89.941 -140.5063
11.303232 89.946 -140.8187
11.385140 89.950 -141.1292
11.467641 89.953 -141.4378
11.550741 89.955 -141.7444
11.634442 89.956 -142.0489
11.718750 89.956 -142.3511
11.803669 89.956 -142.6511
11.889203 89.954 -142.9487
11.975357 89.953 -143.2440
12.062136 89.950 -143.5370
12.149543 89.947 -143.8277
12.237583 89.943 -144.1164
12.326262 89.938 -144.4031
12.415583 89.933 -144.6881
12.505552 89.927 -144.9716
12.596172 89.920 -145.2538
12.687449 89.912 -145.5349
12.779387 89.903 -145.8152
12.871992 89.894 -146.0950
12.965268 89.884 -146.3742
13.059220 89.874 -146.6533
13.153852 89.863 -146.9324
13.249170 89.852 -147.2116
13.345179 89.841 -147.4913
13.441884 89.830 -147.7715
13.539289 89.820 -148.0527
13.637401 89.809 -148.3351
13.736223 89.798 -148.6192
13.835761 89.788 -148.9053
13.936021 89.778 -149.1941
14.037007 89.768 -149.4859
14.138725 89.758 -149.7815
14.241180 89.749 -150.0814
14.344377 89.740 -150.3861
14.448323 89.731 -150.6963
14.553021 89.722 -151.0123
14.658478 89.714 -151.3345
14.764700 89.706 -151.6632
14.871691 89.699 -151.9984
14.979457 89.692 -152.3399
15.088005 89.685 -152.6877
15.197339 89.679 -153.0412
15.307465 89.672 -153.3999
15.418389 89.666 -153.7631
15.530117 89.660 -154.1302
15.642655 89.653 -154.5003
15.756008 89.647 -154.8725
15.870182 89.641 -155.2461
15.985184 89.635 -155.6203
16.101019 89.629 -155.9943
16.217694 89.624 -156.3677
16.335214 89.618 -156.7397
16.453586 89.613 -157.1101
16.572815 89.609 -157.4783
16.692909 89.605 -157.8440
16.813872 89.602 -158.2071
16.935713 89.600 -158.5672
17.058436 89.599 -158.9242
17.182048 89.597 -159.2778
17.306556 89.597 -159.6278
17.431967 89.597 -159.9739
17.558286 89.596 -160.3158
17.685521 89.596 -160.6532
17.813677 89.596 -160.9856
17.942762 89.595 -161.3127
18.072783 89.594 -161.6339
18.203746 89.593 -161.9487
18.335658 89.591 -162.2565
18.468526 89.589 -162.5566
18.602356 89.586 -162.8483
18.737156 89.582 -163.1309
18.872934 89.578 -163.4037
19.009695 89.574 -163.6660
19.147447 89.569 -163.9175
19.286197 89.565 -164.1579
19.425953 89.559 -164.3870
19.566721 89.554 -164.6053
19.708510 89.549 -164.8134
19.851326 89.544 -165.0125
19.995177 89.539 -165.2040
20.140070 89.535 -165.3898
20.286013 89.531 -165.5721
20.433014 89.527 -165.7533
20.581080 89.525 -165.9359
20.730219 89.522 -166.1222
20.880439 89.520 -166.3147
21.031747 89.518 -166.5153
21.184152 89.516 -166.7254
21.337661 89.514 -166.9463
21.492282 89.511 -167.1782
21.648024 89.507 -167.4211
21.804895 89.502 -167.6744
21.962902 89.495 -167.9369
22.122054 89.486 -168.2070
22.282360 89.475 -168.4829
22.443827 89.463 -168.7628
22.606464 89.449 -169.0449
22.770280 89.434 -169.3277
22.935283 89.418 -169.6101
23.101481 89.402 -169.8916
23.268884 89.385 -170.1724
23.437500 89.369 -170.4531
23.607338 89.353 -170.7351
23.778406 89.337 -171.0199
23.950714 89.323 -171.3092
24.124271 89.308 -171.6041
24.299086 89.294 -171.9057
24.475167 89.281 -172.2138
24.652524 89.267 -172.5275
24.831166 89.253 -172.8451
25.011103 89.238 -173.1643
25.192344 89.223 -173.4821
25.374898 89.207 -173.7961
25.558775 89.192 -174.1039
25.743984 89.176 -174.4043
25.930536 89.161 -174.6969
26.118439 89.146 -174.9822
26.307704 89.132 -175.2615
26.498341 89.119 -175.5360
26.690359 89.105 -175.8068
26.883768 89.092 -176.0737
27.078579 89.077 -176.3355
27.274801 89.062 -176.5898
27.472446 89.045 -176.8333
27.671522 89.027 -177.0625
27.872042 89.008 -177.2745
28.074014 88.989 -177.4680
28.277450 88.971 -177.6438
28.482360 88.953 -177.8050
28.688755 88.937 -177.9566
28.896645 88.923 -178.1049
29.106042 88.911 -178.2563
29.316957 88.899 -178.4158
29.529400 88.888 -178.5864
29.743382 88.875 -178.7685
29.958915 88.861 -178.9601
30.176009 88.845 -179.1577
30.394677 88.827 -179.3573
30.614929 88.808 -179.5558
30.836778 88.787 -179.7514
31.060234 88.766 -179.9448
31.285309 88.745 179.8622
31.512015 88.724 179.6669
31.740364 88.702 179.4670
31.970368 88.681 179.2616
32.202039 88.659 179.0515
32.435388 88.636 178.8392
32.670428 88.612 178.6279
32.907171 88.588 178.4202
33.145630 88.564 178.2175
33.385817 88.541 178.0194
33.627745 88.519 177.8243
33.871425 88.497 177.6303
34.116871 88.476 177.4368
34.364096 88.455 177.2448
34.613113 88.434 177.0576
34.863934 88.412 176.8794
35.116572 88.390 176.7136
35.371041 88.369 176.5615
35.627354 88.349 176.4211
35.885525 88.331 176.2880
36.145566 88.313 176.1567
36.407492 88.297 176.0237
36.671316 88.279 175.8889
36.937051 88.261 175.7567
37.204712 88.240 175.6336
37.474313 88.218 175.5262
37.745867 88.196 175.4367
38.019389 88.176 175.3614
38.294893 88.158 175.2905
38.572394 88.144 175.2115
38.851905 88.131 175.1135
39.133442 88.117 174.9910
39.417019 88.102 174.8463
39.702651 88.083 174.6876
39.990353 88.062 174.5247
40.280140 88.037 174.3649
40.572026 88.012 174.2093
40.866028 87.987 174.0534
41.162160 87.963 173.8907
41.460438 87.937 173.7176
41.760877 87.909 173.5371
42.063494 87.879 173.3594
42.368303 87.846 173.1976
42.675322 87.812 173.0614
42.984565 87.779 172.9521
43.296048 87.751 172.8608
43.609789 87.728 172.7720
43.925804 87.709 172.6704
44.244108 87.692 172.5483
44.564719 87.674 172.4088
44.887654 87.654 172.2633
45.212928 87.632 172.1255
45.540560 87.608 172.0045
45.870565 87.586 171.9005
46.202962 87.566 171.8063
46.537768 87.548 171.7120
46.875000 87.531 171.6108
47.214676 87.513 171.5014
47.556813 87.494 171.3876
47.901429 87.474 171.2737
48.248542 87.453 171.1614
48.598171 87.431 171.0493
48.950334 87.408 170.9356
49.305048 87.383 170.8218
49.662333 87.355 170.7134
50.022206 87.325 170.6180
50.384688 87.294 170.5400
50.749796 87.264 170.4778
51.117550 87.236 170.4229
51.487969 87.210 170.3653
51.861072 87.185 170.2984
52.236879 87.159 170.2224
52.615409 87.132 170.1426
52.996681 87.105 170.0661
53.380717 87.078 169.9966
53.767536 87.051 169.9341
54.157158 87.026 169.8770
54.549603 87.001 169.8240
54.944892 86.978 169.7755
55.343045 86.956 169.7318
55.744084 86.936 169.6902
56.148028 86.919 169.6453
56.554900 86.903 169.5904
56.964720 86.887 169.5218
57.377510 86.870 169.4405
57.793291 86.852 169.3519
58.212085 86.831 169.2628
58.633914 86.807 169.1788
59.058799 86.783 169.1028
59.486764 86.757 169.0357
59.917829 86.730 168.9774
60.352019 86.702 168.9276
60.789354 86.674 168.8855
61.229859 86.647 168.8499
61.673556 86.620 168.8190
62.120468 86.593 168.7907
62.570618 86.568 168.7633
63.024031 86.543 168.7348
63.480729 86.518 168.7037
63.940736 86.494 168.6689
64.404077 86.470 168.6304
64.870776 86.445 168.5898
65.340856 86.419 168.5502
65.814343 86.392 168.5151
66.291261 86.364 168.4867
66.771635 86.336 168.4648
67.255489 86.309 168.4463
67.742850 86.283 168.4268
68.233743 86.257 168.4019
68.728193 86.232 168.3692
69.226226 86.207 168.3286
69.727867 86.183 168.2816
70.233144 86.159 168.2291
70.742083 86.137 168.1703
71.254709 86.115 168.1021
71.771050 86.095 168.0226
72.291132 86.073 167.9344
72.814984 86.050 167.8467
73.342631 86.024 167.7726
73.874102 85.996 167.7247
74.409424 85.968 167.7097
74.948626 85.942 167.7259
75.491734 85.918 167.7654
76.038779 85.895 167.8184
76.589787 85.875 167.8771
77.144788 85.856 167.9363
77.703811 85.839 167.9919
78.266885 85.822 168.0389
78.834039 85.806 168.0731
79.405303 85.790 168.0912
79.980706 85.774 168.0918
80.560280 85.757 168.0743
81.144053 85.738 168.0398
81.732056 85.717 167.9914
82.324320 85.692 167.9344
82.920876 85.665 167.8755
83.521755 85.634 167.8221
84.126988 85.601 167.7803
84.736607 85.567 167.7537
85.350643 85.532 167.7425
85.969129 85.499 167.7440
86.592097 85.467 167.7552
87.219579 85.438 167.7731
87.851608 85.411 167.7955
88.488217 85.386 167.8216
89.129439 85.361 167.8539
89.775308 85.337 167.8971
90.425856 85.312 167.9557
91.081119 85.287 168.0311
91.741131 85.260 168.1199
92.405925 85.233 168.2144
93.075536 85.204 168.3056
93.750000 85.173 168.3868
94.429351 85.141 168.4578
95.113625 85.108 168.5210
95.802858 85.077 168.5760
96.497085 85.049 168.6201
97.196342 85.025 168.6540
97.900667 85.006 168.6844
98.610096 84.989 168.7215
99.324665 84.975 168.7747
100.044413 84.961 168.8511
100.769376 84.947 168.9540
101.499592 84.931 169.0807
102.235100 84.912 169.2220
102.975938 84.889 169.3656
103.722144 84.863 169.4984
104.473757 84.835 169.6087
105.230817 84.806 169.6891
105.993363 84.779 169.7384
106.761435 84.755 169.7618
107.535072 84.735 169.7675
108.314315 84.721 169.7646
109.099206 84.711 169.7617
109.889783 84.704 169.7675
110.686090 84.696 169.7874
111.488167 84.686 169.8195
112.296056 84.673 169.8535
113.109800 84.655 169.8758
113.929440 84.634 169.8735
114.755020 84.612 169.8365
115.586582 84.592 169.7588
116.424170 84.574 169.6376
117.267827 84.560 169.4768
118.117598 84.546 169.2968
118.973527 84.527 169.1448
119.835658 84.500 169.0912
120.704037 84.469 169.1958
121.578708 84.442 169.4585
122.459718 84.421 169.8198
123.347111 84.407 170.2084
124.240935 84.397 170.5749
125.141236 84.387 170.8935
126.048061 84.376 171.1546
126.961458 84.363 171.3578
127.881473 84.350 171.5078
128.808154 84.335 171.6127
129.741551 84.317 171.6843
130.681712 84.296 171.7364
131.628686 84.272 171.7789
132.582521 84.245 171.8149
133.543269 84.216 171.8443
134.510979 84.186 171.8700
135.485701 84.156 171.8981
136.467486 84.127 171.9341
137.456386 84.101 171.9821
138.452451 84.078 172.0441
139.455735 84.059 172.1165
140.466288 84.043 172.1877
141.484165 84.029 172.2455
142.509418 84.013 172.2853
143.542100 83.996 172.3111
144.582265 83.977 172.3306
145.629968 83.956 172.3498
146.685262 83.933 172.3721
147.748204 83.908 172.4011
148.818849 83.880 172.4424
149.897251 83.851 172.5005
150.983469 83.822 172.5759
152.077557 83.794 172.6699
153.179574 83.767 172.7876
154.289576 83.741 172.9336
155.407622 83.719 173.1072
156.533770 83.698 173.3054
157.668078 83.679 173.5224
158.810606 83.663 173.7462
159.961413 83.648 173.9623
161.120559 83.634 174.1595
162.288105 83.622 174.3303
163.464112 83.610 174.4712
164.648640 83.595 174.5882
165.841752 83.578 174.6995
167.043510 83.556 174.8270
168.253976 83.533 174.9841
169.473213 83.509 175.1712
170.701286 83.488 175.3796
171.938258 83.469 175.5975
173.184194 83.453 175.8137
174.439158 83.439 176.0191
175.703216 83.427 176.2084
176.976434 83.416 176.3801
178.258878 83.405 176.5354
179.550615 83.394 176.6774
180.851713 83.379 176.8096
182.162239 83.357 176.9342
183.482262 83.326 177.0528
184.811850 83.285 177.1752
186.151073 83.239 177.3225
187.500000 83.201 177.4899
188.858702 83.179 177.6375
190.227250 83.176 177.7333
191.605715 83.187 177.7826
192.994169 83.206 177.8170
194.392685 83.224 177.8673
195.801334 83.235 177.9464
197.220191 83.239 178.0497
198.649330 83.235 178.1650
200.088825 83.225 178.2831
201.538751 83.213 178.4014
202.999184 83.201 178.5223
204.470200 83.189 178.6471
205.951875 83.177 178.7729
207.444287 83.165 178.8944
208.947514 83.151 179.0082
210.461634 83.136 179.1166
211.986726 83.118 179.2266
213.522869 83.099 179.3454
215.070144 83.077 179.4782
216.628631 83.055 179.6263
218.198411 83.032 179.7883
219.779567 83.011 179.9612
221.372180 82.991 -179.8591
222.976334 82.973 -179.6766
224.592112 82.957 -179.4944
226.219600 82.941 -179.3148
227.858880 82.926 -179.1388
229.510039 82.911 -178.9656
231.173164 82.896 -178.7947
232.848340 82.881 -178.6273
234.535655 82.866 -178.4653
236.235197 82.851 -178.3096
237.947054 82.836 -178.1589
239.671317 82.819 -178.0110
241.408074 82.802 -177.8630
243.157416 82.784 -177.7114
244.919435 82.764 -177.5528
246.694223 82.744 -177.3848
248.481871 82.724 -177.2049
250.282473 82.703 -177.0109
252.096123 82.684 -176.8013
253.922915 82.667 -176.5775
255.762945 82.652 -176.3460
257.616309 82.641 -176.1171
259.483103 82.632 -175.9007
261.363424 82.624 -175.7016
263.257372 82.615 -175.5178
265.165043 82.604 -175.3423
267.086538 82.592 -175.1669
269.021957 82.579 -174.9850
270.971401 82.564 -174.7927
272.934972 82.551 -174.5895
274.912771 82.538 -174.3765
276.904902 82.526 -174.1558
278.911469 82.516 -173.9291
280.932577 82.508 -173.6988
282.968330 82.502 -173.4689
285.018835 82.497 -173.2452
287.084199 82.495 -173.0345
289.164530 82.493 -172.8428
291.259935 82.490 -172.6717
293.370525 82.484 -172.5165
295.496408 82.476 -172.3681
297.637697 82.465 -172.2168
299.794503 82.452 -172.0559
301.966937 82.438 -171.8834
304.155114 82.424 -171.7006
306.359147 82.409 -171.5103
308.579152 82.396 -171.3159
310.815244 82.382 -171.1197
313.067539 82.369 -170.9221
315.336156 82.354 -170.7212
317.621211 82.339 -170.5132
319.922826 82.323 -170.2941
322.241118 82.307 -170.0626
324.576210 82.292 -169.8209
326.928223 82.277 -169.5733
329.297280 82.263 -169.3233
331.683504 82.250 -169.0735
334.087019 82.239 -168.8259
336.507952 82.228 -168.5826
338.946427 82.217 -168.3446
341.402572 82.205 -168.1114
343.876516 82.194 -167.8801
346.368387 82.181 -167.6470
348.878315 82.168 -167.4091
351.406431 82.155 -167.1654
353.952867 82.142 -166.9169
356.517756 82.129 -166.6653
359.101230 82.116 -166.4123
361.703426 82.104 -166.1582
364.324478 82.092 -165.9024
366.964523 82.079 -165.6438
369.623699 82.067 -165.3817
372.302145 82.055 -165.1158
375.000000 82.043 -164.8463
377.717405 82.032 -164.5736
380.454501 82.021 -164.2985
383.211431 82.010 -164.0215
385.988339 81.999 -163.7427
388.785369 81.989 -163.4620
391.602668 81.980 -163.1795
394.440383 81.970 -162.8953
397.298660 81.961 -162.6095
400.177650 81.953 -162.3230
403.077502 81.945 -162.0370
405.998368 81.937 -161.7527
408.940400 81.929 -161.4702
411.903750 81.920 -161.1873
414.888575 81.911 -160.9005
417.895028 81.901 -160.6061
420.923268 81.892 -160.3016
423.973452 81.883 -159.9863
427.045738 81.875 -159.6617
430.140287 81.869 -159.3321
433.257261 81.864 -159.0032
436.396822 81.862 -158.6787
439.559133 81.860 -158.3596
442.744360 81.859 -158.0461
445.952668 81.859 -157.7396
449.184225 81.861 -157.4438
452.439199 81.862 -157.1634
455.717760 81.863 -156.9003
459.020079 81.862 -156.6509
462.346327 81.858 -156.4053
465.696680 81.850 -156.1523
469.071310 81.841 -155.8853
472.470394 81.831 -155.6029
475.894109 81.820 -155.3084
479.342634 81.810 -155.0071
482.816148 81.800 -154.7039
486.314833 81.790 -154.3998
489.838871 81.778 -154.0899
493.388445 81.766 -153.7664
496.963741 81.754 -153.4259
500.564945 81.744 -153.0727
504.192245 81.736 -152.7152
507.845830 81.730 -152.3610
511.525890 81.724 -152.0131
515.232618 81.718 -151.6696
518.966206 81.711 -151.3260
522.726849 81.704 -150.9774
526.514743 81.696 -150.6199
530.330086 81.688 -150.2521
534.173076 81.680 -149.8762
538.043915 81.674 -149.4966
541.942803 81.669 -149.1155
545.869944 81.665 -148.7321
549.825542 81.661 -148.3454
553.809805 81.659 -147.9571
557.822939 81.657 -147.5701
561.865154 81.656 -147.1864
565.936660 81.655 -146.8058
570.037671 81.653 -146.4257
574.168399 81.650 -146.0428
578.329060 81.648 -145.6550
582.519870 81.645 -145.2626
586.741049 81.641 -144.8654
590.992817 81.638 -144.4605
595.275394 81.635 -144.0443
599.589005 81.633 -143.6171
603.933874 81.632 -143.1833
608.310228 81.632 -142.7482
612.718295 81.633 -142.3143
617.158304 81.633 -141.8799
621.630488 81.632 -141.4388
626.135079 81.632 -140.9842
630.672311 81.632 -140.5134
635.242423 81.634 -140.0305
639.845651 81.638 -139.5420
644.482237 81.644 -139.0501
649.152421 81.652 -138.5541
653.856447 81.663 -138.0555
658.594560 81.677 -137.5613
663.367008 81.693 -137.0815
668.174039 81.710 -136.6236
673.015903 81.727 -136.1875
677.892854 81.741 -135.7654
682.805145 81.753 -135.3478
687.753032 81.763 -134.9275
692.736774 81.772 -134.4990
697.756631 81.779 -134.0576
702.812863 81.786 -133.6014
707.905735 81.794 -133.1329
713.035511 81.803 -132.6569
718.202461 81.813 -132.1774
723.406852 81.824 -131.6952
728.648956 81.835 -131.2088
733.929047 81.847 -130.7170
739.247399 81.859 -130.2190
744.604290 81.871 -129.7148
750.000000 81.884 -129.2049
755.434809 81.898 -128.6900
760.909001 81.914 -128.1707
766.422861 81.930 -127.6469
771.976677 81.947 -127.1188
777.570739 81.966 -126.5868
783.205337 81.986 -126.0520
788.880766 82.007 -125.5143
794.597321 82.030 -124.9724
800.355301 82.054 -124.4258
806.155005 82.081 -123.8785
811.996736 82.111 -123.3389
817.880799 82.143 -122.8176
823.807501 82.177 -122.3238
829.777150 82.210 -121.8622
835.790057 82.240 -121.4270
841.846536 82.264 -120.9998
847.946903 82.284 -120.5577
854.091476 82.301 -120.0863
860.280575 82.318 -119.5852
866.514523 82.336 -119.0623
872.793644 82.356 -118.5252
879.118267 82.378 -117.9783
885.488720 82.401 -117.4227
891.905336 82.425 -116.8568
898.368450 82.451 -116.2777
904.878398 82.480 -115.6864
911.435520 82.512 -115.0889
918.040157 82.549 -114.4934
924.692655 82.588 -113.9067
931.393359 82.631 -113.3335
938.142619 82.676 -112.7768
944.940787 82.721 -112.2369
951.788218 82.767 -111.7106
958.685268 82.813 -111.1933
965.632296 82.859 -110.6808
972.629666 82.904 -110.1693
979.677741 82.951 -109.6578
986.776890 82.997 -109.1465
993.927482 83.044 -108.6337
1001.129891 83.091 -108.1143
1008.384491 83.140 -107.5841
1015.691660 83.190 -107.0447
1023.051781 83.244 -106.5018
1030.465236 83.302 -105.9638
1037.932411 83.363 -105.4425
1045.453698 83.428 -104.9501
1053.029486 83.494 -104.4919
1060.660172 83.558 -104.0639
1068.346153 83.621 -103.6566
1076.087829 83.681 -103.2603
1083.885605 83.740 -102.8689
1091.739887 83.798 -102.4806
1099.651084 83.855 -102.0959
1107.619609 83.911 -101.7145
1115.645878 83.966 -101.3354
1123.730308 84.020 -100.9570
1131.873321 84.073 -100.5776
1140.075341 84.126 -100.1958
1148.336797 84.179 -99.8106
1156.658119 84.231 -99.4212
1165.039741 84.284 -99.0264
1173.482099 84.338 -98.6245
1181.985634 84.393 -98.2163
1190.550789 84.452 -97.8080
1199.178011 84.513 -97.4113
1207.867749 84.577 -97.0384
1216.620457 84.641 -96.6950
1225.436590 84.703 -96.3772
1234.316609 84.762 -96.0760
1243.260976 84.819 -95.7820
1252.270157 84.872 -95.4872
1261.344623 84.924 -95.1876
1270.484846 84.974 -94.8822
1279.691303 85.022 -94.5697
1288.964474 85.069 -94.2482
1298.304842 85.116 -93.9175
1307.712894 85.163 -93.5798
1317.189120 85.210 -93.2384
1326.734016 85.257 -92.8959
1336.348077 85.304 -92.5517
1346.031806 85.351 -92.2032
1355.785708 85.398 -91.8467
1365.610290 85.447 -91.4786
1375.506065 85.496 -91.0943
1385.473549 85.547 -90.6888
1395.513261 85.601 -90.2607
1405.625726 85.659 -89.8153
1415.811469 85.722 -89.3647
1426.071023 85.788 -88.9240
1436.404921 85.856 -88.5024
1446.813703 85.925 -88.1000
1457.297912 85.992 -87.7112
1467.858093 86.058 -87.3291
1478.494798 86.121 -86.9490
1489.208581 86.182 -86.5674
1500.000000 86.239 -86.1810
1510.869618 86.293 -85.7868
1521.818002 86.343 -85.3820
1532.845723 86.389 -84.9641
1543.953355 86.431 -84.5311
1555.141477 86.473 -84.0823
1566.410674 86.515 -83.6219
1577.761531 86.559 -83.1611
1589.194642 86.605 -82.7144
1600.710601 86.652 -82.2914
1612.310010 86.700 -81.8926
1623.993473 86.745 -81.5123
1635.761599 86.789 -81.1423
1647.615002 86.832 -80.7760
1659.554299 86.872 -80.4084
1671.580114 86.912 -80.0360
1683.693072 86.952 -79.6580
1695.893807 86.991 -79.2761
1708.182952 87.029 -78.8922
1720.561150 87.066 -78.5060
1733.029045 87.102 -78.1143
1745.587288 87.135 -77.7115
1758.236533 87.167 -77.2908
1770.977440 87.198 -76.8464
1783.810673 87.232 -76.3791
1796.736900 87.269 -75.8985
1809.756796 87.310 -75.4195
1822.871040 87.354 -74.9540
1836.080315 87.400 -74.5060
1849.385310 87.447 -74.0739
1862.786718 87.494 -73.6537
1876.285239 87.542 -73.2405
1889.881575 87.591 -72.8290
1903.576436 87.643 -72.4136
1917.370535 87.697 -71.9892
1931.264593 87.756 -71.5525
1945.259332 87.822 -71.1048
1959.355483 87.894 -70.6549
1973.553781 87.972 -70.2168
1987.854965 88.055 -69.8009
2002.259781 88.139 -69.4106
2016.768981 88.223 -69.0434
2031.383320 88.306 -68.6942
2046.103561 88.387 -68.3574
2060.930471 88.467 -68.0288
2075.864823 88.545 -67.7065
2090.907395 88.621 -67.3903
2106.058972 88.695 -67.0781
2121.320344 88.765 -66.7647
2136.692305 88.833 -66.4416
2152.175658 88.898 -66.1001
2167.771210 88.963 -65.7373
2183.479774 89.028 -65.3599
2199.302169 89.095 -64.9802
2215.239219 89.164 -64.6079
2231.291755 89.232 -64.2471
2247.460615 89.299 -63.8971
2263.746641 89.365 -63.5532
2280.150683 89.428 -63.2077
2296.673595 89.489 -62.8512
2313.316238 89.549 -62.4754
2330.079481 89.610 -62.0772
2346.964198 89.673 -61.6620
2363.971268 89.738 -61.2399
2381.101578 89.804 -60.8184
2398.356022 89.871 -60.3984
2415.735498 89.938 -59.9754
2433.240913 90.004 -59.5419
2450.873180 90.070 -59.0902
2468.633217 90.137 -58.6141
2486.521951 90.205 -58.1077
2504.540314 90.277 -57.5635
2522.689246 90.354 -56.9736
2540.969692 90.439 -56.3345
2559.382606 90.536 -55.6548
2577.928947 90.650 -54.9586
2596.609683 90.781 -54.2791
2615.425787 90.928 -53.6524
2634.378241 91.091 -53.1122
2653.468031 91.265 -52.6847
2672.696154 91.446 -52.3862
2692.063613 91.630 -52.2217
2711.571415 91.813 -52.1887
2731.220579 91.991 -52.2820
2751.012130 92.162 -52.4942
2770.947098 92.323 -52.8132
2791.026522 92.471 -53.2218
2811.251451 92.606 -53.7000
2831.622938 92.726 -54.2284
2852.142045 92.833 -54.7909
2872.809842 92.926 -55.3744
2893.627406 93.006 -55.9654
2914.595823 93.074 -56.5501
2935.716186 93.133 -57.1176
2956.989596 93.184 -57.6664
2978.417161 93.228 -58.2023
3000.000000 93.267 -58.7334
3021.739237 93.300 -59.2658
3043.636005 93.325 -59.7999
3065.691446 93.343 -60.3306
3087.906710 93.354 -60.8500
3110.282955 93.358 -61.3534
3132.821347 93.355 -61.8429
3155.523062 93.348 -62.3241
3178.389283 93.333 -62.8016
3201.421202 93.311 -63.2760
3224.620020 93.280 -63.7438
3247.986946 93.239 -64.1983
3271.523198 93.187 -64.6276
3295.230004 93.122 -65.0136
3319.108599 93.047 -65.3352
3343.160228 92.963 -65.5760
3367.386145 92.872 -65.7277
3391.787613 92.779 -65.7882
3416.365904 92.684 -65.7586
3441.122300 92.590 -65.6399
3466.058091 92.499 -65.4319
3491.174576 92.414 -65.1377
3516.473066 92.336 -64.7696
3541.954880 92.269 -64.3475
3567.621345 92.211 -63.8945
3593.473800 92.162 -63.4318
3619.513592 92.121 -62.9765
3645.742080 92.086 -62.5401
3672.160630 92.053 -62.1247
3698.770620 92.022 -61.7238
3725.573436 91.990 -61.3293
3752.570477 91.958 -60.9381
3779.763150 91.927 -60.5522
3807.152872 91.894 -60.1742
3834.741071 91.858 -59.8020
3862.529185 91.819 -59.4277
3890.518664 91.777 -59.0431
3918.710966 91.733 -58.6460
3947.107561 91.688 -58.2400
3975.709929 91.642 -57.8324
4004.519563 91.596 -57.4306
4033.537962 91.547 -57.0402
4062.766641 91.495 -56.6590
4092.207123 91.437 -56.2762
4121.860942 91.373 -55.8791
4151.729646 91.304 -55.4585
4181.814790 91.230 -55.0094
4212.117944 91.150 -54.5251
4242.640687 91.064 -53.9938
4273.384610 90.973 -53.4005
4304.351317 90.879 -52.7341
4335.542421 90.784 -51.9913
4366.959549 90.690 -51.1757
4398.604338 90.599 -50.2958
4430.478438 90.511 -49.3605
4462.583511 90.427 -48.3727
4494.921231 90.348 -47.3290
4527.493283 90.274 -46.2262
4560.301365 90.208 -45.0655
4593.347189 90.149 -43.8509
4626.632476 90.101 -42.5832
4660.158962 90.064 -41.2622
4693.928395 90.043 -39.8933
4727.942535 90.039 -38.4938
4762.203156 90.056 -37.0941
4796.712043 90.094 -35.7350
4831.470996 90.153 -34.4595
4866.481826 90.229 -33.3036
4901.746360 90.316 -32.2938
4937.266434 90.411 -31.4492
4973.043902 90.504 -30.7794
5009.080628 90.591 -30.2783
5045.378492 90.664 -29.9218
5081.939384 90.718 -29.6745
5118.765212 90.753 -29.4977
5155.857894 90.766 -29.3563
5193.219366 90.758 -29.2218
5230.851574 90.732 -29.0700
5268.756481 90.686 -28.8778
5306.936062 90.625 -28.6258
5345.392309 90.549 -28.3016
5384.127225 90.461 -27.8982
5423.142830 90.362 -27.4073
5462.441159 90.254 -26.8178
5502.024259 90.138 -26.1185
5541.894195 90.019 -25.3041
5582.053045 89.899 -24.3779
5622.502902 89.781 -23.3500
5663.245876 89.668 -22.2317
5704.284090 89.560 -21.0342
5745.619684 89.459 -19.7702
5787.254813 89.365 -18.4509
5829.191647 89.277 -17.0803
5871.432373 89.194 -15.6549
5913.979192 89.118 -14.1683
5956.834323 89.050 -12.6171
6000.000000 88.992 -11.0041
6043.478473 88.945 -9.3359
6087.272010 88.910 -7.6215
6131.382892 88.890 -5.8731
6175.813420 88.884 -4.1046
6220.565910 88.892 -2.3267
6265.642695 88.915 -0.5451
6311.046124 88.952 1.2366
6356.778566 89.004 3.0110
6402.842404 89.073 4.7637
6449.240040 89.159 6.4747
6495.973891 89.261 8.1192
6543.046396 89.379 9.6699
6590.460007 89.508 11.1029
6638.217197 89.644 12.4049
6686.320456 89.783 13.5763
6734.772290 89.920 14.6293
6783.575226 90.052 15.5842
6832.731809 90.176 16.4677
6882.244600 90.292 17.3088
6932.116181 90.401 18.1332
6982.349153 90.504 18.9615
7032.946133 90.606 19.8090
7083.909760 90.710 20.6836
7135.242690 90.823 21.5818
7186.947600 90.950 22.4857
7239.027185 91.094 23.3638
7291.484160 91.259 24.1730
7344.321260 91.445 24.8615
7397.541239 91.649 25.3777
7451.146872 91.868 25.6779
7505.140954 92.095 25.7290
7559.526299 92.325 25.5070
7614.305743 92.550 24.9964
7669.482141 92.763 24.1889
7725.058371 92.956 23.0830
7781.037328 93.119 21.6880
7837.421932 93.243 20.0307
7894.215122 93.318 18.1581
7951.419859 93.338 16.1335
8009.039125 93.298 14.0315
8067.075924 93.197 11.9310
8125.533282 93.036 9.9063
8184.414245 92.819 8.0231
8243.721885 92.549 6.3403
8303.459292 92.234 4.9106
8363.629581 91.879 3.7787
8424.235888 91.493 2.9801
8485.281374 91.086 2.5363
8546.769221 90.667 2.4503
8608.702634 90.246 2.7086
8671.084842 89.830 3.2891
8733.919097 89.425 4.1680
8797.208675 89.036 5.3245
8860.956876 88.668 6.7397
8925.167022 88.325 8.3905
8989.842461 88.013 10.2457
9054.986566 87.733 12.2689
9120.602731 87.489 14.4253
9186.694378 87.282 16.6854
9253.264952 87.113 19.0254
9320.317925 86.986 21.4195
9387.856790 86.903 23.8332
9455.885071 86.866 26.2233
9524.406312 86.877 28.5424
9593.424086 86.934 30.7440
9662.941992 87.039 32.7838
9732.963653 87.191 34.6120
9803.492719 87.386 36.1681
9874.532869 87.620 37.3842
9946.087805 87.885 38.1947
10018.161257 88.169 38.5477
10090.756983 88.460 38.4102
10163.878768 88.743 37.7656
10237.530423 89.005 36.6136
10311.715789 89.229 34.9738
10386.438732 89.401 32.8913
10461.703149 89.507 30.4397
10537.512962 89.538 27.7130
10613.872125 89.488 24.8136
10690.784618 89.355 21.8424
10768.254450 89.140 18.8931
10846.285661 88.846 16.0523
10924.882318 88.478 13.3975
11004.048518 88.044 10.9922
11083.788390 87.552 8.8826
11164.106090 87.011 7.0990
11245.005805 86.428 5.6634
11326.491752 85.811 4.5953
11408.568180 85.168 3.9104
11491.239368 84.506 3.6156
11574.509626 83.833 3.7056
11658.383294 83.158 4.1668
11742.864745 82.486 4.9823
11827.958384 81.824 6.1322
11913.668646 81.177 7.5901
12000.000000 80.551 9.3235
12086.956947 79.948 11.3007
12174.544019 79.372 13.4954
12262.765784 78.825 15.8833
12351.626840 78.309 18.4361
12441.131819 77.827 21.1224
12531.285389 77.378 23.9139
12622.092249 76.965 26.7881
12713.557132 76.587 29.7226
12805.684808 76.248 32.6903
12898.480079 75.946 35.6634
12991.947783 75.683 38.6195
13086.092792 75.458 41.5402
13180.920015 75.271 44.4047
13276.434395 75.121 47.1920
13372.640911 75.007 49.8909
13469.544580 74.930 52.5063
13567.150452 74.892 55.0511
13665.463617 74.902 57.5277
13764.489200 74.970 59.9010
13864.232362 75.104 62.0747
13964.698305 75.307 63.9081
14065.892266 75.571 65.2768
14167.819519 75.885 66.1104
14270.485380 76.236 66.3811
14373.895200 76.615 66.0746
14478.054370 77.012 65.1744
14582.968320 77.415 63.6649
14688.642520 77.807 61.5436
14795.082478 78.172 58.8314
14902.293745 78.491 55.5861
15010.281908 78.749 51.9133
15119.052599 78.941 47.9623
15228.611486 79.071 43.8974
15338.964283 79.157 39.8545
15450.116741 79.225 35.9105
15562.074656 79.297 32.0907
15674.843864 79.396 28.4013
15788.430244 79.547 24.8476
15902.839718 79.782 21.4125
16018.078250 80.137 17.9960
16134.151848 80.626 14.3490
16251.066563 81.220 10.0717
16368.828491 81.837 4.7454
16487.443769 82.368 -1.8378
16606.918584 82.722 -9.5296
16727.259161 82.850 -17.9147
16848.471777 82.743 -26.5172
16970.562748 82.416 -34.9285
17093.538442 81.897 -42.8392
17217.405268 81.219 -50.0286
17342.169684 80.417 -56.3509
17467.838194 79.524 -61.7245
17594.417350 78.574 -66.1216
17721.913751 77.598 -69.5565
17850.334044 76.622 -72.0774
17979.684923 75.668 -73.7519
18109.973131 74.750 -74.6503
18241.205462 73.880 -74.8319
18373.388756 73.069 -74.3374
18506.529905 72.327 -73.1949
18640.635849 71.674 -71.4602
18775.713581 71.133 -69.2926
18911.770141 70.724 -67.0165
19048.812624 70.443 -65.0770
19186.848172 70.251 -63.8478
19325.883983 70.091 -63.4367
19465.927305 69.918 -63.6792
19606.985439 69.719 -64.2840
19749.065738 69.516 -64.9689
19892.175609 69.347 -65.5249
20036.322514 69.252 -65.8284
