* Measurement data measured by REW V5.31
* Source: EXCL: Microphone (USB Sound Device        ), MICROPHONE (Master Volume), L, volume: 0.390
* Format: 256k Log Swept Sine, 1 sweep at -5.0 dBFS with no timing reference
* Dated: Sep 2, 2024 3:31:50 PM
* REW Settings:
*  C-weighting compensation: Off
*  Target level: 75.0 dB
* Note: 
* Measurement: R LetShuoer S12 2024
* Smoothing: 1/12 octave
* Frequency Step: 96 ppo
* Start Frequency: 0.36621094 Hz
*
* Freq(Hz)	SPL(dB)	Phase(degrees)
0.366211	85.752	-64.2664
0.368865	85.758	-64.3299
0.371538	85.766	-64.4250
0.374230	85.778	-64.5442
0.376942	85.790	-64.6812
0.379673	85.803	-64.8313
0.382424	85.817	-64.9915
0.385196	85.831	-65.1598
0.387987	85.846	-65.3352
0.390798	85.861	-65.5171
0.393630	85.876	-65.7052
0.396483	85.890	-65.8993
0.399356	85.906	-66.0993
0.402250	85.921	-66.3052
0.405165	85.936	-66.5171
0.408101	85.952	-66.7348
0.411058	85.967	-66.9585
0.414037	85.983	-67.1881
0.417037	85.998	-67.4236
0.420059	86.014	-67.6651
0.423103	86.030	-67.9124
0.426169	86.046	-68.1657
0.429257	86.063	-68.4250
0.432368	86.079	-68.6901
0.435501	86.095	-68.9611
0.438656	86.112	-69.2380
0.441835	86.129	-69.5208
0.445037	86.146	-69.8093
0.448262	86.163	-70.1037
0.451510	86.180	-70.4038
0.454782	86.197	-70.7096
0.458077	86.214	-71.0211
0.461397	86.232	-71.3382
0.464740	86.249	-71.6608
0.468108	86.267	-71.9890
0.471500	86.285	-72.3226
0.474917	86.303	-72.6616
0.478358	86.321	-73.0059
0.481825	86.339	-73.3555
0.485316	86.357	-73.7102
0.488833	86.376	-74.0699
0.492375	86.394	-74.4346
0.495943	86.413	-74.8042
0.499537	86.432	-75.1785
0.503157	86.451	-75.5575
0.506803	86.470	-75.9411
0.510475	86.489	-76.3291
0.514175	86.509	-76.7215
0.517900	86.528	-77.1180
0.521653	86.548	-77.5186
0.525434	86.568	-77.9232
0.529241	86.588	-78.3315
0.533076	86.608	-78.7435
0.536939	86.629	-79.1590
0.540830	86.649	-79.5779
0.544749	86.670	-80.0000
0.548696	86.690	-80.4252
0.552673	86.711	-80.8533
0.556677	86.732	-81.2841
0.560711	86.753	-81.7176
0.564774	86.775	-82.1534
0.568867	86.796	-82.5915
0.572989	86.818	-83.0317
0.577141	86.840	-83.4737
0.581324	86.862	-83.9176
0.585536	86.884	-84.3629
0.589779	86.906	-84.8097
0.594053	86.929	-85.2577
0.598358	86.951	-85.7067
0.602694	86.974	-86.1566
0.607061	86.997	-86.6072
0.611460	87.020	-87.0583
0.615891	87.043	-87.5097
0.620354	87.067	-87.9613
0.624849	87.091	-88.4129
0.629377	87.114	-88.8643
0.633938	87.138	-89.3154
0.638532	87.162	-89.7659
0.643159	87.187	-90.2158
0.647819	87.211	-90.6648
0.652514	87.236	-91.1128
0.657242	87.261	-91.5596
0.662005	87.286	-92.0052
0.666802	87.311	-92.4492
0.671634	87.336	-92.8916
0.676501	87.362	-93.3323
0.681403	87.388	-93.7711
0.686341	87.414	-94.2078
0.691314	87.440	-94.6424
0.696324	87.466	-95.0748
0.701370	87.492	-95.5049
0.706452	87.518	-95.9328
0.711571	87.544	-96.3585
0.716728	87.570	-96.7824
0.721921	87.594	-97.2051
0.727153	87.618	-97.6275
0.732422	87.639	-98.0508
0.737729	87.659	-98.4765
0.743075	87.676	-98.9062
0.748460	87.693	-99.3409
0.753883	87.708	-99.7817
0.759346	87.722	-100.2290
0.764849	87.736	-100.6831
0.770391	87.749	-101.1441
0.775974	87.762	-101.6119
0.781597	87.775	-102.0865
0.787261	87.788	-102.5677
0.792966	87.800	-103.0554
0.798712	87.812	-103.5494
0.804500	87.824	-104.0495
0.810329	87.835	-104.5555
0.816201	87.846	-105.0672
0.822116	87.857	-105.5842
0.828073	87.867	-106.1065
0.834074	87.877	-106.6337
0.840118	87.887	-107.1656
0.846206	87.896	-107.7019
0.852338	87.905	-108.2423
0.858514	87.913	-108.7866
0.864735	87.921	-109.3344
0.871001	87.928	-109.8854
0.877313	87.935	-110.4394
0.883670	87.941	-110.9959
0.890074	87.946	-111.5547
0.896524	87.951	-112.1154
0.903020	87.956	-112.6776
0.909564	87.959	-113.2411
0.916155	87.962	-113.8053
0.922794	87.964	-114.3701
0.929481	87.966	-114.9349
0.936216	87.966	-115.4993
0.943000	87.966	-116.0631
0.949834	87.965	-116.6258
0.956717	87.963	-117.1870
0.963649	87.960	-117.7462
0.970632	87.956	-118.3031
0.977666	87.951	-118.8571
0.984750	87.945	-119.4080
0.991886	87.938	-119.9553
0.999074	87.929	-120.4984
1.006314	87.920	-121.0370
1.013606	87.909	-121.5706
1.020951	87.897	-122.0987
1.028349	87.884	-122.6210
1.035801	87.869	-123.1368
1.043307	87.853	-123.6458
1.050867	87.835	-124.1477
1.058482	87.816	-124.6420
1.066152	87.795	-125.1286
1.073878	87.773	-125.6076
1.081660	87.749	-126.0795
1.089498	87.725	-126.5452
1.097393	87.698	-127.0064
1.105345	87.671	-127.4652
1.113355	87.644	-127.9239
1.121423	87.615	-128.3846
1.129549	87.587	-128.8489
1.137734	87.558	-129.3181
1.145979	87.528	-129.7929
1.154283	87.498	-130.2738
1.162647	87.467	-130.7611
1.171072	87.435	-131.2552
1.179558	87.403	-131.7560
1.188106	87.369	-132.2637
1.196715	87.335	-132.7784
1.205387	87.298	-133.2999
1.214122	87.261	-133.8282
1.222920	87.221	-134.3632
1.231782	87.180	-134.9047
1.240708	87.136	-135.4526
1.249699	87.090	-136.0065
1.258754	87.042	-136.5662
1.267876	86.991	-137.1311
1.277063	86.936	-137.7009
1.286318	86.879	-138.2749
1.295639	86.818	-138.8524
1.305027	86.754	-139.4328
1.314484	86.685	-140.0150
1.324009	86.612	-140.5980
1.333604	86.535	-141.1807
1.343268	86.453	-141.7617
1.353002	86.366	-142.3397
1.362806	86.273	-142.9128
1.372681	86.175	-143.4793
1.382628	86.071	-144.0372
1.392647	85.960	-144.5842
1.402739	85.842	-145.1180
1.412904	85.717	-145.6362
1.423142	85.585	-146.1364
1.433455	85.443	-146.6165
1.443843	85.292	-147.0748
1.454305	85.130	-147.5106
1.464844	84.956	-147.9242
1.475459	84.767	-148.3171
1.486150	84.562	-148.6911
1.496920	84.340	-149.0479
1.507767	84.101	-149.3889
1.518693	83.843	-149.7144
1.529698	83.568	-150.0243
1.540783	83.277	-150.3181
1.551948	82.970	-150.5946
1.563194	82.650	-150.8523
1.574521	82.316	-151.0894
1.585931	81.971	-151.3038
1.597423	81.616	-151.4929
1.608999	81.253	-151.6535
1.620658	80.884	-151.7822
1.632402	80.510	-151.8748
1.644232	80.135	-151.9264
1.656146	79.759	-151.9315
1.668147	79.385	-151.8834
1.680235	79.016	-151.7745
1.692411	78.654	-151.5958
1.704675	78.301	-151.3369
1.717028	77.962	-150.9856
1.729470	77.638	-150.5274
1.742003	77.333	-149.9458
1.754626	77.050	-149.2210
1.767341	76.792	-148.3303
1.780147	76.564	-147.2467
1.793047	76.368	-145.9388
1.806040	76.208	-144.3692
1.819128	76.084	-142.4939
1.832310	76.000	-140.2608
1.845587	75.955	-137.6098
1.858961	75.948	-134.4752
1.872432	75.979	-130.7914
1.886001	76.045	-126.5028
1.899667	76.146	-121.5783
1.913433	76.278	-116.0303
1.927299	76.440	-109.9352
1.941265	76.630	-103.4443
1.955332	76.846	-96.7752
1.969501	77.085	-90.1788
1.983773	77.346	-83.8919
1.998148	77.626	-78.0963
2.012627	77.921	-72.9002
2.027212	78.231	-68.3422
2.041902	78.552	-64.4094
2.056698	78.881	-61.0581
2.071602	79.217	-58.2300
2.086614	79.556	-55.8635
2.101734	79.895	-53.8998
2.116964	80.233	-52.2860
2.132304	80.567	-50.9756
2.147756	80.897	-49.9285
2.163320	81.221	-49.1101
2.178996	81.541	-48.4899
2.194786	81.858	-48.0411
2.210690	82.175	-47.7394
2.226710	82.495	-47.5636
2.242845	82.820	-47.4952
2.259098	83.152	-47.5186
2.275468	83.490	-47.6208
2.291957	83.835	-47.7907
2.308566	84.186	-48.0191
2.325295	84.541	-48.2980
2.342145	84.899	-48.6207
2.359117	85.259	-48.9817
2.376212	85.619	-49.3760
2.393431	85.978	-49.7999
2.410775	86.334	-50.2499
2.428244	86.685	-50.7236
2.445840	87.030	-51.2188
2.463564	87.366	-51.7343
2.481416	87.694	-52.2693
2.499397	88.010	-52.8237
2.517509	88.313	-53.3983
2.535752	88.604	-53.9946
2.554127	88.881	-54.6150
2.572635	89.144	-55.2619
2.591277	89.394	-55.9374
2.610055	89.632	-56.6420
2.628968	89.857	-57.3745
2.648019	90.072	-58.1323
2.667208	90.276	-58.9119
2.686535	90.471	-59.7093
2.706003	90.657	-60.5204
2.725612	90.835	-61.3410
2.745363	91.005	-62.1674
2.765257	91.168	-62.9961
2.785295	91.326	-63.8241
2.805478	91.479	-64.6485
2.825808	91.627	-65.4675
2.846285	91.772	-66.2797
2.866910	91.914	-67.0848
2.887685	92.053	-67.8838
2.908611	92.189	-68.6791
2.929688	92.322	-69.4746
2.950917	92.452	-70.2750
2.972301	92.577	-71.0847
2.993839	92.697	-71.9063
3.015534	92.812	-72.7404
3.037386	92.922	-73.5862
3.059396	93.026	-74.4413
3.081565	93.125	-75.3028
3.103896	93.219	-76.1672
3.126388	93.309	-77.0309
3.149043	93.394	-77.8901
3.171862	93.476	-78.7414
3.194847	93.553	-79.5816
3.217998	93.628	-80.4083
3.241317	93.699	-81.2201
3.264805	93.766	-82.0173
3.288463	93.831	-82.8017
3.312293	93.892	-83.5767
3.336295	93.948	-84.3463
3.360471	94.001	-85.1139
3.384822	94.049	-85.8812
3.409350	94.092	-86.6482
3.434056	94.131	-87.4140
3.458940	94.167	-88.1761
3.484005	94.198	-88.9317
3.509252	94.226	-89.6774
3.534681	94.251	-90.4094
3.560295	94.273	-91.1242
3.586094	94.292	-91.8184
3.612081	94.308	-92.4892
3.638255	94.321	-93.1353
3.664620	94.330	-93.7565
3.691175	94.336	-94.3539
3.717923	94.339	-94.9296
3.744864	94.340	-95.4854
3.772001	94.339	-96.0227
3.799335	94.336	-96.5423
3.826866	94.333	-97.0443
3.854597	94.329	-97.5284
3.882529	94.326	-97.9935
3.910664	94.322	-98.4386
3.939002	94.319	-98.8620
3.967546	94.316	-99.2619
3.996296	94.314	-99.6364
4.025255	94.313	-99.9835
4.054423	94.312	-100.3018
4.083804	94.311	-100.5909
4.113396	94.311	-100.8511
4.143204	94.311	-101.0841
4.173227	94.312	-101.2924
4.203468	94.312	-101.4789
4.233928	94.314	-101.6470
4.264609	94.315	-101.7998
4.295512	94.318	-101.9402
4.326639	94.323	-102.0704
4.357992	94.331	-102.1915
4.389572	94.342	-102.3032
4.421380	94.359	-102.4046
4.453419	94.380	-102.4947
4.485691	94.406	-102.5739
4.518196	94.437	-102.6441
4.550936	94.472	-102.7090
4.583914	94.510	-102.7732
4.617131	94.553	-102.8420
4.650589	94.598	-102.9205
4.684289	94.646	-103.0134
4.718233	94.697	-103.1241
4.752424	94.752	-103.2547
4.786862	94.809	-103.4053
4.821549	94.870	-103.5754
4.856488	94.933	-103.7642
4.891680	95.000	-103.9716
4.927127	95.068	-104.1982
4.962831	95.138	-104.4454
4.998794	95.209	-104.7147
5.035017	95.279	-105.0082
5.071503	95.350	-105.3276
5.108253	95.419	-105.6746
5.145270	95.488	-106.0499
5.182555	95.555	-106.4536
5.220110	95.622	-106.8844
5.257937	95.688	-107.3404
5.296038	95.752	-107.8189
5.334415	95.814	-108.3171
5.373071	95.874	-108.8326
5.412006	95.931	-109.3635
5.451224	95.985	-109.9088
5.490725	96.035	-110.4684
5.530514	96.082	-111.0428
5.570590	96.126	-111.6320
5.610957	96.165	-112.2347
5.651616	96.202	-112.8483
5.692570	96.234	-113.4691
5.733821	96.264	-114.0929
5.775370	96.289	-114.7158
5.817221	96.312	-115.3350
5.859375	96.330	-115.9487
5.901834	96.345	-116.5567
5.944602	96.356	-117.1589
5.987679	96.364	-117.7548
6.031068	96.369	-118.3427
6.074771	96.371	-118.9201
6.118792	96.370	-119.4841
6.163131	96.368	-120.0315
6.207792	96.365	-120.5600
6.252776	96.359	-121.0680
6.298086	96.353	-121.5553
6.343725	96.345	-122.0222
6.389694	96.336	-122.4694
6.435996	96.328	-122.8976
6.482634	96.320	-123.3072
6.529610	96.313	-123.6984
6.576926	96.308	-124.0708
6.624585	96.304	-124.4245
6.672590	96.303	-124.7599
6.720942	96.303	-125.0786
6.769645	96.307	-125.3835
6.818700	96.312	-125.6780
6.868111	96.321	-125.9657
6.917881	96.333	-126.2497
6.968010	96.348	-126.5321
7.018504	96.367	-126.8144
7.069362	96.389	-127.0980
7.120590	96.414	-127.3852
7.172189	96.442	-127.6788
7.224161	96.473	-127.9821
7.276511	96.506	-128.2982
7.329239	96.540	-128.6291
7.382350	96.576	-128.9762
7.435845	96.614	-129.3395
7.489729	96.653	-129.7191
7.544002	96.692	-130.1148
7.598669	96.731	-130.5264
7.653732	96.770	-130.9540
7.709194	96.807	-131.3974
7.765058	96.844	-131.8561
7.821327	96.879	-132.3286
7.878004	96.912	-132.8125
7.935091	96.943	-133.3052
7.992592	96.973	-133.8040
8.050510	96.999	-134.3066
8.108847	97.024	-134.8114
8.167607	97.046	-135.3167
8.226793	97.065	-135.8203
8.286408	97.082	-136.3195
8.346454	97.098	-136.8115
8.406936	97.111	-137.2937
8.467856	97.123	-137.7644
8.529218	97.133	-138.2224
8.591024	97.141	-138.6670
8.653278	97.149	-139.0974
8.715983	97.157	-139.5128
8.779143	97.165	-139.9128
8.842760	97.172	-140.2970
8.906839	97.181	-140.6660
8.971381	97.190	-141.0209
9.036392	97.200	-141.3633
9.101873	97.212	-141.6949
9.167829	97.225	-142.0173
9.234263	97.240	-142.3319
9.301178	97.256	-142.6404
9.368578	97.274	-142.9448
9.436467	97.293	-143.2474
9.504847	97.314	-143.5502
9.573723	97.335	-143.8547
9.643099	97.357	-144.1620
9.712976	97.379	-144.4729
9.783361	97.400	-144.7881
9.854255	97.419	-145.1080
9.925663	97.435	-145.4329
9.997588	97.449	-145.7625
10.070035	97.460	-146.0961
10.143007	97.468	-146.4325
10.216507	97.473	-146.7708
10.290540	97.476	-147.1096
10.365109	97.476	-147.4478
10.440219	97.474	-147.7842
10.515873	97.470	-148.1174
10.592076	97.465	-148.4460
10.668830	97.458	-148.7690
10.746141	97.450	-149.0856
10.824012	97.441	-149.3954
10.902447	97.431	-149.6981
10.981451	97.421	-149.9936
11.061027	97.411	-150.2822
11.141180	97.400	-150.5641
11.221913	97.389	-150.8404
11.303232	97.379	-151.1119
11.385140	97.368	-151.3795
11.467641	97.357	-151.6443
11.550741	97.347	-151.9071
11.634442	97.337	-152.1688
11.718750	97.327	-152.4304
11.803669	97.317	-152.6924
11.889203	97.307	-152.9550
11.975357	97.298	-153.2186
12.062136	97.288	-153.4828
12.149543	97.277	-153.7477
12.237583	97.266	-154.0128
12.326262	97.255	-154.2775
12.415583	97.243	-154.5414
12.505552	97.230	-154.8038
12.596172	97.217	-155.0646
12.687449	97.203	-155.3233
12.779387	97.188	-155.5799
12.871992	97.173	-155.8346
12.965268	97.158	-156.0876
13.059220	97.144	-156.3395
13.153852	97.129	-156.5912
13.249170	97.115	-156.8436
13.345179	97.101	-157.0974
13.441884	97.087	-157.3538
13.539289	97.074	-157.6134
13.637401	97.061	-157.8771
13.736223	97.048	-158.1452
13.835761	97.035	-158.4178
13.936021	97.022	-158.6949
14.037007	97.007	-158.9760
14.138725	96.992	-159.2605
14.241180	96.977	-159.5473
14.344377	96.960	-159.8356
14.448323	96.943	-160.1241
14.553021	96.925	-160.4121
14.658478	96.907	-160.6986
14.764700	96.888	-160.9830
14.871691	96.870	-161.2650
14.979457	96.851	-161.5447
15.088005	96.834	-161.8226
15.197339	96.817	-162.0992
15.307465	96.801	-162.3755
15.418389	96.786	-162.6527
15.530117	96.771	-162.9318
15.642655	96.758	-163.2139
15.756008	96.745	-163.4997
15.870182	96.732	-163.7898
15.985184	96.720	-164.0842
16.101019	96.707	-164.3828
16.217694	96.695	-164.6849
16.335214	96.682	-164.9895
16.453586	96.669	-165.2954
16.572815	96.656	-165.6013
16.692909	96.643	-165.9059
16.813872	96.630	-166.2080
16.935713	96.617	-166.5066
17.058436	96.605	-166.8009
17.182048	96.593	-167.0908
17.306556	96.582	-167.3762
17.431967	96.571	-167.6573
17.558286	96.561	-167.9347
17.685521	96.551	-168.2090
17.813677	96.542	-168.4808
17.942762	96.534	-168.7507
18.072783	96.526	-169.0192
18.203746	96.518	-169.2864
18.335658	96.510	-169.5524
18.468526	96.502	-169.8169
18.602356	96.495	-170.0798
18.737156	96.487	-170.3407
18.872934	96.480	-170.5993
19.009695	96.473	-170.8554
19.147447	96.466	-171.1090
19.286197	96.458	-171.3600
19.425953	96.451	-171.6086
19.566721	96.443	-171.8550
19.708510	96.436	-172.0993
19.851326	96.428	-172.3416
19.995177	96.419	-172.5818
20.140070	96.410	-172.8199
20.286013	96.400	-173.0555
20.433014	96.390	-173.2886
20.581080	96.379	-173.5188
20.730219	96.368	-173.7463
20.880439	96.356	-173.9711
21.031747	96.345	-174.1938
21.184152	96.333	-174.4151
21.337661	96.322	-174.6359
21.492282	96.311	-174.8571
21.648024	96.299	-175.0796
21.804895	96.288	-175.3042
21.962902	96.277	-175.5313
22.122054	96.265	-175.7611
22.282360	96.252	-175.9932
22.443827	96.239	-176.2272
22.606464	96.226	-176.4625
22.770280	96.212	-176.6987
22.935283	96.197	-176.9352
23.101481	96.182	-177.1720
23.268884	96.168	-177.4094
23.437500	96.153	-177.6477
23.607338	96.138	-177.8875
23.778406	96.123	-178.1295
23.950714	96.108	-178.3740
24.124271	96.093	-178.6212
24.299086	96.078	-178.8706
24.475167	96.062	-179.1218
24.652524	96.047	-179.3739
24.831166	96.031	-179.6261
25.011103	96.015	-179.8775
25.192344	96.000	179.8725
25.374898	95.984	179.6241
25.558775	95.969	179.3773
25.743984	95.955	179.1320
25.930536	95.940	178.8876
26.118439	95.926	178.6442
26.307704	95.913	178.4015
26.498341	95.899	178.1597
26.690359	95.885	177.9193
26.883768	95.872	177.6807
27.078579	95.858	177.4446
27.274801	95.845	177.2115
27.472446	95.831	176.9818
27.671522	95.817	176.7556
27.872042	95.803	176.5330
28.074014	95.788	176.3140
28.277450	95.774	176.0981
28.482360	95.760	175.8852
28.688755	95.745	175.6746
28.896645	95.731	175.4657
29.106042	95.716	175.2577
29.316957	95.701	175.0498
29.529400	95.686	174.8415
29.743382	95.671	174.6321
29.958915	95.655	174.4218
30.176009	95.639	174.2104
30.394677	95.622	173.9988
30.614929	95.605	173.7875
30.836778	95.587	173.5769
31.060234	95.569	173.3674
31.285309	95.550	173.1587
31.512015	95.532	172.9503
31.740364	95.513	172.7414
31.970368	95.494	172.5310
32.202039	95.476	172.3186
32.435388	95.457	172.1037
32.670428	95.439	171.8865
32.907171	95.420	171.6673
33.145630	95.401	171.4467
33.385817	95.382	171.2249
33.627745	95.363	171.0024
33.871425	95.344	170.7792
34.116871	95.326	170.5551
34.364096	95.307	170.3301
34.613113	95.289	170.1046
34.863934	95.270	169.8791
35.116572	95.251	169.6544
35.371041	95.231	169.4316
35.627354	95.212	169.2116
35.885525	95.192	168.9952
36.145566	95.172	168.7830
36.407492	95.153	168.5749
36.671316	95.133	168.3705
36.937051	95.113	168.1692
37.204712	95.094	167.9699
37.474313	95.075	167.7716
37.745867	95.055	167.5735
38.019389	95.036	167.3751
38.294893	95.016	167.1763
38.572394	94.996	166.9776
38.851905	94.975	166.7797
39.133442	94.953	166.5831
39.417019	94.931	166.3883
39.702651	94.909	166.1954
39.990353	94.886	166.0042
40.280140	94.863	165.8140
40.572026	94.840	165.6244
40.866028	94.817	165.4346
41.162160	94.794	165.2445
41.460438	94.771	165.0538
41.760877	94.747	164.8626
42.063494	94.724	164.6712
42.368303	94.699	164.4799
42.675322	94.675	164.2892
42.984565	94.651	164.0994
43.296048	94.626	163.9109
43.609789	94.601	163.7237
43.925804	94.576	163.5379
44.244108	94.551	163.3535
44.564719	94.525	163.1704
44.887654	94.500	162.9888
45.212928	94.474	162.8087
45.540560	94.448	162.6303
45.870565	94.422	162.4541
46.202962	94.396	162.2803
46.537768	94.369	162.1090
46.875000	94.343	161.9401
47.214676	94.317	161.7726
47.556813	94.290	161.6058
47.901429	94.264	161.4384
48.248542	94.238	161.2699
48.598171	94.212	161.1003
48.950334	94.185	160.9301
49.305048	94.158	160.7603
49.662333	94.130	160.5920
50.022206	94.101	160.4263
50.384688	94.072	160.2635
50.749796	94.043	160.1040
51.117550	94.014	159.9478
51.487969	93.985	159.7944
51.861072	93.955	159.6437
52.236879	93.926	159.4955
52.615409	93.897	159.3500
52.996681	93.868	159.2076
53.380717	93.840	159.0681
53.767536	93.812	158.9308
54.157158	93.784	158.7937
54.549603	93.757	158.6548
54.944892	93.731	158.5126
55.343045	93.704	158.3671
55.744084	93.677	158.2194
56.148028	93.650	158.0712
56.554900	93.623	157.9236
56.964720	93.595	157.7765
57.377510	93.567	157.6282
57.793291	93.540	157.4771
58.212085	93.512	157.3219
58.633914	93.483	157.1627
59.058799	93.453	157.0008
59.486764	93.421	156.8386
59.917829	93.388	156.6783
60.352019	93.354	156.5218
60.789354	93.319	156.3696
61.229859	93.283	156.2215
61.673556	93.246	156.0770
62.120468	93.208	155.9359
62.570618	93.169	155.7985
63.024031	93.129	155.6651
63.480729	93.088	155.5362
63.940736	93.046	155.4118
64.404077	93.004	155.2922
64.870776	92.960	155.1778
65.340856	92.915	155.0692
65.814343	92.868	154.9672
66.291261	92.821	154.8725
66.771635	92.772	154.7863
67.255489	92.721	154.7105
67.742850	92.669	154.6477
68.233743	92.615	154.6006
68.728193	92.560	154.5723
69.226226	92.503	154.5663
69.727867	92.445	154.5867
70.233144	92.386	154.6391
70.742083	92.327	154.7296
71.254709	92.269	154.8646
71.771050	92.212	155.0498
72.291132	92.159	155.2892
72.814984	92.113	155.5836
73.342631	92.074	155.9298
73.874102	92.047	156.3187
74.409424	92.033	156.7339
74.948626	92.034	157.1511
75.491734	92.050	157.5402
76.038779	92.080	157.8700
76.589787	92.122	158.1140
77.144788	92.170	158.2554
77.703811	92.220	158.2888
78.266885	92.269	158.2184
78.834039	92.313	158.0555
79.405303	92.350	157.8163
79.980706	92.378	157.5184
80.560280	92.396	157.1787
81.144053	92.406	156.8114
81.732056	92.407	156.4283
82.324320	92.399	156.0403
82.920876	92.385	155.6565
83.521755	92.363	155.2834
84.126988	92.336	154.9261
84.736607	92.304	154.5886
85.350643	92.267	154.2747
85.969129	92.227	153.9882
86.592097	92.184	153.7310
87.219579	92.140	153.5032
87.851608	92.095	153.3016
88.488217	92.050	153.1207
89.129439	92.006	152.9555
89.775308	91.962	152.8025
90.425856	91.919	152.6604
91.081119	91.876	152.5291
91.741131	91.833	152.4080
92.405925	91.791	152.2960
93.075536	91.749	152.1923
93.750000	91.707	152.0974
94.429351	91.664	152.0118
95.113625	91.622	151.9339
95.802858	91.579	151.8602
96.497085	91.535	151.7886
97.196342	91.491	151.7187
97.900667	91.447	151.6509
98.610096	91.403	151.5860
99.324665	91.358	151.5251
100.044413	91.314	151.4701
100.769376	91.271	151.4232
101.499592	91.228	151.3864
102.235100	91.185	151.3611
102.975938	91.143	151.3476
103.722144	91.101	151.3452
104.473757	91.058	151.3526
105.230817	91.013	151.3673
105.993363	90.968	151.3861
106.761435	90.922	151.4055
107.535072	90.874	151.4233
108.314315	90.826	151.4396
109.099206	90.777	151.4578
109.889783	90.730	151.4841
110.686090	90.684	151.5248
111.488167	90.641	151.5817
112.296056	90.601	151.6526
113.109800	90.563	151.7355
113.929440	90.524	151.8333
114.755020	90.483	151.9518
115.586582	90.441	152.0941
116.424170	90.398	152.2578
117.267827	90.356	152.4361
118.117598	90.317	152.6194
118.973527	90.285	152.7943
119.835658	90.261	152.9426
120.704037	90.246	153.0436
121.578708	90.238	153.0865
122.459718	90.234	153.0784
123.347111	90.230	153.0374
124.240935	90.224	152.9800
125.141236	90.216	152.9167
126.048061	90.202	152.8538
126.961458	90.183	152.7949
127.881473	90.158	152.7405
128.808154	90.129	152.6898
129.741551	90.096	152.6420
130.681712	90.061	152.5968
131.628686	90.025	152.5533
132.582521	89.988	152.5107
133.543269	89.951	152.4702
134.510979	89.913	152.4353
135.485701	89.873	152.4103
136.467486	89.831	152.3977
137.456386	89.787	152.3976
138.452451	89.742	152.4092
139.455735	89.696	152.4315
140.466288	89.650	152.4642
141.484165	89.604	152.5076
142.509418	89.559	152.5624
143.542100	89.515	152.6301
144.582265	89.471	152.7132
145.629968	89.427	152.8137
146.685262	89.384	152.9314
147.748204	89.341	153.0645
148.818849	89.298	153.2107
149.897251	89.257	153.3682
150.983469	89.216	153.5367
152.077557	89.178	153.7165
153.179574	89.143	153.9072
154.289576	89.112	154.1047
155.407622	89.086	154.3003
156.533770	89.066	154.4823
157.668078	89.049	154.6409
158.810606	89.034	154.7698
159.961413	89.020	154.8671
161.120559	89.005	154.9344
162.288105	88.987	154.9765
163.464112	88.966	155.0002
164.648640	88.941	155.0133
165.841752	88.912	155.0237
167.043510	88.881	155.0384
168.253976	88.846	155.0628
169.473213	88.810	155.0997
170.701286	88.773	155.1498
171.938258	88.736	155.2120
173.184194	88.699	155.2838
174.439158	88.664	155.3622
175.703216	88.629	155.4449
176.976434	88.595	155.5299
178.258878	88.561	155.6157
179.550615	88.528	155.7017
180.851713	88.494	155.7879
182.162239	88.460	155.8747
183.482262	88.427	155.9622
184.811850	88.393	156.0501
186.151073	88.358	156.1383
187.500000	88.324	156.2274
188.858702	88.289	156.3186
190.227250	88.255	156.4131
191.605715	88.220	156.5120
192.994169	88.185	156.6163
194.392685	88.151	156.7268
195.801334	88.116	156.8437
197.220191	88.081	156.9673
198.649330	88.047	157.0981
200.088825	88.013	157.2365
201.538751	87.979	157.3817
202.999184	87.947	157.5319
204.470200	87.916	157.6834
205.951875	87.887	157.8325
207.444287	87.858	157.9764
208.947514	87.828	158.1143
210.461634	87.798	158.2484
211.986726	87.766	158.3824
213.522869	87.732	158.5212
215.070144	87.696	158.6696
216.628631	87.660	158.8317
218.198411	87.624	159.0086
219.779567	87.588	159.1982
221.372180	87.555	159.3953
222.976334	87.523	159.5936
224.592112	87.492	159.7881
226.219600	87.462	159.9766
227.858880	87.432	160.1596
229.510039	87.402	160.3390
231.173164	87.372	160.5165
232.848340	87.342	160.6932
234.535655	87.313	160.8698
236.235197	87.284	161.0459
237.947054	87.255	161.2205
239.671317	87.226	161.3932
241.408074	87.195	161.5653
243.157416	87.164	161.7394
244.919435	87.131	161.9187
246.694223	87.098	162.1069
248.481871	87.064	162.3072
250.282473	87.030	162.5226
252.096123	86.998	162.7545
253.922915	86.967	163.0012
255.762945	86.940	163.2561
257.616309	86.915	163.5089
259.483103	86.892	163.7494
261.363424	86.871	163.9727
263.257372	86.850	164.1808
265.165043	86.827	164.3807
267.086538	86.803	164.5804
269.021957	86.777	164.7867
270.971401	86.751	165.0035
272.934972	86.726	165.2318
274.912771	86.702	165.4699
276.904902	86.679	165.7158
278.911469	86.658	165.9671
280.932577	86.639	166.2214
282.968330	86.622	166.4750
285.018835	86.607	166.7220
287.084199	86.594	166.9549
289.164530	86.582	167.1677
291.259935	86.569	167.3590
293.370525	86.553	167.5338
295.496408	86.535	167.7017
297.637697	86.514	167.8725
299.794503	86.492	168.0533
301.966937	86.468	168.2465
304.155114	86.444	168.4512
306.359147	86.420	168.6650
308.579152	86.396	168.8843
310.815244	86.373	169.1060
313.067539	86.349	169.3280
315.336156	86.325	169.5508
317.621211	86.301	169.7775
319.922826	86.276	170.0121
322.241118	86.250	170.2574
324.576210	86.226	170.5132
326.928223	86.203	170.7765
329.297280	86.181	171.0440
331.683504	86.160	171.3126
334.087019	86.141	171.5796
336.507952	86.122	171.8430
338.946427	86.103	172.1023
341.402572	86.084	172.3585
343.876516	86.064	172.6140
346.368387	86.044	172.8715
348.878315	86.024	173.1329
351.406431	86.003	173.3981
353.952867	85.983	173.6664
356.517756	85.963	173.9366
359.101230	85.943	174.2084
361.703426	85.924	174.4818
364.324478	85.905	174.7569
366.964523	85.887	175.0338
369.623699	85.868	175.3134
372.302145	85.850	175.5962
375.000000	85.832	175.8823
377.717405	85.815	176.1710
380.454501	85.798	176.4612
383.211431	85.782	176.7522
385.988339	85.766	177.0443
388.785369	85.750	177.3381
391.602668	85.734	177.6346
394.440383	85.719	177.9343
397.298660	85.704	178.2369
400.177650	85.689	178.5413
403.077502	85.675	178.8453
405.998368	85.662	179.1470
408.940400	85.649	179.4456
411.903750	85.635	179.7425
414.888575	85.621	-179.9586
417.895028	85.607	-179.6537
420.923268	85.592	-179.3398
423.973452	85.579	-179.0159
427.045738	85.567	-178.6834
430.140287	85.557	-178.3464
433.257261	85.549	-178.0097
436.396822	85.542	-177.6766
439.559133	85.537	-177.3480
442.744360	85.533	-177.0239
445.952668	85.530	-176.7062
449.184225	85.527	-176.3995
452.439199	85.526	-176.1099
455.717760	85.523	-175.8406
459.020079	85.518	-175.5878
462.346327	85.510	-175.3406
465.696680	85.500	-175.0865
469.071310	85.488	-174.8179
472.470394	85.475	-174.5330
475.894109	85.463	-174.2350
479.342634	85.452	-173.9296
482.816148	85.441	-173.6230
486.314833	85.430	-173.3171
489.838871	85.418	-173.0077
493.388445	85.405	-172.6872
496.963741	85.393	-172.3516
500.564945	85.381	-172.0042
504.192245	85.372	-171.6528
507.845830	85.364	-171.3046
511.525890	85.357	-170.9625
515.232618	85.350	-170.6246
518.966206	85.343	-170.2866
522.726849	85.335	-169.9434
526.514743	85.327	-169.5910
530.330086	85.320	-169.2284
534.173076	85.314	-168.8586
538.043915	85.309	-168.4868
541.942803	85.306	-168.1155
545.869944	85.303	-167.7441
549.825542	85.301	-167.3713
553.809805	85.299	-166.9983
557.822939	85.299	-166.6275
561.865154	85.299	-166.2605
565.936660	85.298	-165.8966
570.037671	85.297	-165.5326
574.168399	85.296	-165.1649
578.329060	85.294	-164.7920
582.519870	85.293	-164.4148
586.741049	85.291	-164.0340
590.992817	85.290	-163.6478
595.275394	85.289	-163.2535
599.589005	85.290	-162.8519
603.933874	85.291	-162.4468
608.310228	85.294	-162.0425
612.718295	85.297	-161.6402
617.158304	85.300	-161.2375
621.630488	85.303	-160.8284
626.135079	85.306	-160.4061
630.672311	85.310	-159.9683
635.242423	85.316	-159.5191
639.845651	85.324	-159.0651
644.482237	85.334	-158.6090
649.152421	85.346	-158.1503
653.856447	85.361	-157.6904
658.594560	85.380	-157.2354
663.367008	85.401	-156.7953
668.174039	85.424	-156.3781
673.015903	85.446	-155.9835
677.892854	85.466	-155.6040
682.805145	85.484	-155.2306
687.753032	85.500	-154.8563
692.736774	85.515	-154.4756
697.756631	85.528	-154.0838
702.812863	85.542	-153.6788
707.905735	85.556	-153.2627
713.035511	85.572	-152.8397
718.202461	85.588	-152.4141
723.406852	85.605	-151.9871
728.648956	85.623	-151.5582
733.929047	85.642	-151.1260
739.247399	85.662	-150.6895
744.604290	85.682	-150.2480
750.000000	85.703	-149.8014
755.434809	85.725	-149.3500
760.909001	85.747	-148.8947
766.422861	85.771	-148.4360
771.976677	85.796	-147.9748
777.570739	85.823	-147.5120
783.205337	85.851	-147.0482
788.880766	85.880	-146.5827
794.597321	85.911	-146.1130
800.355301	85.943	-145.6369
806.155005	85.978	-145.1556
811.996736	86.017	-144.6748
817.880799	86.060	-144.2034
823.807501	86.106	-143.7514
829.777150	86.155	-143.3269
835.790057	86.203	-142.9323
841.846536	86.250	-142.5608
847.946903	86.296	-142.2018
854.091476	86.339	-141.8470
860.280575	86.380	-141.4922
866.514523	86.420	-141.1341
872.793644	86.460	-140.7689
879.118267	86.500	-140.3968
885.488720	86.540	-140.0220
891.905336	86.582	-139.6482
898.368450	86.624	-139.2755
904.878398	86.666	-138.9012
911.435520	86.710	-138.5236
918.040157	86.755	-138.1443
924.692655	86.802	-137.7655
931.393359	86.850	-137.3902
938.142619	86.900	-137.0217
944.940787	86.950	-136.6617
951.788218	87.001	-136.3096
958.685268	87.053	-135.9633
965.632296	87.104	-135.6205
972.629666	87.156	-135.2787
979.677741	87.209	-134.9367
986.776890	87.263	-134.5947
993.927482	87.317	-134.2514
1001.129891	87.372	-133.9026
1008.384491	87.428	-133.5445
1015.691660	87.487	-133.1781
1023.051781	87.549	-132.8086
1030.465236	87.615	-132.4439
1037.932411	87.685	-132.0955
1045.453698	87.758	-131.7759
1053.029486	87.833	-131.4907
1060.660172	87.906	-131.2365
1068.346153	87.979	-131.0049
1076.087829	88.049	-130.7862
1083.885605	88.118	-130.5740
1091.739887	88.186	-130.3659
1099.651084	88.254	-130.1616
1107.619609	88.321	-129.9604
1115.645878	88.387	-129.7613
1123.730308	88.453	-129.5629
1131.873321	88.520	-129.3643
1140.075341	88.586	-129.1645
1148.336797	88.652	-128.9637
1156.658119	88.719	-128.7619
1165.039741	88.788	-128.5588
1173.482099	88.857	-128.3535
1181.985634	88.930	-128.1473
1190.550789	89.006	-127.9468
1199.178011	89.085	-127.7636
1207.867749	89.167	-127.6094
1216.620457	89.251	-127.4897
1225.436590	89.332	-127.4006
1234.316609	89.412	-127.3333
1243.260976	89.489	-127.2787
1252.270157	89.563	-127.2292
1261.344623	89.635	-127.1808
1270.484846	89.706	-127.1321
1279.691303	89.776	-127.0817
1288.964474	89.846	-127.0280
1298.304842	89.915	-126.9712
1307.712894	89.985	-126.9141
1317.189120	90.056	-126.8607
1326.734016	90.128	-126.8137
1336.348077	90.199	-126.7726
1346.031806	90.272	-126.7348
1355.785708	90.345	-126.6969
1365.610290	90.419	-126.6551
1375.506065	90.495	-126.6052
1385.473549	90.574	-126.5428
1395.513261	90.655	-126.4673
1405.625726	90.741	-126.3846
1415.811469	90.831	-126.3075
1426.071023	90.926	-126.2508
1436.404921	91.022	-126.2240
1446.813703	91.120	-126.2274
1457.297912	91.216	-126.2557
1467.858093	91.310	-126.3028
1478.494798	91.403	-126.3647
1489.208581	91.493	-126.4387
1500.000000	91.580	-126.5221
1510.869618	91.663	-126.6122
1521.818002	91.742	-126.7063
1532.845723	91.818	-126.8023
1543.953355	91.890	-126.8990
1555.141477	91.960	-126.9964
1566.410674	92.031	-127.0989
1577.761531	92.103	-127.2176
1589.194642	92.177	-127.3665
1600.710601	92.251	-127.5553
1612.310010	92.325	-127.7853
1623.993473	92.396	-128.0521
1635.761599	92.464	-128.3487
1647.615002	92.529	-128.6695
1659.554299	92.591	-129.0103
1671.580114	92.652	-129.3680
1683.693072	92.710	-129.7418
1695.893807	92.766	-130.1336
1708.182952	92.819	-130.5455
1720.561150	92.869	-130.9771
1733.029045	92.915	-131.4254
1745.587288	92.955	-131.8855
1758.236533	92.991	-132.3507
1770.977440	93.024	-132.8153
1783.810673	93.054	-133.2794
1796.736900	93.084	-133.7507
1809.756796	93.113	-134.2418
1822.871040	93.141	-134.7624
1836.080315	93.166	-135.3150
1849.385310	93.186	-135.8971
1862.786718	93.200	-136.5033
1876.285239	93.210	-137.1270
1889.881575	93.214	-137.7599
1903.576436	93.213	-138.3933
1917.370535	93.208	-139.0184
1931.264593	93.202	-139.6282
1945.259332	93.194	-140.2193
1959.355483	93.185	-140.7955
1973.553781	93.175	-141.3647
1987.854965	93.162	-141.9319
2002.259781	93.144	-142.4952
2016.768981	93.119	-143.0461
2031.383320	93.087	-143.5732
2046.103561	93.047	-144.0639
2060.930471	93.001	-144.5071
2075.864823	92.950	-144.8948
2090.907395	92.894	-145.2220
2106.058972	92.836	-145.4843
2121.320344	92.775	-145.6772
2136.692305	92.715	-145.7960
2152.175658	92.657	-145.8392
2167.771210	92.604	-145.8135
2183.479774	92.559	-145.7375
2199.302169	92.523	-145.6366
2215.239219	92.495	-145.5346
2231.291755	92.474	-145.4485
2247.460615	92.458	-145.3879
2263.746641	92.444	-145.3553
2280.150683	92.430	-145.3460
2296.673595	92.415	-145.3503
2313.316238	92.398	-145.3556
2330.079481	92.381	-145.3522
2346.964198	92.363	-145.3371
2363.971268	92.347	-145.3127
2381.101578	92.331	-145.2811
2398.356022	92.317	-145.2419
2415.735498	92.303	-145.1938
2433.240913	92.291	-145.1358
2450.873180	92.282	-145.0701
2468.633217	92.275	-145.0022
2486.521951	92.271	-144.9384
2504.540314	92.269	-144.8826
2522.689246	92.269	-144.8349
2540.969692	92.272	-144.7941
2559.382606	92.277	-144.7639
2577.928947	92.285	-144.7548
2596.609683	92.295	-144.7785
2615.425787	92.305	-144.8427
2634.378241	92.314	-144.9492
2653.468031	92.319	-145.0931
2672.696154	92.319	-145.2631
2692.063613	92.312	-145.4446
2711.571415	92.300	-145.6242
2731.220579	92.284	-145.7958
2751.012130	92.263	-145.9597
2770.947098	92.240	-146.1177
2791.026522	92.212	-146.2691
2811.251451	92.180	-146.4103
2831.622938	92.144	-146.5361
2852.142045	92.104	-146.6420
2872.809842	92.059	-146.7226
2893.627406	92.010	-146.7700
2914.595823	91.958	-146.7729
2935.716186	91.904	-146.7221
2956.989596	91.850	-146.6163
2978.417161	91.800	-146.4626
3000.000000	91.753	-146.2720
3021.739237	91.711	-146.0552
3043.636005	91.672	-145.8194
3065.691446	91.638	-145.5670
3087.906710	91.606	-145.2976
3110.282955	91.579	-145.0138
3132.821347	91.557	-144.7238
3155.523062	91.539	-144.4382
3178.389283	91.524	-144.1644
3201.421202	91.511	-143.9046
3224.620020	91.497	-143.6564
3247.986946	91.481	-143.4144
3271.523198	91.464	-143.1683
3295.230004	91.443	-142.9024
3319.108599	91.421	-142.6001
3343.160228	91.401	-142.2516
3367.386145	91.383	-141.8575
3391.787613	91.372	-141.4254
3416.365904	91.368	-140.9657
3441.122300	91.371	-140.4860
3466.058091	91.382	-139.9903
3491.174576	91.402	-139.4828
3516.473066	91.432	-138.9745
3541.954880	91.472	-138.4828
3567.621345	91.522	-138.0276
3593.473800	91.581	-137.6278
3619.513592	91.645	-137.2990
3645.742080	91.711	-137.0519
3672.160630	91.776	-136.8880
3698.770620	91.836	-136.7989
3725.573436	91.888	-136.7716
3752.570477	91.930	-136.7931
3779.763150	91.960	-136.8482
3807.152872	91.975	-136.9143
3834.741071	91.973	-136.9566
3862.529185	91.954	-136.9285
3890.518664	91.922	-136.7817
3918.710966	91.883	-136.4784
3947.107561	91.846	-136.0003
3975.709929	91.820	-135.3541
4004.519563	91.814	-134.5725
4033.537962	91.833	-133.7089
4062.766641	91.878	-132.8218
4092.207123	91.947	-131.9614
4121.860942	92.039	-131.1663
4151.729646	92.147	-130.4643
4181.814790	92.268	-129.8722
4212.117944	92.396	-129.3947
4242.640687	92.526	-129.0232
4273.384610	92.657	-128.7425
4304.351317	92.786	-128.5375
4335.542421	92.913	-128.3976
4366.959549	93.037	-128.3154
4398.604338	93.159	-128.2860
4430.478438	93.277	-128.3046
4462.583511	93.393	-128.3622
4494.921231	93.506	-128.4473
4527.493283	93.618	-128.5532
4560.301365	93.731	-128.6809
4593.347189	93.845	-128.8355
4626.632476	93.960	-129.0209
4660.158962	94.078	-129.2381
4693.928395	94.199	-129.4905
4727.942535	94.323	-129.7866
4762.203156	94.452	-130.1403
4796.712043	94.584	-130.5691
4831.470996	94.718	-131.0885
4866.481826	94.850	-131.7063
4901.746360	94.980	-132.4242
4937.266434	95.104	-133.2419
4973.043902	95.221	-134.1580
5009.080628	95.326	-135.1650
5045.378492	95.418	-136.2478
5081.939384	95.496	-137.3880
5118.765212	95.560	-138.5695
5155.857894	95.611	-139.7816
5193.219366	95.649	-141.0207
5230.851574	95.674	-142.2851
5268.756481	95.685	-143.5705
5306.936062	95.681	-144.8704
5345.392309	95.660	-146.1778
5384.127225	95.622	-147.4836
5423.142830	95.564	-148.7723
5462.441159	95.485	-150.0211
5502.024259	95.387	-151.2040
5541.894195	95.269	-152.2964
5582.053045	95.135	-153.2786
5622.502902	94.987	-154.1350
5663.245876	94.827	-154.8504
5704.284090	94.660	-155.4105
5745.619684	94.488	-155.8056
5787.254813	94.317	-156.0309
5829.191647	94.149	-156.0849
5871.432373	93.991	-155.9712
5913.979192	93.846	-155.7025
5956.834323	93.721	-155.3047
6000.000000	93.619	-154.8154
6043.478473	93.540	-154.2766
6087.272010	93.485	-153.7268
6131.382892	93.452	-153.1992
6175.813420	93.437	-152.7180
6220.565910	93.436	-152.2954
6265.642695	93.447	-151.9308
6311.046124	93.466	-151.6162
6356.778566	93.493	-151.3429
6402.842404	93.529	-151.1068
6449.240040	93.573	-150.9081
6495.973891	93.627	-150.7522
6543.046396	93.690	-150.6492
6590.460007	93.762	-150.6108
6638.217197	93.841	-150.6460
6686.320456	93.926	-150.7598
6734.772290	94.016	-150.9550
6783.575226	94.110	-151.2350
6832.731809	94.204	-151.6031
6882.244600	94.298	-152.0617
6932.116181	94.388	-152.6108
6982.349153	94.471	-153.2442
7032.946133	94.544	-153.9446
7083.909760	94.606	-154.6823
7135.242690	94.659	-155.4206
7186.947600	94.707	-156.1248
7239.027185	94.757	-156.7707
7291.484160	94.817	-157.3559
7344.321260	94.897	-157.9067
7397.541239	95.004	-158.4761
7451.146872	95.142	-159.1340
7505.140954	95.309	-159.9568
7559.526299	95.503	-161.0173
7614.305743	95.715	-162.3765
7669.482141	95.936	-164.0793
7725.058371	96.157	-166.1545
7781.037328	96.365	-168.6141
7837.421932	96.549	-171.4497
7894.215122	96.699	-174.6327
7951.419859	96.805	-178.1186
8009.039125	96.863	178.1480
8067.075924	96.867	174.2275
8125.533282	96.816	170.1777
8184.414245	96.710	166.0514
8243.721885	96.548	161.8978
8303.459292	96.330	157.7644
8363.629581	96.058	153.6962
8424.235888	95.733	149.7350
8485.281374	95.357	145.9160
8546.769221	94.933	142.2661
8608.702634	94.463	138.8062
8671.084842	93.949	135.5596
8733.919097	93.389	132.5580
8797.208675	92.784	129.8451
8860.956876	92.137	127.4747
8925.167022	91.451	125.5014
8989.842461	90.734	123.9693
9054.986566	89.998	122.9044
9120.602731	89.253	122.3117
9186.694378	88.513	122.1758
9253.264952	87.788	122.4677
9320.317925	87.089	123.1476
9387.856790	86.426	124.1675
9455.885071	85.806	125.4729
9524.406312	85.239	127.0004
9593.424086	84.731	128.6726
9662.941992	84.287	130.3900
9732.963653	83.910	132.0246
9803.492719	83.594	133.4333
9874.532869	83.322	134.4951
9946.087805	83.071	135.1562
10018.161257	82.811	135.4544
10090.756983	82.521	135.5032
10163.878768	82.189	135.4479
10237.530423	81.811	135.4241
10311.715789	81.390	135.5363
10386.438732	80.932	135.8584
10461.703149	80.446	136.4457
10537.512962	79.938	137.3421
10613.872125	79.418	138.5785
10690.784618	78.895	140.1682
10768.254450	78.381	142.1052
10846.285661	77.883	144.3710
10924.882318	77.409	146.9400
11004.048518	76.966	149.7809
11083.788390	76.559	152.8561
11164.106090	76.193	156.1254
11245.005805	75.869	159.5536
11326.491752	75.591	163.1134
11408.568180	75.360	166.7769
11491.239368	75.180	170.5039
11574.509626	75.051	174.2413
11658.383294	74.974	177.9333
11742.864745	74.946	-178.4684
11827.958384	74.963	-175.0059
11913.668646	75.023	-171.7184
12000.000000	75.118	-168.6417
12086.956947	75.242	-165.8013
12174.544019	75.387	-163.2111
12262.765784	75.546	-160.8771
12351.626840	75.711	-158.7999
12441.131819	75.872	-156.9689
12531.285389	76.018	-155.3492
12622.092249	76.141	-153.8739
12713.557132	76.234	-152.4406
12805.684808	76.296	-150.9125
12898.480079	76.335	-149.1214
12991.947783	76.369	-146.8896
13086.092792	76.431	-144.0812
13180.920015	76.563	-140.6767
13276.434395	76.804	-136.8294
13372.640911	77.181	-132.8560
13469.544580	77.692	-129.1485
13567.150452	78.314	-126.0555
13665.463617	79.013	-123.7980
13764.489200	79.751	-122.4552
13864.232362	80.496	-121.9984
13964.698305	81.223	-122.3404
14065.892266	81.918	-123.3703
14167.819519	82.568	-124.9693
14270.485380	83.171	-127.0178
14373.895200	83.727	-129.4053
14478.054370	84.245	-132.0393
14582.968320	84.734	-134.8519
14688.642520	85.210	-137.8053
14795.082478	85.690	-140.9023
14902.293745	86.188	-144.1925
15010.281908	86.714	-147.7667
15119.052599	87.269	-151.7448
15228.611486	87.843	-156.2591
15338.964283	88.415	-161.4325
15450.116741	88.955	-167.3529
15562.074656	89.423	-174.0494
15674.843864	89.780	178.5233
15788.430244	89.989	170.4951
15902.839718	90.020	162.0789
16018.078250	89.855	153.5504
16134.151848	89.494	145.2072
16251.066563	88.949	137.3225
16368.828491	88.243	130.1110
16487.443769	87.408	123.7130
16606.918584	86.477	118.1932
16727.259161	85.486	113.5530
16848.471777	84.465	109.7458
16970.562748	83.443	106.6907
17093.538442	82.443	104.2849
17217.405268	81.479	102.4196
17342.169684	80.563	100.9903
17467.838194	79.698	99.9030
17594.417350	78.883	99.0801
17721.913751	78.113	98.4629
17850.334044	77.379	98.0083
17979.684923	76.675	97.6888
18109.973131	75.991	97.4942
18241.205462	75.319	97.4317
18373.388756	74.653	97.5240
18506.529905	73.986	97.8123
18640.635849	73.314	98.3570
18775.713581	72.640	99.2333
18911.770141	71.967	100.5227
19048.812624	71.309	102.2898
19186.848172	70.684	104.5444
19325.883983	70.119	107.2054
19465.927305	69.639	110.0824
19606.985439	69.265	112.8980
19749.065738	69.004	115.3459
19892.175609	68.848	117.1517
20036.322514	68.777	118.1108
