* Measurement data measured by REW V5.30.9
* Source: EXCL: Microphone (USB Sound Device        ), MICROPHONE (Master Volume), L, volume: 0.560
* Format: 256k Log Swept Sine, 1 sweep at -10.0 dBFS with no timing reference
* Dated: Mar 17, 2024 1:13:06 AM
* REW Settings:
*  C-weighting compensation: Off
*  Target level: 75.0 dB
* Note: Letshuoer Cadenza 4 R
* Measurement: R Letshuoer Cadenza 4
* Smoothing: 1/12 octave
* Frequency Step: 96 ppo
* Start Frequency: 0.36621094 Hz
*
* Freq(Hz) SPL(dB) Phase(degrees)
0.366211 81.457 167.4971
0.368865 81.449 167.4852
0.371538 81.438 167.4672
0.374230 81.423 167.4446
0.376942 81.407 167.4184
0.379673 81.390 167.3896
0.382424 81.372 167.3586
0.385196 81.353 167.3258
0.387987 81.334 167.2914
0.390798 81.315 167.2554
0.393630 81.295 167.2180
0.396483 81.276 167.1792
0.399356 81.256 167.1389
0.402250 81.236 167.0971
0.405165 81.216 167.0539
0.408101 81.196 167.0092
0.411058 81.176 166.9630
0.414037 81.155 166.9153
0.417037 81.135 166.8661
0.420059 81.114 166.8154
0.423103 81.093 166.7632
0.426169 81.072 166.7094
0.429257 81.051 166.6541
0.432367 81.029 166.5971
0.435501 81.008 166.5386
0.438656 80.986 166.4785
0.441835 80.964 166.4169
0.445037 80.943 166.3536
0.448262 80.920 166.2886
0.451510 80.898 166.2221
0.454782 80.876 166.1539
0.458077 80.853 166.0840
0.461397 80.830 166.0125
0.464740 80.807 165.9393
0.468108 80.784 165.8645
0.471500 80.761 165.7880
0.474917 80.737 165.7098
0.478358 80.714 165.6299
0.481825 80.690 165.5483
0.485316 80.666 165.4650
0.488833 80.642 165.3800
0.492375 80.618 165.2933
0.495943 80.593 165.2049
0.499537 80.568 165.1148
0.503157 80.543 165.0230
0.506803 80.518 164.9295
0.510475 80.493 164.8343
0.514174 80.468 164.7374
0.517900 80.442 164.6388
0.521653 80.416 164.5385
0.525433 80.391 164.4366
0.529241 80.364 164.3329
0.533076 80.338 164.2276
0.536939 80.312 164.1207
0.540830 80.285 164.0122
0.544749 80.258 163.9020
0.548696 80.231 163.7902
0.552673 80.204 163.6769
0.556677 80.176 163.5620
0.560711 80.148 163.4455
0.564774 80.120 163.3276
0.568867 80.092 163.2082
0.572989 80.064 163.0873
0.577141 80.036 162.9650
0.581324 80.007 162.8414
0.585536 79.978 162.7164
0.589779 79.949 162.5901
0.594053 79.919 162.4626
0.598358 79.890 162.3338
0.602694 79.860 162.2039
0.607061 79.830 162.0730
0.611460 79.800 161.9410
0.615891 79.770 161.8080
0.620354 79.739 161.6742
0.624849 79.708 161.5395
0.629377 79.677 161.4041
0.633938 79.646 161.2680
0.638532 79.614 161.1314
0.643159 79.582 160.9943
0.647819 79.550 160.8568
0.652514 79.518 160.7191
0.657242 79.486 160.5812
0.662005 79.453 160.4433
0.666802 79.420 160.3055
0.671634 79.387 160.1679
0.676501 79.353 160.0308
0.681403 79.320 159.8941
0.686341 79.286 159.7582
0.691314 79.252 159.6231
0.696324 79.217 159.4890
0.701369 79.182 159.3561
0.706452 79.146 159.2245
0.711571 79.109 159.0942
0.716727 79.071 158.9654
0.721921 79.030 158.8377
0.727153 78.986 158.7110
0.732422 78.938 158.5847
0.737729 78.885 158.4580
0.743075 78.827 158.3303
0.748460 78.766 158.2008
0.753883 78.701 158.0691
0.759346 78.634 157.9348
0.764849 78.564 157.7977
0.770391 78.493 157.6576
0.775974 78.420 157.5145
0.781597 78.346 157.3683
0.787261 78.270 157.2188
0.792965 78.193 157.0663
0.798712 78.114 156.9104
0.804499 78.033 156.7514
0.810329 77.952 156.5892
0.816201 77.868 156.4236
0.822116 77.783 156.2549
0.828073 77.697 156.0829
0.834073 77.608 155.9076
0.840118 77.518 155.7291
0.846205 77.427 155.5474
0.852337 77.334 155.3625
0.858514 77.239 155.1744
0.864735 77.142 154.9832
0.871001 77.043 154.7888
0.877313 76.943 154.5914
0.883670 76.841 154.3910
0.890074 76.737 154.1877
0.896523 76.631 153.9816
0.903020 76.523 153.7727
0.909564 76.413 153.5612
0.916155 76.301 153.3472
0.922793 76.188 153.1308
0.929480 76.072 152.9122
0.936216 75.954 152.6916
0.943000 75.833 152.4692
0.949833 75.711 152.2453
0.956716 75.587 152.0201
0.963649 75.460 151.7938
0.970632 75.331 151.5670
0.977666 75.200 151.3398
0.984750 75.066 151.1128
0.991886 74.930 150.8864
0.999074 74.792 150.6611
1.006313 74.651 150.4375
1.013605 74.507 150.2164
1.020950 74.362 149.9983
1.028349 74.213 149.7842
1.035801 74.062 149.5750
1.043306 73.908 149.3716
1.050867 73.752 149.1751
1.058482 73.592 148.9867
1.066152 73.429 148.8078
1.073878 73.263 148.6394
1.081659 73.092 148.4829
1.089498 72.917 148.3393
1.097393 72.735 148.2095
1.105345 72.545 148.0939
1.113355 72.345 147.9931
1.121422 72.135 147.9077
1.129549 71.913 147.8384
1.137734 71.678 147.7864
1.145978 71.431 147.7531
1.154283 71.173 147.7405
1.162647 70.903 147.7508
1.171072 70.621 147.7868
1.179558 70.330 147.8518
1.188106 70.029 147.9496
1.196715 69.720 148.0852
1.205387 69.402 148.2641
1.214122 69.078 148.4936
1.222920 68.748 148.7822
1.231781 68.413 149.1408
1.240708 68.075 149.5831
1.249698 67.734 150.1265
1.258754 67.391 150.7939
1.267875 67.049 151.6152
1.277063 66.708 152.6305
1.286317 66.369 153.8953
1.295638 66.035 155.4870
1.305027 65.706 157.5171
1.314484 65.385 160.1509
1.324009 65.074 163.6392
1.333603 64.773 168.3727
1.343267 64.485 174.9622
1.353001 64.212 -175.6818
1.362805 63.957 -162.4727
1.372681 63.721 -145.0818
1.382628 63.506 -125.7135
1.392647 63.317 -108.4085
1.402739 63.154 -95.3023
1.412904 63.021 -86.0287
1.423142 62.920 -79.4993
1.433455 62.856 -74.8100
1.443842 62.830 -71.3557
1.454305 62.845 -68.7491
1.464843 62.905 -66.7412
1.475458 63.010 -65.1682
1.486150 63.162 -63.9195
1.496919 63.361 -62.9185
1.507766 63.606 -62.1113
1.518692 63.895 -61.4583
1.529697 64.227 -60.9304
1.540782 64.598 -60.5052
1.551947 65.008 -60.1656
1.563193 65.452 -59.8982
1.574521 65.928 -59.6920
1.585931 66.433 -59.5387
1.597423 66.964 -59.4311
1.608998 67.517 -59.3634
1.620658 68.089 -59.3309
1.632402 68.677 -59.3296
1.644231 69.277 -59.3563
1.656146 69.885 -59.4080
1.668147 70.499 -59.4825
1.680235 71.114 -59.5778
1.692410 71.726 -59.6920
1.704674 72.332 -59.8239
1.717027 72.928 -59.9722
1.729469 73.510 -60.1357
1.742002 74.075 -60.3138
1.754625 74.618 -60.5054
1.767340 75.137 -60.7102
1.780147 75.628 -60.9276
1.793046 76.090 -61.1573
1.806040 76.521 -61.3990
1.819127 76.922 -61.6527
1.832309 77.294 -61.9184
1.845587 77.640 -62.1958
1.858961 77.962 -62.4847
1.872431 78.264 -62.7847
1.886000 78.548 -63.0949
1.899666 78.814 -63.4144
1.913432 79.065 -63.7424
1.927298 79.301 -64.0778
1.941264 79.524 -64.4198
1.955331 79.735 -64.7675
1.969500 79.933 -65.1201
1.983772 80.121 -65.4768
1.998147 80.299 -65.8370
2.012626 80.469 -66.2000
2.027211 80.631 -66.5654
2.041901 80.787 -66.9325
2.056697 80.938 -67.3010
2.071601 81.085 -67.6704
2.086613 81.230 -68.0404
2.101733 81.373 -68.4108
2.116963 81.517 -68.7813
2.132303 81.662 -69.1521
2.147755 81.808 -69.5231
2.163318 81.958 -69.8949
2.178995 82.110 -70.2682
2.194785 82.264 -70.6438
2.210689 82.419 -71.0231
2.226709 82.573 -71.4070
2.242844 82.725 -71.7963
2.259097 82.874 -72.1911
2.275467 83.021 -72.5913
2.291956 83.163 -72.9965
2.308565 83.302 -73.4061
2.325294 83.437 -73.8193
2.342144 83.569 -74.2354
2.359116 83.698 -74.6536
2.376211 83.824 -75.0732
2.393430 83.947 -75.4935
2.410774 84.068 -75.9138
2.428243 84.186 -76.3333
2.445839 84.303 -76.7516
2.463562 84.418 -77.1681
2.481415 84.532 -77.5824
2.499396 84.645 -77.9942
2.517508 84.756 -78.4037
2.535750 84.867 -78.8112
2.554126 84.977 -79.2174
2.572634 85.085 -79.6236
2.591276 85.191 -80.0310
2.610054 85.296 -80.4406
2.628967 85.398 -80.8530
2.648018 85.498 -81.2683
2.667206 85.596 -81.6865
2.686534 85.691 -82.1069
2.706002 85.784 -82.5291
2.725610 85.875 -82.9522
2.745361 85.964 -83.3756
2.765255 86.050 -83.7985
2.785294 86.136 -84.2201
2.805477 86.219 -84.6396
2.825807 86.302 -85.0563
2.846284 86.383 -85.4696
2.866909 86.463 -85.8793
2.887684 86.542 -86.2851
2.908609 86.620 -86.6873
2.929686 86.696 -87.0866
2.950916 86.771 -87.4839
2.972299 86.845 -87.8803
2.993838 86.916 -88.2764
3.015532 86.986 -88.6726
3.037384 87.054 -89.0689
3.059394 87.121 -89.4651
3.081564 87.186 -89.8606
3.103894 87.249 -90.2548
3.126386 87.310 -90.6472
3.149041 87.371 -91.0369
3.171861 87.430 -91.4232
3.194845 87.488 -91.8055
3.217996 87.546 -92.1832
3.241315 87.602 -92.5557
3.264803 87.658 -92.9228
3.288461 87.713 -93.2847
3.312291 87.767 -93.6416
3.336293 87.820 -93.9943
3.360469 87.871 -94.3431
3.384820 87.921 -94.6887
3.409348 87.971 -95.0312
3.434054 88.018 -95.3708
3.458938 88.065 -95.7074
3.484003 88.111 -96.0411
3.509250 88.156 -96.3717
3.534679 88.201 -96.6989
3.560293 88.245 -97.0227
3.586092 88.288 -97.3427
3.612079 88.331 -97.6587
3.638253 88.374 -97.9706
3.664618 88.416 -98.2783
3.691173 88.458 -98.5818
3.717921 88.500 -98.8813
3.744862 88.541 -99.1769
3.771999 88.581 -99.4690
3.799332 88.621 -99.7579
3.826864 88.660 -100.0439
3.854595 88.699 -100.3275
3.882527 88.738 -100.6090
3.910661 88.776 -100.8887
3.938999 88.815 -101.1667
3.967543 88.853 -101.4433
3.996294 88.892 -101.7185
4.025252 88.930 -101.9922
4.054421 88.969 -102.2643
4.083801 89.008 -102.5347
4.113394 89.046 -102.8034
4.143201 89.085 -103.0708
4.173225 89.123 -103.3372
4.203466 89.162 -103.6033
4.233926 89.200 -103.8696
4.264606 89.239 -104.1368
4.295509 89.277 -104.4056
4.326636 89.316 -104.6764
4.357989 89.354 -104.9496
4.389569 89.393 -105.2255
4.421378 89.432 -105.5039
4.453417 89.470 -105.7849
4.485688 89.509 -106.0684
4.518193 89.548 -106.3543
4.550934 89.586 -106.6429
4.583912 89.625 -106.9344
4.617129 89.663 -107.2292
4.650587 89.701 -107.5275
4.684287 89.739 -107.8298
4.718231 89.777 -108.1362
4.752421 89.814 -108.4472
4.786859 89.851 -108.7628
4.821547 89.888 -109.0832
4.856485 89.924 -109.4082
4.891677 89.960 -109.7377
4.927125 89.995 -110.0714
4.962829 90.030 -110.4090
4.998791 90.065 -110.7503
5.035015 90.099 -111.0952
5.071500 90.132 -111.4435
5.108251 90.165 -111.7953
5.145267 90.196 -112.1508
5.182552 90.227 -112.5101
5.220107 90.258 -112.8731
5.257934 90.287 -113.2396
5.296035 90.316 -113.6092
5.334412 90.344 -113.9812
5.373067 90.372 -114.3550
5.412003 90.398 -114.7300
5.451221 90.424 -115.1060
5.490722 90.450 -115.4825
5.530510 90.474 -115.8598
5.570587 90.498 -116.2378
5.610953 90.521 -116.6165
5.651613 90.543 -116.9955
5.692567 90.564 -117.3745
5.733818 90.585 -117.7530
5.775367 90.606 -118.1303
5.817218 90.626 -118.5060
5.859372 90.646 -118.8799
5.901831 90.665 -119.2519
5.944598 90.684 -119.6219
5.987675 90.703 -119.9901
6.031065 90.722 -120.3565
6.074768 90.740 -120.7211
6.118788 90.758 -121.0840
6.163127 90.777 -121.4449
6.207788 90.796 -121.8039
6.252772 90.814 -122.1608
6.298082 90.833 -122.5156
6.343721 90.853 -122.8687
6.389690 90.872 -123.2202
6.435992 90.892 -123.5707
6.482630 90.912 -123.9205
6.529606 90.933 -124.2700
6.576922 90.954 -124.6195
6.624581 90.976 -124.9692
6.672585 90.999 -125.3191
6.720938 91.021 -125.6695
6.769640 91.045 -126.0207
6.818696 91.069 -126.3732
6.868107 91.093 -126.7274
6.917876 91.118 -127.0837
6.968006 91.143 -127.4424
7.018499 91.169 -127.8037
7.069358 91.195 -128.1675
7.120586 91.221 -128.5339
7.172184 91.248 -128.9027
7.224157 91.275 -129.2742
7.276506 91.302 -129.6481
7.329235 91.329 -130.0247
7.382345 91.355 -130.4038
7.435841 91.382 -130.7853
7.489724 91.409 -131.1686
7.543997 91.436 -131.5535
7.598664 91.462 -131.9395
7.653728 91.488 -132.3259
7.709189 91.514 -132.7126
7.765053 91.540 -133.0992
7.821322 91.565 -133.4855
7.877998 91.590 -133.8707
7.935086 91.615 -134.2544
7.992587 91.639 -134.6359
8.050504 91.663 -135.0147
8.108841 91.687 -135.3905
8.167601 91.710 -135.7629
8.226787 91.734 -136.1317
8.286402 91.757 -136.4967
8.346449 91.781 -136.8575
8.406931 91.804 -137.2139
8.467851 91.827 -137.5656
8.529212 91.851 -137.9128
8.591018 91.875 -138.2555
8.653272 91.898 -138.5938
8.715977 91.923 -138.9280
8.779137 91.947 -139.2582
8.842754 91.972 -139.5846
8.906833 91.997 -139.9074
8.971375 92.022 -140.2269
9.036386 92.047 -140.5436
9.101867 92.073 -140.8578
9.167823 92.099 -141.1699
9.234257 92.126 -141.4800
9.301172 92.152 -141.7885
9.368572 92.179 -142.0954
9.436460 92.205 -142.4010
9.504841 92.231 -142.7054
9.573717 92.258 -143.0087
9.643092 92.284 -143.3109
9.712970 92.310 -143.6119
9.783354 92.335 -143.9115
9.854248 92.360 -144.2095
9.925656 92.385 -144.5057
9.997581 92.409 -144.7998
10.070028 92.432 -145.0916
10.143000 92.455 -145.3809
10.216500 92.478 -145.6671
10.290533 92.499 -145.9501
10.365103 92.520 -146.2297
10.440212 92.541 -146.5056
10.515866 92.561 -146.7779
10.592069 92.581 -147.0463
10.668823 92.600 -147.3109
10.746134 92.619 -147.5718
10.824005 92.637 -147.8290
10.902440 92.655 -148.0829
10.981443 92.673 -148.3338
11.061020 92.690 -148.5819
11.141172 92.707 -148.8276
11.221906 92.724 -149.0713
11.303225 92.740 -149.3134
11.385133 92.756 -149.5544
11.467634 92.772 -149.7946
11.550734 92.787 -150.0344
11.634435 92.802 -150.2739
11.718742 92.816 -150.5135
11.803661 92.830 -150.7533
11.889195 92.843 -150.9935
11.975349 92.855 -151.2341
12.062128 92.867 -151.4750
12.149535 92.878 -151.7162
12.237576 92.889 -151.9577
12.326254 92.899 -152.1993
12.415575 92.908 -152.4409
12.505544 92.916 -152.6823
12.596164 92.924 -152.9236
12.687441 92.931 -153.1646
12.779379 92.937 -153.4054
12.871984 92.944 -153.6461
12.965260 92.949 -153.8867
13.059211 92.954 -154.1274
13.153843 92.959 -154.3684
13.249161 92.964 -154.6100
13.345170 92.968 -154.8525
13.441875 92.972 -155.0961
13.539280 92.976 -155.3411
13.637391 92.980 -155.5878
13.736214 92.983 -155.8364
13.835752 92.987 -156.0870
13.936011 92.990 -156.3398
14.036998 92.993 -156.5950
14.138716 92.996 -156.8524
14.241171 92.999 -157.1121
14.344368 93.002 -157.3740
14.448313 93.005 -157.6380
14.553011 93.007 -157.9041
14.658468 93.010 -158.1721
14.764689 93.012 -158.4419
14.871680 93.015 -158.7135
14.979446 93.018 -158.9868
15.087994 93.021 -159.2617
15.197328 93.024 -159.5381
15.307454 93.027 -159.8160
15.418378 93.030 -160.0954
15.530106 93.034 -160.3760
15.642643 93.037 -160.6579
15.755996 93.041 -160.9408
15.870171 93.045 -161.2245
15.985172 93.049 -161.5086
16.101007 93.054 -161.7928
16.217682 93.058 -162.0769
16.335201 93.062 -162.3603
16.453573 93.067 -162.6426
16.572803 93.072 -162.9235
16.692898 93.077 -163.2027
16.813862 93.082 -163.4797
16.935701 93.087 -163.7545
17.058424 93.092 -164.0267
17.182035 93.098 -164.2963
17.306543 93.104 -164.5633
17.431953 93.110 -164.8276
17.558273 93.116 -165.0894
17.685509 93.123 -165.3485
17.813665 93.129 -165.6051
17.942751 93.135 -165.8592
18.072771 93.142 -166.1107
18.203733 93.148 -166.3595
18.335646 93.154 -166.6057
18.468513 93.160 -166.8489
18.602345 93.166 -167.0893
18.737144 93.171 -167.3266
18.872921 93.176 -167.5609
19.009682 93.181 -167.7919
19.147434 93.185 -168.0198
19.286184 93.188 -168.2448
19.425940 93.192 -168.4669
19.566708 93.195 -168.6863
19.708496 93.197 -168.9033
19.851313 93.199 -169.1182
19.995163 93.200 -169.3313
20.140057 93.201 -169.5428
20.285999 93.201 -169.7533
20.433001 93.201 -169.9628
20.581066 93.200 -170.1718
20.730206 93.199 -170.3806
20.880424 93.197 -170.5893
21.031733 93.194 -170.7983
21.184137 93.191 -171.0077
21.337646 93.187 -171.2177
21.492268 93.183 -171.4283
21.648010 93.178 -171.6397
21.804880 93.172 -171.8519
21.962887 93.166 -172.0649
22.122040 93.160 -172.2787
22.282345 93.153 -172.4935
22.443811 93.146 -172.7092
22.606449 93.139 -172.9261
22.770266 93.132 -173.1446
22.935268 93.125 -173.3650
23.101467 93.118 -173.5876
23.268869 93.111 -173.8130
23.437485 93.104 -174.0412
23.607323 93.098 -174.2725
23.778391 93.091 -174.5066
23.950699 93.084 -174.7433
24.124256 93.077 -174.9818
24.299070 93.070 -175.2213
24.475151 93.063 -175.4609
24.652508 93.056 -175.6997
24.831150 93.049 -175.9369
25.011087 93.042 -176.1718
25.192327 93.036 -176.4044
25.374882 93.030 -176.6346
25.558758 93.024 -176.8628
25.743967 93.019 -177.0895
25.930519 93.014 -177.3153
26.118422 93.009 -177.5406
26.307686 93.005 -177.7654
26.498322 93.000 -177.9897
26.690340 92.995 -178.2127
26.883749 92.989 -178.4335
27.078560 92.982 -178.6509
27.274782 92.975 -178.8635
27.472427 92.967 -179.0702
27.671503 92.958 -179.2700
27.872023 92.948 -179.4622
28.073996 92.938 -179.6464
28.277431 92.928 -179.8229
28.482342 92.917 -179.9919
28.688736 92.906 179.8463
28.896626 92.894 179.6910
29.106022 92.883 179.5417
29.316936 92.872 179.3981
29.529379 92.860 179.2596
29.743361 92.849 179.1258
29.958893 92.838 178.9958
30.175987 92.828 178.8686
30.394655 92.819 178.7430
30.614908 92.810 178.6172
30.836756 92.803 178.4892
31.060211 92.796 178.3572
31.285286 92.791 178.2189
31.511992 92.786 178.0728
31.740341 92.783 177.9174
31.970345 92.780 177.7517
32.202015 92.777 177.5752
32.435364 92.775 177.3878
32.670403 92.772 177.1898
32.907146 92.770 176.9817
33.145607 92.767 176.7645
33.385796 92.764 176.5393
33.627724 92.759 176.3076
33.871403 92.755 176.0709
34.116848 92.749 175.8310
34.364071 92.742 175.5895
34.613087 92.735 175.3481
34.863907 92.727 175.1081
35.116547 92.718 174.8705
35.371017 92.708 174.6360
35.627331 92.698 174.4049
35.885502 92.687 174.1776
36.145542 92.676 173.9540
36.407467 92.665 173.7341
36.671291 92.653 173.5178
36.937027 92.640 173.3050
37.204689 92.627 173.0955
37.474289 92.613 172.8887
37.745842 92.599 172.6845
38.019363 92.585 172.4824
38.294868 92.569 172.2822
38.572369 92.554 172.0840
38.851879 92.537 171.8878
39.133415 92.520 171.6938
39.416992 92.503 171.5020
39.702625 92.485 171.3122
39.990326 92.467 171.1242
40.280113 92.449 170.9374
40.571999 92.430 170.7516
40.866001 92.412 170.5666
41.162132 92.393 170.3826
41.460411 92.374 170.1996
41.760849 92.355 170.0178
42.063465 92.336 169.8371
42.368275 92.317 169.6572
42.675293 92.297 169.4775
42.984535 92.278 169.2978
43.296021 92.259 169.1182
43.609760 92.239 168.9394
43.925774 92.218 168.7625
44.244080 92.197 168.5887
44.564690 92.176 168.4190
44.887623 92.155 168.2535
45.212898 92.133 168.0916
45.540531 92.112 167.9321
45.870537 92.091 167.7735
46.202934 92.071 167.6145
46.537739 92.050 167.4549
46.874969 92.028 167.2952
47.214645 92.007 167.1369
47.556782 91.985 166.9816
47.901398 91.963 166.8305
48.248512 91.941 166.6837
48.598141 91.919 166.5400
48.950302 91.898 166.3975
49.305016 91.878 166.2542
49.662300 91.858 166.1086
50.022175 91.838 165.9606
50.384655 91.818 165.8108
50.749763 91.797 165.6604
51.117516 91.776 165.5103
51.487934 91.755 165.3612
51.861038 91.733 165.2130
52.236843 91.711 165.0658
52.615372 91.688 164.9197
52.996643 91.665 164.7752
53.380680 91.641 164.6327
53.767498 91.617 164.4924
54.157120 91.593 164.3541
54.549564 91.568 164.2177
54.944855 91.543 164.0825
55.343006 91.519 163.9481
55.744045 91.494 163.8140
56.147991 91.470 163.6796
56.554863 91.446 163.5443
56.964684 91.422 163.4075
57.377472 91.398 163.2686
57.793251 91.374 163.1272
58.212044 91.350 162.9833
58.633873 91.324 162.8375
59.058758 91.299 162.6907
59.486721 91.272 162.5447
59.917786 91.244 162.4015
60.351974 91.215 162.2627
60.789310 91.185 162.1296
61.229816 91.155 162.0025
61.673512 91.125 161.8812
62.120422 91.094 161.7646
62.570572 91.063 161.6522
63.023983 91.033 161.5434
63.480682 91.002 161.4377
63.940689 90.972 161.3350
64.404030 90.942 161.2347
64.870728 90.913 161.1365
65.340805 90.884 161.0406
65.814293 90.855 160.9476
66.291214 90.827 160.8577
66.771591 90.799 160.7708
67.255447 90.772 160.6858
67.742805 90.745 160.6018
68.233696 90.718 160.5181
68.728142 90.692 160.4341
69.226173 90.665 160.3488
69.727814 90.639 160.2616
70.233093 90.612 160.1730
70.742035 90.584 160.0847
71.254662 90.556 159.9983
71.771004 90.529 159.9131
72.291084 90.502 159.8264
72.814934 90.475 159.7359
73.342583 90.447 159.6424
73.874054 90.419 159.5494
74.409378 90.391 159.4599
74.948578 90.363 159.3739
75.491684 90.335 159.2891
76.038727 90.307 159.2042
76.589737 90.278 159.1201
77.144737 90.249 159.0389
77.703758 90.219 158.9609
78.266830 90.188 158.8841
78.833984 90.157 158.8060
79.405251 90.125 158.7247
79.980652 90.093 158.6396
80.560226 90.059 158.5504
81.143997 90.024 158.4575
81.732002 89.989 158.3608
82.324265 89.952 158.2605
82.920822 89.915 158.1566
83.521698 89.877 158.0502
84.126930 89.838 157.9439
84.736549 89.798 157.8414
85.350586 89.758 157.7468
85.969070 89.716 157.6630
86.592041 89.674 157.5918
87.219521 89.633 157.5335
87.851547 89.591 157.4875
88.488159 89.550 157.4529
89.129379 89.509 157.4279
89.775246 89.469 157.4102
90.425797 89.429 157.3976
91.081062 89.389 157.3879
91.741074 89.349 157.3801
92.405869 89.310 157.3730
93.075478 89.270 157.3660
93.749939 89.230 157.3587
94.429291 89.191 157.3509
95.113564 89.151 157.3430
95.802795 89.111 157.3358
96.497025 89.072 157.3311
97.196281 89.032 157.3306
97.900604 88.992 157.3360
98.610031 88.952 157.3483
99.324600 88.913 157.3680
100.044350 88.874 157.3932
100.769310 88.835 157.4214
101.499527 88.796 157.4509
102.235031 88.757 157.4815
102.975868 88.719 157.5131
103.722076 88.681 157.5455
104.473686 88.643 157.5783
105.230743 88.606 157.6113
105.993286 88.569 157.6443
106.761360 88.532 157.6777
107.534996 88.496 157.7115
108.314240 88.460 157.7453
109.099129 88.423 157.7784
109.889709 88.386 157.8095
110.686012 88.347 157.8375
111.488091 88.308 157.8617
112.295982 88.267 157.8819
113.109726 88.226 157.8988
113.929367 88.184 157.9155
114.754944 88.142 157.9373
115.586502 88.099 157.9702
116.424088 88.058 158.0184
117.267746 88.017 158.0824
118.117516 87.977 158.1588
118.973442 87.937 158.2443
119.835571 87.895 158.3409
120.703949 87.851 158.4556
121.578621 87.806 158.5915
122.459633 87.761 158.7429
123.347023 87.717 158.8997
124.240845 87.675 159.0532
125.141144 87.635 159.1979
126.047966 87.597 159.3318
126.961365 87.561 159.4554
127.881378 87.526 159.5705
128.808060 87.492 159.6806
129.741455 87.458 159.7907
130.681610 87.423 159.9067
131.628586 87.387 160.0330
132.582428 87.349 160.1703
133.543182 87.311 160.3152
134.510895 87.273 160.4627
135.485611 87.234 160.6090
136.467392 87.195 160.7514
137.456284 87.158 160.8898
138.452347 87.123 161.0277
139.455627 87.090 161.1722
140.466187 87.060 161.3311
141.484070 87.032 161.5081
142.509323 87.006 161.7004
143.542007 86.978 161.8999
144.582169 86.946 162.0966
145.629868 86.906 162.2861
146.685165 86.858 162.4737
147.748108 86.803 162.6654
148.818756 86.744 162.8582
149.897156 86.685 163.0453
150.983368 86.626 163.2283
152.077454 86.570 163.4230
153.179474 86.516 163.6498
154.289474 86.465 163.9201
155.407516 86.418 164.2359
156.533661 86.373 164.5910
157.667969 86.331 164.9733
158.810501 86.292 165.3693
159.961304 86.257 165.7709
161.120453 86.227 166.1762
162.287994 86.203 166.5852
163.464005 86.186 166.9976
164.648529 86.177 167.4120
165.841644 86.172 167.8278
167.043396 86.170 168.2447
168.253860 86.172 168.6583
169.473099 86.176 169.0555
170.701172 86.185 169.4174
171.938141 86.198 169.7245
173.184082 86.214 169.9656
174.439041 86.232 170.1432
175.703094 86.251 170.2714
176.976318 86.269 170.3685
178.258759 86.283 170.4513
179.550491 86.293 170.5321
180.851593 86.299 170.6179
182.162125 86.299 170.7105
183.482147 86.295 170.8096
184.811737 86.289 170.9148
186.150955 86.279 171.0277
187.499878 86.267 171.1510
188.858582 86.253 171.2870
190.227127 86.237 171.4369
191.605591 86.221 171.5969
192.994049 86.205 171.7546
194.392563 86.191 171.8973
195.801208 86.179 172.0215
197.220062 86.168 172.1351
198.649200 86.157 172.2506
200.088699 86.147 172.3781
201.538620 86.136 172.5213
202.999054 86.125 172.6774
204.470062 86.113 172.8394
205.951736 86.101 173.0004
207.444153 86.089 173.1561
208.947372 86.076 173.3061
210.461487 86.061 173.4536
211.986572 86.046 173.6031
213.522720 86.028 173.7603
215.069992 86.009 173.9306
216.628479 85.990 174.1180
218.198257 85.971 174.3233
219.779419 85.953 174.5429
221.372025 85.937 174.7700
222.976181 85.923 174.9976
224.591965 85.911 175.2208
226.219452 85.900 175.4380
227.858734 85.890 175.6497
229.509888 85.880 175.8577
231.173004 85.870 176.0641
232.848175 85.860 176.2702
234.535492 85.850 176.4762
236.235031 85.841 176.6815
237.946884 85.831 176.8847
239.671143 85.822 177.0848
241.407898 85.812 177.2823
243.157242 85.801 177.4790
244.919266 85.790 177.6786
246.694046 85.778 177.8854
248.481689 85.766 178.1036
250.282288 85.754 178.3366
252.095932 85.743 178.5858
253.922729 85.734 178.8488
255.762756 85.727 179.1188
257.616119 85.724 179.3854
259.482910 85.723 179.6383
261.363220 85.723 179.8720
263.257172 85.722 -179.9125
265.164856 85.721 -179.7090
267.086365 85.718 -179.5089
269.021790 85.714 -179.3045
270.971222 85.709 -179.0909
272.934784 85.705 -178.8665
274.912567 85.701 -178.6328
276.904694 85.698 -178.3924
278.911255 85.697 -178.1479
280.932373 85.698 -177.9020
282.968140 85.702 -177.6590
285.018646 85.707 -177.4259
287.084015 85.715 -177.2108
289.164337 85.723 -177.0198
291.259735 85.730 -176.8534
293.370331 85.736 -176.7051
295.496216 85.739 -176.5638
297.637512 85.739 -176.4196
299.794312 85.737 -176.2659
301.966736 85.733 -176.1010
304.154907 85.730 -175.9258
306.358948 85.726 -175.7437
308.578949 85.724 -175.5582
310.815033 85.721 -175.3725
313.067322 85.718 -175.1876
315.335938 85.716 -175.0016
317.621002 85.712 -174.8106
319.922607 85.709 -174.6107
322.240906 85.705 -174.4003
324.575989 85.702 -174.1810
326.928009 85.701 -173.9566
329.297058 85.700 -173.7313
331.683289 85.702 -173.5090
334.086792 85.704 -173.2930
336.507721 85.708 -173.0854
338.946198 85.712 -172.8868
341.402344 85.716 -172.6957
343.876282 85.720 -172.5093
346.368164 85.723 -172.3247
348.878082 85.725 -172.1400
351.406189 85.727 -171.9544
353.952637 85.729 -171.7684
356.517517 85.730 -171.5826
359.100983 85.732 -171.3969
361.703186 85.734 -171.2116
364.324249 85.735 -171.0266
366.964294 85.736 -170.8417
369.623474 85.738 -170.6567
372.301910 85.739 -170.4711
374.999756 85.740 -170.2844
377.717163 85.741 -170.0969
380.454254 85.742 -169.9088
383.211182 85.743 -169.7202
385.988098 85.744 -169.5308
388.785126 85.745 -169.3398
391.602417 85.746 -169.1465
394.440125 85.748 -168.9504
397.298401 85.749 -168.7524
400.177399 85.751 -168.5539
403.077240 85.754 -168.3568
405.998108 85.756 -168.1627
408.940125 85.759 -167.9721
411.903473 85.761 -167.7833
414.888306 85.762 -167.5928
417.894745 85.762 -167.3970
420.922974 85.763 -167.1926
423.973145 85.764 -166.9787
427.045441 85.766 -166.7572
430.139984 85.770 -166.5325
433.256958 85.775 -166.3099
436.396515 85.782 -166.0929
439.558838 85.790 -165.8817
442.744049 85.798 -165.6759
445.952362 85.808 -165.4771
449.183929 85.819 -165.2899
452.438904 85.830 -165.1203
455.717468 85.840 -164.9713
459.019775 85.848 -164.8390
462.346008 85.853 -164.7129
465.696350 85.854 -164.5814
469.070984 85.853 -164.4369
472.470062 85.851 -164.2778
475.893768 85.849 -164.1069
479.342285 85.847 -163.9297
482.815796 85.845 -163.7520
486.314484 85.843 -163.5759
489.838531 85.840 -163.3969
493.388092 85.837 -163.2071
496.963379 85.833 -163.0026
500.564575 85.831 -162.7869
504.191864 85.830 -162.5678
507.845459 85.830 -162.3518
511.525513 85.830 -162.1418
515.232239 85.830 -161.9369
518.965820 85.830 -161.7332
522.726440 85.828 -161.5257
526.514343 85.826 -161.3096
530.329712 85.824 -161.0830
534.172729 85.823 -160.8488
538.043579 85.822 -160.6116
541.942444 85.823 -160.3741
545.869568 85.824 -160.1352
549.825134 85.825 -159.8939
553.809387 85.827 -159.6518
557.822510 85.830 -159.4124
561.864746 85.833 -159.1782
565.936279 85.835 -158.9489
570.037292 85.837 -158.7211
574.168030 85.838 -158.4910
578.328674 85.838 -158.2563
582.519470 85.839 -158.0173
586.740662 85.839 -157.7742
590.992432 85.839 -157.5250
595.275024 85.839 -157.2667
599.588623 85.839 -157.0003
603.933472 85.841 -156.7299
608.309814 85.843 -156.4597
612.717896 85.845 -156.1909
617.157898 85.846 -155.9208
621.630066 85.847 -155.6429
626.134644 85.847 -155.3504
630.671875 85.849 -155.0417
635.242004 85.851 -154.7220
639.845215 85.856 -154.3982
644.481812 85.863 -154.0727
649.151978 85.872 -153.7446
653.856018 85.883 -153.4152
658.594116 85.897 -153.0909
663.366577 85.913 -152.7820
668.173584 85.931 -152.4962
673.015442 85.948 -152.2325
677.892395 85.964 -151.9830
682.804688 85.976 -151.7385
687.752563 85.987 -151.4916
692.736328 85.995 -151.2368
697.756165 86.002 -150.9694
702.812378 86.009 -150.6875
707.905273 86.017 -150.3934
713.035034 86.025 -150.0920
718.201965 86.034 -149.7875
723.406372 86.043 -149.4811
728.648499 86.053 -149.1719
733.928589 86.063 -148.8586
739.246948 86.073 -148.5401
744.603821 86.083 -148.2156
749.999512 86.095 -147.8846
755.434326 86.106 -147.5471
760.908508 86.119 -147.2037
766.422363 86.132 -146.8549
771.976196 86.147 -146.5016
777.570251 86.163 -146.1445
783.204834 86.180 -145.7840
788.880249 86.197 -145.4190
794.596802 86.216 -145.0465
800.354797 86.237 -144.6639
806.154480 86.261 -144.2725
811.996216 86.288 -143.8783
817.880249 86.318 -143.4904
823.806946 86.352 -143.1189
829.776611 86.387 -142.7721
835.789490 86.423 -142.4517
841.845947 86.457 -142.1506
847.946289 86.489 -141.8579
854.090881 86.519 -141.5653
860.279968 86.548 -141.2686
866.513916 86.577 -140.9647
872.793030 86.605 -140.6504
879.117676 86.634 -140.3260
885.488098 86.664 -139.9957
891.904724 86.695 -139.6633
898.367859 86.727 -139.3288
904.877808 86.760 -138.9906
911.434937 86.795 -138.6480
918.039551 86.830 -138.3032
924.692017 86.868 -137.9595
931.392700 86.908 -137.6208
938.141968 86.949 -137.2908
944.940125 86.991 -136.9713
951.787537 87.033 -136.6608
958.684570 87.076 -136.3564
965.631592 87.118 -136.0554
972.628967 87.161 -135.7555
979.677063 87.205 -135.4564
986.776184 87.249 -135.1585
993.926758 87.294 -134.8600
1001.129150 87.339 -134.5561
1008.383728 87.386 -134.2428
1015.690918 87.435 -133.9220
1023.051025 87.488 -133.5997
1030.464478 87.545 -133.2845
1037.931641 87.606 -132.9886
1045.452881 87.670 -132.7241
1053.028687 87.734 -132.4961
1060.659424 87.798 -132.3006
1068.345459 87.860 -132.1284
1076.087158 87.919 -131.9699
1083.884888 87.977 -131.8185
1091.739136 88.033 -131.6719
1099.650269 88.088 -131.5303
1107.618774 88.142 -131.3933
1115.645020 88.195 -131.2598
1123.729492 88.247 -131.1284
1131.872559 88.298 -130.9982
1140.074585 88.349 -130.8680
1148.336060 88.399 -130.7370
1156.657349 88.449 -130.6042
1165.038940 88.499 -130.4686
1173.481323 88.550 -130.3289
1181.984863 88.603 -130.1860
1190.550049 88.657 -130.0463
1199.177246 88.715 -129.9213
1207.866943 88.774 -129.8228
1216.619629 88.832 -129.7560
1225.435791 88.889 -129.7165
1234.315796 88.943 -129.6949
1243.260132 88.993 -129.6818
1252.269287 89.040 -129.6696
1261.343750 89.084 -129.6539
1270.484009 89.127 -129.6335
1279.690430 89.168 -129.6067
1288.963623 89.207 -129.5720
1298.303955 89.246 -129.5298
1307.712036 89.284 -129.4829
1317.188232 89.322 -129.4349
1326.733154 89.359 -129.3879
1336.347168 89.395 -129.3410
1346.030884 89.429 -129.2910
1355.784790 89.462 -129.2338
1365.609375 89.494 -129.1652
1375.505127 89.526 -129.0808
1385.472656 89.557 -128.9756
1395.512329 89.590 -128.8485
1405.624756 89.626 -128.7053
1415.810547 89.666 -128.5582
1426.070068 89.709 -128.4225
1436.403931 89.754 -128.3077
1446.812744 89.800 -128.2138
1457.296997 89.845 -128.1348
1467.857178 89.889 -128.0639
1478.493896 89.931 -127.9962
1489.207642 89.973 -127.9280
1499.999023 90.013 -127.8556
1510.868652 90.052 -127.7759
1521.817017 90.091 -127.6859
1532.844727 90.130 -127.5834
1543.952393 90.171 -127.4668
1555.140503 90.213 -127.3361
1566.409668 90.259 -127.1958
1577.760498 90.308 -127.0573
1589.193604 90.362 -126.9349
1600.709595 90.418 -126.8379
1612.308960 90.474 -126.7664
1623.992432 90.529 -126.7146
1635.760498 90.584 -126.6740
1647.613892 90.636 -126.6376
1659.553223 90.688 -126.6004
1671.578979 90.740 -126.5591
1683.691895 90.791 -126.5136
1695.892578 90.843 -126.4663
1708.181763 90.896 -126.4197
1720.559937 90.949 -126.3740
1733.027832 91.002 -126.3266
1745.586060 91.056 -126.2733
1758.235352 91.110 -126.2087
1770.976196 91.167 -126.1300
1783.809448 91.229 -126.0406
1796.735718 91.296 -125.9533
1809.755615 91.368 -125.8854
1822.869873 91.444 -125.8500
1836.079102 91.522 -125.8515
1849.384033 91.602 -125.8881
1862.785400 91.681 -125.9548
1876.283936 91.759 -126.0455
1889.880249 91.837 -126.1532
1903.575073 91.913 -126.2716
1917.369141 91.990 -126.3957
1931.263184 92.067 -126.5229
1945.257935 92.148 -126.6560
1959.354126 92.231 -126.8058
1973.552368 92.319 -126.9882
1987.853516 92.409 -127.2154
2002.258301 92.500 -127.4920
2016.767456 92.590 -127.8162
2031.381836 92.677 -128.1828
2046.102051 92.762 -128.5859
2060.928955 92.843 -129.0209
2075.863281 92.922 -129.4859
2090.905762 92.996 -129.9803
2106.057373 93.065 -130.5013
2121.318848 93.129 -131.0428
2136.690918 93.188 -131.5955
2152.174316 93.241 -132.1503
2167.769775 93.292 -132.7036
2183.478271 93.340 -133.2613
2199.300537 93.386 -133.8337
2215.237549 93.430 -134.4283
2231.290039 93.468 -135.0470
2247.458984 93.501 -135.6858
2263.745117 93.527 -136.3367
2280.149170 93.545 -136.9887
2296.672119 93.557 -137.6296
2313.314697 93.562 -138.2491
2330.077881 93.562 -138.8425
2346.962646 93.559 -139.4128
2363.969727 93.552 -139.9686
2381.100098 93.543 -140.5157
2398.354492 93.529 -141.0550
2415.733887 93.509 -141.5821
2433.239258 93.485 -142.0898
2450.871582 93.455 -142.5709
2468.631592 93.419 -143.0195
2486.520264 93.379 -143.4297
2504.538574 93.333 -143.7928
2522.687500 93.283 -144.0971
2540.968018 93.231 -144.3309
2559.380859 93.179 -144.4896
2577.927246 93.130 -144.5779
2596.607910 93.085 -144.6050
2615.424072 93.046 -144.5804
2634.376465 93.013 -144.5109
2653.466309 92.988 -144.4016
2672.694336 92.972 -144.2566
2692.061768 92.967 -144.0821
2711.569580 92.974 -143.8919
2731.218750 92.995 -143.7109
2751.010254 93.030 -143.5714
2770.945312 93.076 -143.5040
2791.024658 93.131 -143.5303
2811.249512 93.189 -143.6600
2831.621094 93.247 -143.8922
2852.140137 93.301 -144.2179
2872.807861 93.348 -144.6216
2893.625488 93.385 -145.0819
2914.593994 93.412 -145.5735
2935.714355 93.430 -146.0741
2956.987793 93.441 -146.5708
2978.415283 93.446 -147.0599
2999.998047 93.446 -147.5423
3021.737305 93.442 -148.0191
3043.634033 93.434 -148.4882
3065.689453 93.421 -148.9436
3087.904785 93.406 -149.3777
3110.281006 93.390 -149.7875
3132.819336 93.374 -150.1781
3155.520996 93.360 -150.5596
3178.387207 93.347 -150.9426
3201.419189 93.336 -151.3351
3224.617920 93.326 -151.7426
3247.984863 93.316 -152.1687
3271.520996 93.304 -152.6126
3295.227783 93.290 -153.0679
3319.106445 93.273 -153.5255
3343.157959 93.255 -153.9805
3367.383789 93.236 -154.4343
3391.785156 93.217 -154.8914
3416.363525 93.197 -155.3552
3441.119873 93.175 -155.8241
3466.055664 93.152 -156.2914
3491.172119 93.128 -156.7501
3516.470703 93.105 -157.2002
3541.952393 93.084 -157.6485
3567.618896 93.066 -158.1063
3593.471436 93.051 -158.5852
3619.511230 93.037 -159.0964
3645.739746 93.024 -159.6479
3672.158203 93.009 -160.2410
3698.768066 92.991 -160.8702
3725.570801 92.968 -161.5288
3752.567871 92.941 -162.2138
3779.760498 92.909 -162.9258
3807.150146 92.870 -163.6640
3834.738281 92.822 -164.4214
3862.526367 92.765 -165.1839
3890.515869 92.698 -165.9360
3918.708252 92.622 -166.6677
3947.104736 92.539 -167.3743
3975.707031 92.448 -168.0547
4004.516602 92.351 -168.7093
4033.534912 92.246 -169.3361
4062.763672 92.132 -169.9269
4092.204102 92.010 -170.4652
4121.857910 91.879 -170.9333
4151.726562 91.741 -171.3171
4181.811523 91.598 -171.6069
4212.114746 91.451 -171.7935
4242.637695 91.303 -171.8645
4273.381836 91.158 -171.8087
4304.348633 91.020 -171.6238
4335.539551 90.894 -171.3215
4366.956543 90.786 -170.9265
4398.601074 90.697 -170.4737
4430.475098 90.629 -170.0012
4462.580078 90.582 -169.5404
4494.917969 90.552 -169.1143
4527.490234 90.537 -168.7405
4560.298340 90.536 -168.4349
4593.344238 90.543 -168.2073
4626.629395 90.555 -168.0568
4660.155762 90.568 -167.9730
4693.925293 90.583 -167.9430
4727.939453 90.597 -167.9584
4762.200195 90.610 -168.0170
4796.708984 90.624 -168.1219
4831.467773 90.636 -168.2763
4866.478516 90.644 -168.4778
4901.743164 90.649 -168.7200
4937.263184 90.649 -168.9975
4973.040527 90.644 -169.3056
5009.077148 90.631 -169.6364
5045.375000 90.610 -169.9757
5081.936035 90.581 -170.3075
5118.761719 90.545 -170.6194
5155.854492 90.504 -170.9063
5193.215820 90.460 -171.1707
5230.848145 90.412 -171.4176
5268.752930 90.363 -171.6489
5306.932617 90.310 -171.8645
5345.388672 90.256 -172.0659
5384.123535 90.198 -172.2539
5423.139160 90.136 -172.4236
5462.437500 90.070 -172.5639
5502.020508 90.000 -172.6624
5541.890625 89.927 -172.7106
5582.049316 89.855 -172.7083
5622.499023 89.783 -172.6607
5663.242188 89.714 -172.5735
5704.280273 89.647 -172.4523
5745.615723 89.584 -172.3045
5787.250977 89.522 -172.1363
5829.187988 89.463 -171.9474
5871.428711 89.404 -171.7310
5913.975586 89.346 -171.4778
5956.830566 89.290 -171.1818
5999.996094 89.239 -170.8435
6043.474609 89.192 -170.4662
6087.268066 89.151 -170.0552
6131.378906 89.117 -169.6183
6175.809570 89.090 -169.1638
6220.562012 89.069 -168.6955
6265.638672 89.053 -168.2109
6311.041992 89.043 -167.7033
6356.774414 89.040 -167.1674
6402.838379 89.044 -166.6027
6449.235840 89.057 -166.0120
6495.969727 89.082 -165.4017
6543.041992 89.118 -164.7825
6590.455566 89.166 -164.1653
6638.212891 89.226 -163.5575
6686.315918 89.298 -162.9618
6734.767578 89.383 -162.3802
6783.570312 89.482 -161.8184
6832.727051 89.597 -161.2861
6882.239746 89.728 -160.7981
6932.111328 89.877 -160.3747
6982.344238 90.042 -160.0387
7032.941406 90.223 -159.8104
7083.904785 90.418 -159.7061
7135.237793 90.626 -159.7406
7186.942871 90.844 -159.9305
7239.022461 91.071 -160.2943
7291.479492 91.305 -160.8530
7344.316406 91.540 -161.6288
7397.536133 91.771 -162.6395
7451.141602 91.993 -163.8914
7505.135742 92.196 -165.3779
7559.520996 92.377 -167.0825
7614.300293 92.527 -168.9788
7669.476562 92.645 -171.0345
7725.052734 92.725 -173.2147
7781.031738 92.766 -175.4825
7837.416504 92.764 -177.7961
7894.209473 92.720 179.8930
7951.414062 92.632 177.6373
8009.033203 92.504 175.4888
8067.069824 92.339 173.4931
8125.527344 92.145 171.6820
8184.408203 91.927 170.0722
8243.715820 91.692 168.6708
8303.453125 91.445 167.4805
8363.623047 91.191 166.5003
8424.229492 90.935 165.7254
8485.275391 90.682 165.1438
8546.763672 90.436 164.7326
8608.697266 90.202 164.4613
8671.079102 89.979 164.2999
8733.913086 89.768 164.2245
8797.202148 89.568 164.2193
8860.950195 89.377 164.2753
8925.160156 89.195 164.3835
8989.835938 89.022 164.5319
9054.980469 88.856 164.7096
9120.596680 88.697 164.9110
9186.688477 88.542 165.1382
9253.258789 88.390 165.4008
9320.311523 88.241 165.7086
9387.850586 88.096 166.0660
9455.878906 87.955 166.4728
9524.400391 87.821 166.9277
9593.417969 87.691 167.4337
9662.935547 87.568 167.9986
9732.957031 87.452 168.6291
9803.486328 87.345 169.3241
9874.526367 87.251 170.0746
9946.081055 87.171 170.8686
10018.154297 87.104 171.6974
10090.750000 87.053 172.5560
10163.872070 87.018 173.4366
10237.523438 87.002 174.3235
10311.708984 87.005 175.1938
10386.431641 87.027 176.0246
10461.696289 87.067 176.7991
10537.505859 87.125 177.5039
10613.865234 87.200 178.1211
10690.777344 87.291 178.6265
10768.247070 87.396 178.9941
10846.278320 87.512 179.2038
10924.875000 87.634 179.2427
11004.041016 87.760 179.0983
11083.781250 87.886 178.7551
11164.098633 88.005 178.1973
11244.998047 88.112 177.4191
11326.484375 88.198 176.4321
11408.560547 88.257 175.2643
11491.231445 88.283 173.9524
11574.501953 88.273 172.5363
11658.375977 88.225 171.0593
11742.857422 88.138 169.5667
11827.951172 88.013 168.1006
11913.661133 87.854 166.6935
11999.992188 87.663 165.3674
12086.949219 87.443 164.1401
12174.536133 87.197 163.0276
12262.757812 86.928 162.0430
12351.619141 86.638 161.1938
12441.124023 86.331 160.4843
12531.277344 86.007 159.9209
12622.083984 85.670 159.5144
12713.548828 85.323 159.2746
12805.676758 84.968 159.2053
12898.471680 84.609 159.3054
12991.939453 84.249 159.5720
13086.083984 83.893 159.9985
13180.911133 83.543 160.5697
13276.425781 83.204 161.2613
13372.631836 82.878 162.0460
13469.535156 82.566 162.8966
13567.140625 82.269 163.7838
13665.454102 81.988 164.6754
13764.479492 81.719 165.5413
13864.222656 81.463 166.3584
13964.688477 81.214 167.1083
14065.882812 80.972 167.7747
14167.809570 80.732 168.3450
14270.475586 80.489 168.8142
14373.885742 80.241 169.1823
14478.044922 79.984 169.4498
14582.958984 79.711 169.6200
14688.632812 79.420 169.7045
14795.072266 79.103 169.7236
14902.283203 78.753 169.7128
15010.271484 78.361 169.7409
15119.041992 77.919 169.9353
15228.600586 77.422 170.4981
15338.953125 76.879 171.7045
15450.105469 76.320 173.8666
15562.063477 75.800 177.2199
15674.833008 75.399 -178.2855
15788.418945 75.195 -173.1685
15902.828125 75.221 -168.3072
16018.066406 75.442 -164.5118
16134.139648 75.785 -162.1831
16251.054688 76.168 -161.3220
16368.816406 76.528 -161.7180
16487.431641 76.822 -163.1043
16606.906250 77.026 -165.2273
16727.246094 77.125 -167.8594
16848.458984 77.115 -170.7975
16970.550781 76.998 -173.8669
17093.527344 76.781 -176.9283
17217.394531 76.477 -179.8827
17342.158203 76.100 177.3255
17467.826172 75.665 174.7107
17594.404297 75.180 172.2604
17721.900391 74.652 169.9528
17850.320312 74.083 167.7693
17979.671875 73.469 165.7071
18109.960938 72.806 163.7866
18241.193359 72.090 162.0503
18373.376953 71.318 160.5585
18506.517578 70.492 159.3840
18640.623047 69.613 158.6024
18775.701172 68.690 158.2779
18911.757812 67.732 158.4516
19048.800781 66.756 159.1287
19186.835938 65.778 160.2687
19325.871094 64.822 161.7814
19465.914062 63.912 163.5286
19606.972656 63.082 165.3329
19749.052734 62.378 166.9909
19892.162109 61.855 168.2851
20036.308594 61.575 169.0043
