* Measurement data measured by REW V5.31
* Source: EXCL: Microphone (USB Sound Device        ), MICROPHONE (Master Volume), L, volume: 0.250
* Format: 256k Log Swept Sine, 1 sweep at -5.0 dBFS with no timing reference
* Dated: Jun 20, 2024 11:11:02 AM
* REW Settings:
*  C-weighting compensation: Off
*  Target level: 75.0 dB
* Note: Meze Audio ALBA R
* Measurement: R Meze Audio ALBA
* Smoothing: 1/12 octave
* Frequency Step: 96 ppo
* Start Frequency: 0.36621094 Hz
*
* Freq(Hz) SPL(dB) Phase(degrees)
0.366211 78.943 177.8692
0.368865 78.941 177.8603
0.371538 78.938 177.8470
0.374230 78.935 177.8304
0.376942 78.931 177.8113
0.379673 78.927 177.7906
0.382424 78.923 177.7686
0.385196 78.918 177.7456
0.387987 78.914 177.7217
0.390798 78.910 177.6971
0.393630 78.905 177.6718
0.396483 78.901 177.6459
0.399356 78.896 177.6192
0.402250 78.892 177.5918
0.405165 78.887 177.5638
0.408101 78.882 177.5351
0.411058 78.878 177.5056
0.414037 78.873 177.4755
0.417037 78.868 177.4446
0.420059 78.863 177.4130
0.423103 78.858 177.3807
0.426169 78.854 177.3476
0.429257 78.849 177.3138
0.432368 78.844 177.2792
0.435501 78.839 177.2439
0.438656 78.834 177.2077
0.441835 78.829 177.1709
0.445037 78.824 177.1332
0.448262 78.819 177.0947
0.451510 78.813 177.0554
0.454782 78.808 177.0153
0.458077 78.803 176.9743
0.461397 78.798 176.9326
0.464740 78.792 176.8900
0.468108 78.787 176.8466
0.471500 78.782 176.8023
0.474917 78.776 176.7571
0.478358 78.771 176.7111
0.481825 78.765 176.6642
0.485316 78.760 176.6164
0.488833 78.754 176.5677
0.492375 78.749 176.5181
0.495943 78.743 176.4676
0.499537 78.737 176.4161
0.503157 78.732 176.3638
0.506803 78.726 176.3105
0.510475 78.720 176.2563
0.514175 78.714 176.2011
0.517900 78.708 176.1449
0.521653 78.702 176.0878
0.525434 78.696 176.0297
0.529241 78.690 175.9706
0.533076 78.684 175.9106
0.536939 78.678 175.8495
0.540830 78.672 175.7874
0.544749 78.666 175.7243
0.548696 78.659 175.6601
0.552673 78.653 175.5950
0.556677 78.647 175.5287
0.560711 78.640 175.4615
0.564774 78.634 175.3931
0.568867 78.627 175.3237
0.572989 78.621 175.2532
0.577141 78.614 175.1817
0.581324 78.608 175.1090
0.585536 78.601 175.0352
0.589779 78.594 174.9603
0.594053 78.587 174.8843
0.598358 78.581 174.8071
0.602694 78.574 174.7288
0.607061 78.567 174.6493
0.611460 78.560 174.5687
0.615891 78.553 174.4869
0.620354 78.546 174.4039
0.624849 78.539 174.3197
0.629377 78.531 174.2343
0.633938 78.524 174.1477
0.638532 78.517 174.0598
0.643159 78.510 173.9707
0.647819 78.502 173.8804
0.652514 78.495 173.7887
0.657242 78.487 173.6958
0.662005 78.480 173.6016
0.666802 78.472 173.5061
0.671634 78.464 173.4093
0.676501 78.457 173.3111
0.681403 78.449 173.2116
0.686341 78.441 173.1107
0.691314 78.433 173.0085
0.696324 78.425 172.9048
0.701370 78.417 172.7996
0.706452 78.408 172.6930
0.711571 78.400 172.5847
0.716728 78.390 172.4748
0.721921 78.380 172.3631
0.727153 78.368 172.2493
0.732422 78.355 172.1331
0.737729 78.340 172.0141
0.743075 78.324 171.8921
0.748460 78.306 171.7666
0.753883 78.287 171.6374
0.759346 78.268 171.5045
0.764849 78.248 171.3676
0.770391 78.228 171.2267
0.775974 78.208 171.0818
0.781597 78.187 170.9329
0.787261 78.167 170.7798
0.792966 78.146 170.6226
0.798712 78.124 170.4613
0.804500 78.103 170.2959
0.810329 78.081 170.1264
0.816201 78.059 169.9527
0.822116 78.036 169.7749
0.828073 78.013 169.5929
0.834074 77.990 169.4068
0.840118 77.966 169.2166
0.846206 77.942 169.0222
0.852338 77.917 168.8237
0.858514 77.891 168.6210
0.864735 77.865 168.4142
0.871001 77.837 168.2034
0.877313 77.810 167.9884
0.883670 77.781 167.7694
0.890074 77.752 167.5462
0.896524 77.721 167.3191
0.903020 77.690 167.0880
0.909564 77.657 166.8528
0.916155 77.624 166.6137
0.922794 77.589 166.3707
0.929481 77.553 166.1238
0.936216 77.516 165.8730
0.943000 77.477 165.6184
0.949834 77.437 165.3600
0.956717 77.396 165.0979
0.963649 77.352 164.8322
0.970632 77.308 164.5628
0.977666 77.261 164.2898
0.984750 77.213 164.0133
0.991886 77.163 163.7333
0.999074 77.110 163.4500
1.006314 77.056 163.1634
1.013606 76.999 162.8735
1.020951 76.940 162.5804
1.028349 76.879 162.2843
1.035801 76.815 161.9851
1.043307 76.749 161.6830
1.050867 76.680 161.3779
1.058482 76.608 161.0699
1.066152 76.533 160.7587
1.073878 76.454 160.4443
1.081660 76.372 160.1260
1.089498 76.287 159.8031
1.097393 76.197 159.4743
1.105345 76.102 159.1380
1.113355 76.002 158.7927
1.121423 75.896 158.4368
1.129549 75.785 158.0690
1.137734 75.668 157.6883
1.145979 75.544 157.2939
1.154283 75.416 156.8851
1.162647 75.281 156.4613
1.171072 75.141 156.0221
1.179558 74.996 155.5669
1.188106 74.846 155.0952
1.196715 74.692 154.6064
1.205387 74.533 154.0999
1.214122 74.370 153.5752
1.222920 74.203 153.0316
1.231782 74.032 152.4685
1.240708 73.859 151.8851
1.249699 73.682 151.2807
1.258754 73.504 150.6544
1.267876 73.323 150.0055
1.277063 73.141 149.3329
1.286318 72.957 148.6358
1.295639 72.773 147.9130
1.305027 72.589 147.1635
1.314484 72.405 146.3860
1.324009 72.222 145.5791
1.333604 72.040 144.7415
1.343268 71.860 143.8717
1.353002 71.682 142.9678
1.362806 71.508 142.0280
1.372681 71.337 141.0503
1.382628 71.171 140.0323
1.392647 71.010 138.9715
1.402739 70.855 137.8647
1.412904 70.706 136.7084
1.423142 70.564 135.4981
1.433455 70.430 134.2282
1.443843 70.303 132.8914
1.454305 70.184 131.4778
1.464844 70.072 129.9749
1.475459 69.965 128.3668
1.486150 69.863 126.6353
1.496920 69.765 124.7604
1.507767 69.670 122.7206
1.518693 69.579 120.4931
1.529698 69.490 118.0533
1.540783 69.404 115.3747
1.551948 69.322 112.4296
1.563194 69.243 109.1886
1.574521 69.169 105.6229
1.585931 69.099 101.7059
1.597423 69.034 97.4167
1.608999 68.974 92.7445
1.620658 68.921 87.6937
1.632402 68.874 82.2903
1.644232 68.834 76.5849
1.656146 68.801 70.6547
1.668147 68.777 64.5987
1.680235 68.762 58.5287
1.692411 68.757 52.5569
1.704675 68.761 46.7827
1.717028 68.777 41.2836
1.729470 68.805 36.1109
1.742003 68.845 31.2906
1.754626 68.898 26.8273
1.767341 68.967 22.7100
1.780147 69.050 18.9171
1.793047 69.151 15.4213
1.806040 69.270 12.1931
1.819128 69.410 9.2029
1.832310 69.572 6.4234
1.845587 69.757 3.8303
1.858961 69.968 1.4035
1.872432 70.205 -0.8735
1.886001 70.468 -3.0140
1.899667 70.754 -5.0294
1.913433 71.064 -6.9299
1.927299 71.395 -8.7244
1.941265 71.745 -10.4214
1.955332 72.112 -12.0285
1.969501 72.494 -13.5531
1.983773 72.888 -15.0017
1.998148 73.291 -16.3807
2.012627 73.702 -17.6958
2.027212 74.118 -18.9524
2.041902 74.535 -20.1555
2.056698 74.951 -21.3096
2.071602 75.364 -22.4192
2.086614 75.771 -23.4881
2.101734 76.168 -24.5203
2.116964 76.554 -25.5195
2.132304 76.925 -26.4892
2.147756 77.281 -27.4330
2.163320 77.619 -28.3548
2.178996 77.939 -29.2584
2.194786 78.242 -30.1477
2.210690 78.528 -31.0264
2.226710 78.800 -31.8975
2.242845 79.060 -32.7630
2.259098 79.307 -33.6234
2.275468 79.545 -34.4787
2.291957 79.773 -35.3283
2.308566 79.993 -36.1713
2.325295 80.204 -37.0066
2.342145 80.408 -37.8331
2.359117 80.606 -38.6501
2.376212 80.797 -39.4566
2.393431 80.983 -40.2517
2.410775 81.163 -41.0350
2.428244 81.340 -41.8059
2.445840 81.513 -42.5640
2.463564 81.683 -43.3092
2.481416 81.851 -44.0416
2.499397 82.017 -44.7617
2.517509 82.182 -45.4705
2.535752 82.345 -46.1698
2.554127 82.507 -46.8618
2.572635 82.667 -47.5496
2.591277 82.823 -48.2360
2.610055 82.976 -48.9233
2.628968 83.125 -49.6127
2.648019 83.270 -50.3042
2.667208 83.410 -50.9972
2.686535 83.546 -51.6905
2.706003 83.678 -52.3826
2.725612 83.805 -53.0718
2.745363 83.929 -53.7563
2.765257 84.050 -54.4345
2.785295 84.168 -55.1047
2.805478 84.283 -55.7652
2.825808 84.395 -56.4147
2.846285 84.505 -57.0520
2.866910 84.613 -57.6765
2.887685 84.720 -58.2883
2.908611 84.824 -58.8883
2.929688 84.926 -59.4781
2.950917 85.026 -60.0604
2.972301 85.122 -60.6374
2.993839 85.216 -61.2109
3.015534 85.306 -61.7819
3.037386 85.393 -62.3503
3.059396 85.477 -62.9153
3.081565 85.558 -63.4760
3.103896 85.637 -64.0309
3.126388 85.713 -64.5783
3.149043 85.786 -65.1164
3.171862 85.858 -65.6437
3.194847 85.928 -66.1583
3.217998 85.997 -66.6588
3.241317 86.064 -67.1441
3.264805 86.130 -67.6137
3.288463 86.194 -68.0677
3.312293 86.257 -68.5070
3.336295 86.318 -68.9329
3.360471 86.377 -69.3467
3.384822 86.434 -69.7495
3.409350 86.488 -70.1418
3.434056 86.541 -70.5238
3.458940 86.593 -70.8954
3.484005 86.643 -71.2563
3.509252 86.692 -71.6060
3.534681 86.740 -71.9437
3.560295 86.788 -72.2688
3.586094 86.836 -72.5804
3.612081 86.884 -72.8778
3.638255 86.932 -73.1602
3.664620 86.981 -73.4269
3.691175 87.030 -73.6778
3.717923 87.078 -73.9130
3.744864 87.127 -74.1331
3.772001 87.175 -74.3391
3.799335 87.223 -74.5321
3.826866 87.272 -74.7138
3.854597 87.321 -74.8855
3.882529 87.370 -75.0487
3.910664 87.421 -75.2047
3.939002 87.473 -75.3547
3.967546 87.526 -75.4994
3.996296 87.581 -75.6388
4.025255 87.638 -75.7728
4.054423 87.696 -75.9005
4.083804 87.756 -76.0216
4.113396 87.818 -76.1362
4.143204 87.882 -76.2450
4.173227 87.947 -76.3499
4.203468 88.013 -76.4529
4.233928 88.081 -76.5565
4.264609 88.151 -76.6632
4.295512 88.221 -76.7752
4.326639 88.293 -76.8945
4.357992 88.366 -77.0222
4.389572 88.441 -77.1589
4.421380 88.517 -77.3044
4.453419 88.595 -77.4580
4.485691 88.674 -77.6195
4.518196 88.754 -77.7889
4.550936 88.835 -77.9667
4.583914 88.918 -78.1540
4.617131 89.000 -78.3517
4.650589 89.083 -78.5613
4.684289 89.166 -78.7839
4.718233 89.249 -79.0205
4.752424 89.331 -79.2717
4.786862 89.413 -79.5378
4.821549 89.494 -79.8184
4.856488 89.576 -80.1130
4.891680 89.656 -80.4207
4.927127 89.736 -80.7404
4.962831 89.816 -81.0713
4.998794 89.894 -81.4124
5.035017 89.971 -81.7633
5.071503 90.046 -82.1235
5.108253 90.120 -82.4933
5.145270 90.192 -82.8727
5.182555 90.262 -83.2621
5.220110 90.330 -83.6610
5.257937 90.397 -84.0684
5.296038 90.462 -84.4829
5.334415 90.525 -84.9027
5.373071 90.586 -85.3257
5.412006 90.645 -85.7503
5.451224 90.703 -86.1754
5.490725 90.758 -86.6004
5.530514 90.812 -87.0254
5.570590 90.863 -87.4504
5.610957 90.913 -87.8753
5.651616 90.961 -88.2991
5.692570 91.008 -88.7208
5.733821 91.053 -89.1387
5.775370 91.096 -89.5515
5.817221 91.139 -89.9579
5.859375 91.181 -90.3570
5.901834 91.222 -90.7487
5.944602 91.262 -91.1332
5.987679 91.301 -91.5106
6.031068 91.340 -91.8812
6.074771 91.378 -92.2451
6.118792 91.416 -92.6024
6.163131 91.455 -92.9528
6.207792 91.494 -93.2961
6.252776 91.534 -93.6322
6.298086 91.574 -93.9614
6.343725 91.615 -94.2842
6.389694 91.656 -94.6018
6.435996 91.699 -94.9155
6.482634 91.742 -95.2267
6.529610 91.787 -95.5365
6.576926 91.833 -95.8459
6.624585 91.880 -96.1553
6.672590 91.929 -96.4653
6.720942 91.978 -96.7765
6.769645 92.030 -97.0899
6.818700 92.082 -97.4070
6.868111 92.135 -97.7292
6.917881 92.189 -98.0575
6.968010 92.244 -98.3930
7.018504 92.300 -98.7360
7.069362 92.357 -99.0866
7.120590 92.414 -99.4448
7.172189 92.471 -99.8109
7.224161 92.529 -100.1849
7.276511 92.586 -100.5670
7.329239 92.644 -100.9575
7.382350 92.700 -101.3562
7.435845 92.757 -101.7627
7.489729 92.813 -102.1762
7.544002 92.868 -102.5958
7.598669 92.923 -103.0203
7.653732 92.977 -103.4490
7.709194 93.030 -103.8811
7.765058 93.082 -104.3161
7.821327 93.132 -104.7532
7.878004 93.182 -105.1914
7.935091 93.231 -105.6296
7.992592 93.279 -106.0663
8.050510 93.327 -106.5008
8.108847 93.373 -106.9322
8.167607 93.419 -107.3603
8.226793 93.464 -107.7846
8.286408 93.509 -108.2046
8.346454 93.554 -108.6199
8.406936 93.598 -109.0300
8.467856 93.643 -109.4349
8.529218 93.687 -109.8346
8.591024 93.732 -110.2293
8.653278 93.777 -110.6196
8.715983 93.822 -111.0060
8.779143 93.868 -111.3890
8.842760 93.914 -111.7689
8.906839 93.961 -112.1463
8.971381 94.009 -112.5218
9.036392 94.057 -112.8963
9.101873 94.105 -113.2705
9.167829 94.154 -113.6450
9.234263 94.203 -114.0203
9.301178 94.252 -114.3967
9.368578 94.302 -114.7745
9.436467 94.351 -115.1540
9.504847 94.400 -115.5352
9.573723 94.449 -115.9184
9.643099 94.497 -116.3032
9.712976 94.544 -116.6895
9.783361 94.588 -117.0767
9.854255 94.630 -117.4643
9.925663 94.669 -117.8520
9.997588 94.706 -118.2391
10.070035 94.739 -118.6253
10.143007 94.770 -119.0097
10.216507 94.798 -119.3919
10.290540 94.824 -119.7713
10.365109 94.849 -120.1474
10.440219 94.872 -120.5202
10.515873 94.893 -120.8893
10.592076 94.914 -121.2545
10.668830 94.935 -121.6160
10.746141 94.955 -121.9736
10.824012 94.974 -122.3279
10.902447 94.994 -122.6790
10.981451 95.013 -123.0275
11.061027 95.032 -123.3738
11.141180 95.051 -123.7183
11.221913 95.070 -124.0614
11.303232 95.088 -124.4039
11.385140 95.106 -124.7460
11.467641 95.124 -125.0882
11.550741 95.142 -125.4306
11.634442 95.160 -125.7736
11.718750 95.177 -126.1171
11.803669 95.194 -126.4613
11.889203 95.211 -126.8060
11.975357 95.228 -127.1511
12.062136 95.244 -127.4963
12.149543 95.260 -127.8413
12.237583 95.276 -128.1860
12.326262 95.291 -128.5300
12.415583 95.306 -128.8731
12.505552 95.320 -129.2152
12.596172 95.333 -129.5561
12.687449 95.346 -129.8960
12.779387 95.358 -130.2348
12.871992 95.371 -130.5729
12.965268 95.382 -130.9104
13.059220 95.394 -131.2477
13.153852 95.406 -131.5852
13.249170 95.418 -131.9233
13.345179 95.429 -132.2625
13.441884 95.441 -132.6030
13.539289 95.454 -132.9454
13.637401 95.466 -133.2899
13.736223 95.478 -133.6367
13.835761 95.490 -133.9860
13.936021 95.502 -134.3378
14.037007 95.513 -134.6920
14.138725 95.524 -135.0488
14.241180 95.535 -135.4078
14.344377 95.545 -135.7690
14.448323 95.555 -136.1323
14.553021 95.564 -136.4975
14.658478 95.573 -136.8645
14.764700 95.582 -137.2333
14.871691 95.591 -137.6037
14.979457 95.600 -137.9758
15.088005 95.609 -138.3497
15.197339 95.617 -138.7251
15.307465 95.626 -139.1022
15.418389 95.635 -139.4808
15.530117 95.643 -139.8609
15.642655 95.652 -140.2423
15.756008 95.660 -140.6247
15.870182 95.668 -141.0079
15.985184 95.675 -141.3915
16.101019 95.683 -141.7752
16.217694 95.690 -142.1587
16.335214 95.697 -142.5417
16.453586 95.704 -142.9238
16.572815 95.711 -143.3051
16.692909 95.719 -143.6852
16.813872 95.727 -144.0642
16.935713 95.735 -144.4421
17.058436 95.744 -144.8190
17.182048 95.753 -145.1948
17.306556 95.762 -145.5697
17.431967 95.771 -145.9436
17.558286 95.780 -146.3163
17.685521 95.789 -146.6877
17.813677 95.797 -147.0576
17.942762 95.806 -147.4254
18.072783 95.814 -147.7910
18.203746 95.822 -148.1538
18.335658 95.830 -148.5135
18.468526 95.837 -148.8699
18.602356 95.845 -149.2229
18.737156 95.852 -149.5725
18.872934 95.860 -149.9188
19.009695 95.868 -150.2623
19.147447 95.876 -150.6033
19.286197 95.884 -150.9423
19.425953 95.892 -151.2796
19.566721 95.899 -151.6157
19.708510 95.907 -151.9509
19.851326 95.914 -152.2852
19.995177 95.921 -152.6187
20.140070 95.927 -152.9513
20.286013 95.933 -153.2828
20.433014 95.938 -153.6130
20.581080 95.942 -153.9419
20.730219 95.946 -154.2694
20.880439 95.950 -154.5957
21.031747 95.953 -154.9210
21.184152 95.956 -155.2456
21.337661 95.959 -155.5700
21.492282 95.962 -155.8946
21.648024 95.965 -156.2197
21.804895 95.967 -156.5458
21.962902 95.969 -156.8730
22.122054 95.971 -157.2013
22.282360 95.972 -157.5308
22.443827 95.972 -157.8614
22.606464 95.972 -158.1930
22.770280 95.972 -158.5255
22.935283 95.971 -158.8589
23.101481 95.970 -159.1932
23.268884 95.969 -159.5284
23.437500 95.967 -159.8644
23.607338 95.965 -160.2011
23.778406 95.962 -160.5383
23.950714 95.959 -160.8757
24.124271 95.955 -161.2129
24.299086 95.952 -161.5495
24.475167 95.948 -161.8853
24.652524 95.944 -162.2201
24.831166 95.940 -162.5541
25.011103 95.936 -162.8875
25.192344 95.932 -163.2207
25.374898 95.928 -163.5538
25.558775 95.925 -163.8870
25.743984 95.921 -164.2199
25.930536 95.917 -164.5516
26.118439 95.913 -164.8811
26.307704 95.908 -165.2071
26.498341 95.903 -165.5282
26.690359 95.899 -165.8438
26.883768 95.894 -166.1538
27.078579 95.890 -166.4591
27.274801 95.887 -166.7615
27.472446 95.884 -167.0637
27.671522 95.883 -167.3684
27.872042 95.881 -167.6782
28.074014 95.880 -167.9946
28.277450 95.877 -168.3177
28.482360 95.873 -168.6462
28.688755 95.867 -168.9769
28.896645 95.858 -169.3060
29.106042 95.847 -169.6291
29.316957 95.835 -169.9423
29.529400 95.821 -170.2432
29.743382 95.807 -170.5311
29.958915 95.794 -170.8072
30.176009 95.781 -171.0745
30.394677 95.770 -171.3370
30.614929 95.760 -171.5992
30.836778 95.750 -171.8646
31.060234 95.742 -172.1357
31.285309 95.733 -172.4134
31.512015 95.724 -172.6972
31.740364 95.714 -172.9854
31.970368 95.703 -173.2760
32.202039 95.691 -173.5673
32.435388 95.679 -173.8580
32.670428 95.667 -174.1480
32.907171 95.655 -174.4374
33.145630 95.643 -174.7270
33.385817 95.630 -175.0175
33.627745 95.618 -175.3090
33.871425 95.605 -175.6015
34.116871 95.592 -175.8942
34.364096 95.579 -176.1863
34.613113 95.566 -176.4772
34.863934 95.552 -176.7664
35.116572 95.538 -177.0537
35.371041 95.524 -177.3392
35.627354 95.510 -177.6231
35.885525 95.495 -177.9051
36.145566 95.480 -178.1849
36.407492 95.465 -178.4618
36.671316 95.449 -178.7351
36.937051 95.432 -179.0043
37.204712 95.416 -179.2693
37.474313 95.400 -179.5304
37.745867 95.383 -179.7885
38.019389 95.367 179.9553
38.294893 95.351 179.6997
38.572394 95.335 179.4437
38.851905 95.319 179.1865
39.133442 95.302 178.9280
39.417019 95.285 178.6683
39.702651 95.267 178.4081
39.990353 95.249 178.1483
40.280140 95.231 177.8895
40.572026 95.212 177.6323
40.866028 95.192 177.3771
41.162160 95.173 177.1235
41.460438 95.153 176.8715
41.760877 95.133 176.6207
42.063494 95.113 176.3712
42.368303 95.093 176.1234
42.675322 95.073 175.8773
42.984565 95.053 175.6330
43.296048 95.032 175.3902
43.609789 95.012 175.1481
43.925804 94.991 174.9064
44.244108 94.970 174.6650
44.564719 94.948 174.4250
44.887654 94.926 174.1879
45.212928 94.903 173.9556
45.540560 94.880 173.7290
45.870565 94.857 173.5083
46.202962 94.834 173.2921
46.537768 94.811 173.0786
46.875000 94.789 172.8657
47.214676 94.767 172.6520
47.556813 94.745 172.4371
47.901429 94.723 172.2213
48.248542 94.700 172.0053
48.598171 94.677 171.7904
48.950334 94.653 171.5778
49.305048 94.629 171.3684
49.662333 94.604 171.1632
50.022206 94.580 170.9626
50.384688 94.555 170.7665
50.749796 94.530 170.5739
51.117550 94.506 170.3834
51.487969 94.482 170.1932
51.861072 94.459 170.0024
52.236879 94.435 169.8107
52.615409 94.411 169.6190
52.996681 94.387 169.4286
53.380717 94.363 169.2405
53.767536 94.338 169.0550
54.157158 94.314 168.8715
54.549603 94.291 168.6891
54.944892 94.267 168.5071
55.343045 94.243 168.3253
55.744084 94.220 168.1439
56.148028 94.196 167.9631
56.554900 94.173 167.7824
56.964720 94.149 167.6006
57.377510 94.126 167.4164
57.793291 94.102 167.2289
58.212085 94.078 167.0388
58.633914 94.053 166.8478
59.058799 94.027 166.6584
59.486764 94.000 166.4721
59.917829 93.972 166.2889
60.352019 93.945 166.1071
60.789354 93.918 165.9243
61.229859 93.890 165.7395
61.673556 93.861 165.5535
62.120468 93.831 165.3694
62.570618 93.800 165.1910
63.024031 93.769 165.0207
63.480729 93.738 164.8581
63.940736 93.708 164.7011
64.404077 93.678 164.5465
64.870776 93.649 164.3923
65.340856 93.619 164.2382
65.814343 93.589 164.0857
66.291261 93.559 163.9368
66.771635 93.528 163.7927
67.255489 93.497 163.6527
67.742850 93.466 163.5156
68.233743 93.435 163.3804
68.728193 93.403 163.2473
69.226226 93.371 163.1166
69.727867 93.339 162.9885
70.233144 93.307 162.8618
70.742083 93.276 162.7353
71.254709 93.244 162.6080
71.771050 93.212 162.4804
72.291132 93.180 162.3531
72.814984 93.148 162.2274
73.342631 93.115 162.1044
73.874102 93.083 161.9856
74.409424 93.050 161.8718
74.948626 93.018 161.7629
75.491734 92.987 161.6577
76.038779 92.956 161.5548
76.589787 92.926 161.4528
77.144788 92.896 161.3502
77.703811 92.866 161.2459
78.266885 92.836 161.1390
78.834039 92.806 161.0287
79.405303 92.776 160.9143
79.980706 92.746 160.7955
80.560280 92.716 160.6723
81.144053 92.684 160.5456
81.732056 92.652 160.4169
82.324320 92.619 160.2883
82.920876 92.585 160.1623
83.521755 92.549 160.0415
84.126988 92.512 159.9280
84.736607 92.475 159.8231
85.350643 92.436 159.7274
85.969129 92.396 159.6412
86.592097 92.355 159.5650
87.219579 92.314 159.4989
87.851608 92.273 159.4423
88.488217 92.232 159.3937
89.129439 92.191 159.3510
89.775308 92.152 159.3117
90.425856 92.114 159.2733
91.081119 92.078 159.2328
91.741131 92.043 159.1856
92.405925 92.010 159.1266
93.075536 91.976 159.0552
93.750000 91.940 158.9786
94.429351 91.902 158.9087
95.113625 91.862 158.8553
95.802858 91.820 158.8233
96.497085 91.778 158.8135
97.196342 91.736 158.8243
97.900667 91.696 158.8521
98.610096 91.656 158.8938
99.324665 91.618 158.9473
100.044413 91.582 159.0096
100.769376 91.549 159.0764
101.499592 91.519 159.1435
102.235100 91.491 159.2078
102.975938 91.466 159.2680
103.722144 91.443 159.3239
104.473757 91.421 159.3755
105.230817 91.402 159.4208
105.993363 91.385 159.4547
106.761435 91.369 159.4702
107.535072 91.354 159.4612
108.314315 91.339 159.4250
109.099206 91.324 159.3620
109.889783 91.309 159.2746
110.686090 91.292 159.1675
111.488167 91.273 159.0469
112.296056 91.253 158.9197
113.109800 91.231 158.7936
113.929440 91.206 158.6763
114.755020 91.177 158.5760
115.586582 91.143 158.5009
116.424170 91.106 158.4572
117.267827 91.066 158.4454
118.117598 91.024 158.4596
118.973527 90.982 158.4882
119.835658 90.942 158.5179
120.704037 90.903 158.5369
121.578708 90.867 158.5392
122.459718 90.831 158.5267
123.347111 90.797 158.5059
124.240935 90.765 158.4838
125.141236 90.733 158.4664
126.048061 90.701 158.4572
126.961458 90.669 158.4574
127.881473 90.637 158.4656
128.808154 90.604 158.4792
129.741551 90.570 158.4951
130.681712 90.536 158.5106
131.628686 90.501 158.5238
132.582521 90.466 158.5342
133.543269 90.431 158.5422
134.510979 90.396 158.5493
135.485701 90.360 158.5582
136.467486 90.325 158.5714
137.456386 90.289 158.5909
138.452451 90.253 158.6175
139.455735 90.216 158.6506
140.466288 90.180 158.6891
141.484165 90.143 158.7316
142.509418 90.106 158.7768
143.542100 90.069 158.8240
144.582265 90.033 158.8729
145.629968 89.996 158.9239
146.685262 89.960 158.9774
147.748204 89.923 159.0344
148.818849 89.885 159.0960
149.897251 89.847 159.1638
150.983469 89.807 159.2402
152.077557 89.767 159.3276
153.179574 89.727 159.4278
154.289576 89.686 159.5415
155.407622 89.646 159.6672
156.533770 89.608 159.8000
157.668078 89.572 159.9334
158.810606 89.537 160.0622
159.961413 89.504 160.1833
161.120559 89.471 160.2972
162.288105 89.437 160.4061
163.464112 89.403 160.5134
164.648640 89.369 160.6227
165.841752 89.334 160.7373
167.043510 89.298 160.8607
168.253976 89.262 160.9958
169.473213 89.226 161.1442
170.701286 89.191 161.3049
171.938258 89.157 161.4744
173.184194 89.124 161.6481
174.439158 89.094 161.8223
175.703216 89.065 161.9948
176.976434 89.037 162.1640
178.258878 89.010 162.3289
179.550615 88.982 162.4876
180.851713 88.955 162.6383
182.162239 88.927 162.7797
183.482262 88.899 162.9134
184.811850 88.873 163.0447
186.151073 88.848 163.1835
187.500000 88.826 163.3416
188.858702 88.808 163.5256
190.227250 88.794 163.7300
191.605715 88.784 163.9372
192.994169 88.776 164.1311
194.392685 88.769 164.3073
195.801334 88.763 164.4683
197.220191 88.757 164.6193
198.649330 88.751 164.7646
200.088825 88.746 164.9058
201.538751 88.741 165.0399
202.999184 88.737 165.1598
204.470200 88.732 165.2566
205.951875 88.726 165.3247
207.444287 88.717 165.3652
208.947514 88.706 165.3854
210.461634 88.692 165.3947
211.986726 88.673 165.4020
213.522869 88.651 165.4156
215.070144 88.625 165.4426
216.628631 88.596 165.4879
218.198411 88.566 165.5525
219.779567 88.535 165.6335
221.372180 88.505 165.7258
222.976334 88.476 165.8234
224.592112 88.447 165.9214
226.219600 88.418 166.0180
227.858880 88.390 166.1144
229.510039 88.362 166.2144
231.173164 88.335 166.3209
232.848340 88.309 166.4342
234.535655 88.283 166.5524
236.235197 88.257 166.6737
237.947054 88.230 166.7964
239.671317 88.202 166.9194
241.408074 88.174 167.0436
243.157416 88.144 167.1711
244.919435 88.114 167.3047
246.694223 88.083 167.4474
248.481871 88.052 167.6017
250.282473 88.021 167.7702
252.096123 87.991 167.9543
253.922915 87.963 168.1529
255.762945 87.938 168.3604
257.616309 87.915 168.5671
259.483103 87.896 168.7631
261.363424 87.877 168.9426
263.257372 87.858 169.1072
265.165043 87.839 169.2638
267.086538 87.818 169.4207
269.021957 87.795 169.5846
270.971401 87.772 169.7592
272.934972 87.749 169.9452
274.912771 87.727 170.1411
276.904902 87.707 170.3447
278.911469 87.688 170.5537
280.932577 87.672 170.7652
282.968330 87.658 170.9750
285.018835 87.646 171.1771
287.084199 87.636 171.3646
289.164530 87.626 171.5321
291.259935 87.616 171.6790
293.370525 87.604 171.8107
295.496408 87.589 171.9363
297.637697 87.571 172.0650
299.794503 87.551 172.2030
301.966937 87.530 172.3524
304.155114 87.508 172.5125
306.359147 87.487 172.6803
308.579152 87.466 172.8526
310.815244 87.446 173.0268
313.067539 87.425 173.2017
315.336156 87.404 173.3785
317.621211 87.382 173.5608
319.922826 87.360 173.7521
322.241118 87.337 173.9542
324.576210 87.315 174.1656
326.928223 87.294 174.3832
329.297280 87.274 174.6037
331.683504 87.256 174.8240
334.087019 87.238 175.0417
336.507952 87.222 175.2549
338.946427 87.205 175.4633
341.402572 87.188 175.6683
343.876516 87.170 175.8728
346.368387 87.152 176.0794
348.878315 87.134 176.2897
351.406431 87.115 176.5038
353.952867 87.096 176.7213
356.517756 87.078 176.9410
359.101230 87.060 177.1622
361.703426 87.042 177.3846
364.324478 87.025 177.6080
366.964523 87.007 177.8323
369.623699 86.990 178.0582
372.302145 86.974 178.2863
375.000000 86.957 178.5170
377.717405 86.941 178.7502
380.454501 86.925 178.9854
383.211431 86.909 179.2222
385.988339 86.894 179.4612
388.785369 86.879 179.7029
391.602668 86.864 179.9479
394.440383 86.850 -179.8045
397.298660 86.836 -179.5553
400.177650 86.823 -179.3058
403.077502 86.810 -179.0578
405.998368 86.797 -178.8129
408.940400 86.784 -178.5713
411.903750 86.771 -178.3311
414.888575 86.757 -178.0887
417.895028 86.743 -177.8402
420.923268 86.728 -177.5828
423.973452 86.715 -177.3155
427.045738 86.703 -177.0397
430.140287 86.692 -176.7594
433.257261 86.684 -176.4792
436.396822 86.677 -176.2028
439.559133 86.671 -175.9315
442.744360 86.666 -175.6658
445.952668 86.662 -175.4079
449.184225 86.659 -175.1618
452.439199 86.657 -174.9325
455.717760 86.654 -174.7224
459.020079 86.649 -174.5275
462.346327 86.641 -174.3376
465.696680 86.630 -174.1413
469.071310 86.616 -173.9315
472.470394 86.602 -173.7065
475.894109 86.588 -173.4687
479.342634 86.575 -173.2238
482.816148 86.562 -172.9772
486.314833 86.548 -172.7309
489.838871 86.534 -172.4802
493.388445 86.519 -172.2177
496.963741 86.504 -171.9395
500.564945 86.491 -171.6493
504.192245 86.479 -171.3549
507.845830 86.469 -171.0632
511.525890 86.459 -170.7774
515.232618 86.449 -170.4965
518.966206 86.439 -170.2171
522.726849 86.428 -169.9341
526.514743 86.417 -169.6427
530.330086 86.406 -169.3404
534.173076 86.396 -169.0298
538.043915 86.387 -168.7157
541.942803 86.380 -168.4014
545.869944 86.372 -168.0865
549.825542 86.366 -167.7704
553.809805 86.360 -167.4543
557.822939 86.355 -167.1409
561.865154 86.350 -166.8319
565.936660 86.345 -166.5263
570.037671 86.340 -166.2211
574.168399 86.334 -165.9129
578.329060 86.328 -165.5998
582.519870 86.322 -165.2822
586.741049 86.316 -164.9604
590.992817 86.310 -164.6325
595.275394 86.304 -164.2960
599.589005 86.299 -163.9517
603.933874 86.295 -163.6037
608.310228 86.292 -163.2557
612.718295 86.289 -162.9086
617.158304 86.286 -162.5602
621.630488 86.283 -162.2048
626.135079 86.279 -161.8362
630.672311 86.276 -161.4524
635.242423 86.275 -161.0574
639.845651 86.277 -160.6577
644.482237 86.280 -160.2558
649.152421 86.285 -159.8508
653.856447 86.293 -159.4445
658.594560 86.304 -159.0435
663.367008 86.318 -158.6583
668.174039 86.332 -158.2965
673.015903 86.347 -157.9572
677.892854 86.359 -157.6321
682.805145 86.368 -157.3119
687.753032 86.376 -156.9898
692.736774 86.381 -156.6608
697.756631 86.386 -156.3205
702.812863 86.390 -155.9669
707.905735 86.395 -155.6018
713.035511 86.401 -155.2292
718.202461 86.408 -154.8530
723.406852 86.415 -154.4746
728.648956 86.423 -154.0935
733.929047 86.431 -153.7088
739.247399 86.439 -153.3202
744.604290 86.448 -152.9272
750.000000 86.457 -152.5288
755.434809 86.467 -152.1244
760.909001 86.478 -151.7134
766.422861 86.490 -151.2965
771.976677 86.502 -150.8748
777.570739 86.516 -150.4494
783.205337 86.531 -150.0210
788.880766 86.546 -149.5882
794.597321 86.563 -149.1481
800.355301 86.581 -148.6986
806.155005 86.602 -148.2411
811.996736 86.626 -147.7815
817.880799 86.654 -147.3284
823.807501 86.684 -146.8910
829.777150 86.717 -146.4770
835.790057 86.750 -146.0885
841.846536 86.782 -145.7188
847.946903 86.812 -145.3572
854.091476 86.839 -144.9956
860.280575 86.866 -144.6298
866.514523 86.891 -144.2569
872.793644 86.917 -143.8737
879.118267 86.942 -143.4805
885.488720 86.969 -143.0816
891.905336 86.997 -142.6806
898.368450 87.025 -142.2774
904.878398 87.055 -141.8696
911.435520 87.086 -141.4557
918.040157 87.118 -141.0372
924.692655 87.153 -140.6169
931.393359 87.190 -140.1984
938.142619 87.229 -139.7857
944.940787 87.269 -139.3807
951.788218 87.311 -138.9822
958.685268 87.353 -138.5879
965.632296 87.397 -138.1957
972.629666 87.441 -137.8035
979.677741 87.487 -137.4111
986.776890 87.534 -137.0190
993.927482 87.583 -136.6268
1001.129891 87.633 -136.2313
1008.384491 87.686 -135.8294
1015.691660 87.743 -135.4229
1023.051781 87.804 -135.0175
1030.465236 87.869 -134.6219
1037.932411 87.940 -134.2490
1045.453698 88.014 -133.9124
1053.029486 88.090 -133.6187
1060.660172 88.166 -133.3654
1068.346153 88.240 -133.1454
1076.087829 88.313 -132.9510
1083.885605 88.385 -132.7767
1091.739887 88.455 -132.6212
1099.651084 88.524 -132.4849
1107.619609 88.591 -132.3676
1115.645878 88.655 -132.2681
1123.730308 88.717 -132.1844
1131.873321 88.776 -132.1140
1140.075341 88.832 -132.0532
1148.336797 88.883 -131.9975
1156.658119 88.931 -131.9407
1165.039741 88.975 -131.8748
1173.482099 89.017 -131.7901
1181.985634 89.057 -131.6792
1190.550789 89.099 -131.5424
1199.178011 89.143 -131.3892
1207.867749 89.191 -131.2344
1216.620457 89.242 -131.0909
1225.436590 89.295 -130.9640
1234.316609 89.347 -130.8533
1243.260976 89.399 -130.7557
1252.270157 89.449 -130.6670
1261.344623 89.497 -130.5838
1270.484846 89.544 -130.5043
1279.691303 89.590 -130.4258
1288.964474 89.634 -130.3453
1298.304842 89.677 -130.2616
1307.712894 89.720 -130.1758
1317.189120 89.762 -130.0903
1326.734016 89.804 -130.0064
1336.348077 89.846 -129.9229
1346.031806 89.888 -129.8364
1355.785708 89.929 -129.7425
1365.610290 89.971 -129.6370
1375.506065 90.014 -129.5152
1385.473549 90.058 -129.3723
1395.513261 90.105 -129.2073
1405.625726 90.156 -129.0257
1415.811469 90.211 -128.8391
1426.071023 90.270 -128.6619
1436.404921 90.330 -128.5034
1446.813703 90.391 -128.3640
1457.297912 90.450 -128.2388
1467.858093 90.508 -128.1215
1478.494798 90.563 -128.0078
1489.208581 90.616 -127.8936
1500.000000 90.665 -127.7750
1510.869618 90.711 -127.6480
1521.818002 90.753 -127.5094
1532.845723 90.791 -127.3569
1543.953355 90.826 -127.1889
1555.141477 90.860 -127.0054
1566.410674 90.894 -126.8107
1577.761531 90.932 -126.6157
1589.194642 90.972 -126.4352
1600.710601 91.013 -126.2796
1612.310010 91.056 -126.1511
1623.993473 91.097 -126.0454
1635.761599 91.137 -125.9562
1647.615002 91.175 -125.8775
1659.554299 91.212 -125.8045
1671.580114 91.247 -125.7332
1683.693072 91.282 -125.6624
1695.893807 91.317 -125.5930
1708.182952 91.350 -125.5265
1720.561150 91.382 -125.4621
1733.029045 91.411 -125.3958
1745.587288 91.437 -125.3219
1758.236533 91.462 -125.2329
1770.977440 91.486 -125.1230
1783.810673 91.511 -124.9922
1796.736900 91.540 -124.8495
1809.756796 91.572 -124.7091
1822.871040 91.607 -124.5825
1836.080315 91.644 -124.4736
1849.385310 91.681 -124.3811
1862.786718 91.719 -124.3020
1876.285239 91.757 -124.2318
1889.881575 91.795 -124.1650
1903.576436 91.836 -124.0957
1917.370535 91.879 -124.0187
1931.264593 91.927 -123.9303
1945.259332 91.982 -123.8319
1959.355483 92.043 -123.7323
1973.553781 92.110 -123.6457
1987.854965 92.181 -123.5828
2002.259781 92.254 -123.5475
2016.768981 92.327 -123.5378
2031.383320 92.398 -123.5488
2046.103561 92.469 -123.5750
2060.930471 92.537 -123.6122
2075.864823 92.604 -123.6585
2090.907395 92.669 -123.7135
2106.058972 92.731 -123.7751
2121.320344 92.790 -123.8379
2136.692305 92.846 -123.8938
2152.175658 92.900 -123.9347
2167.771210 92.953 -123.9581
2183.479774 93.007 -123.9709
2199.302169 93.062 -123.9851
2215.239219 93.118 -124.0104
2231.291755 93.174 -124.0512
2247.460615 93.229 -124.1070
2263.746641 93.282 -124.1738
2280.150683 93.333 -124.2448
2296.673595 93.382 -124.3116
2313.316238 93.430 -124.3671
2330.079481 93.479 -124.4088
2346.964198 93.528 -124.4429
2363.971268 93.580 -124.4800
2381.101578 93.633 -124.5287
2398.356022 93.685 -124.5913
2415.735498 93.735 -124.6649
2433.240913 93.784 -124.7431
2450.873180 93.829 -124.8189
2468.633217 93.873 -124.8858
2486.521951 93.914 -124.9369
2504.540314 93.953 -124.9622
2522.689246 93.992 -124.9491
2540.969692 94.034 -124.8869
2559.382606 94.080 -124.7746
2577.928947 94.136 -124.6239
2596.609683 94.203 -124.4555
2615.425787 94.282 -124.2929
2634.378241 94.373 -124.1601
2653.468031 94.475 -124.0787
2672.696154 94.585 -124.0656
2692.063613 94.701 -124.1325
2711.571415 94.821 -124.2873
2731.220579 94.943 -124.5376
2751.012130 95.063 -124.8881
2770.947098 95.178 -125.3363
2791.026522 95.286 -125.8717
2811.251451 95.383 -126.4775
2831.622938 95.468 -127.1350
2852.142045 95.542 -127.8269
2872.809842 95.605 -128.5379
2893.627406 95.656 -129.2520
2914.595823 95.697 -129.9530
2935.716186 95.730 -130.6285
2956.989596 95.757 -131.2751
2978.417161 95.780 -131.8968
3000.000000 95.799 -132.5008
3021.739237 95.816 -133.0921
3043.636005 95.828 -133.6708
3065.691446 95.836 -134.2314
3087.906710 95.840 -134.7656
3110.282955 95.842 -135.2686
3132.821347 95.844 -135.7426
3155.523062 95.846 -136.1943
3178.389283 95.847 -136.6311
3201.421202 95.849 -137.0579
3224.620020 95.851 -137.4773
3247.986946 95.851 -137.8901
3271.523198 95.849 -138.2934
3295.230004 95.846 -138.6791
3319.108599 95.841 -139.0377
3343.160228 95.838 -139.3650
3367.386145 95.837 -139.6654
3391.787613 95.841 -139.9489
3416.365904 95.849 -140.2268
3441.122300 95.861 -140.5065
3466.058091 95.878 -140.7906
3491.174576 95.898 -141.0807
3516.473066 95.923 -141.3830
3541.954880 95.953 -141.7084
3567.621345 95.985 -142.0686
3593.473800 96.020 -142.4727
3619.513592 96.054 -142.9262
3645.742080 96.085 -143.4297
3672.160630 96.111 -143.9768
3698.770620 96.130 -144.5541
3725.573436 96.143 -145.1480
3752.570477 96.149 -145.7502
3779.763150 96.150 -146.3571
3807.152872 96.143 -146.9664
3834.741071 96.129 -147.5716
3862.529185 96.108 -148.1615
3890.518664 96.080 -148.7254
3918.710966 96.047 -149.2586
3947.107561 96.012 -149.7630
3975.709929 95.976 -150.2444
4004.519563 95.939 -150.7112
4033.537962 95.901 -151.1709
4062.766641 95.862 -151.6260
4092.207123 95.821 -152.0721
4121.860942 95.777 -152.5042
4151.729646 95.732 -152.9210
4181.814790 95.686 -153.3252
4212.117944 95.638 -153.7180
4242.640687 95.588 -154.0952
4273.384610 95.536 -154.4495
4304.351317 95.484 -154.7771
4335.542421 95.432 -155.0811
4366.959549 95.383 -155.3711
4398.604338 95.336 -155.6605
4430.478438 95.290 -155.9628
4462.583511 95.246 -156.2845
4494.921231 95.200 -156.6252
4527.493283 95.153 -156.9830
4560.301365 95.104 -157.3570
4593.347189 95.052 -157.7457
4626.632476 94.995 -158.1416
4660.158962 94.933 -158.5319
4693.928395 94.867 -158.9042
4727.942535 94.798 -159.2517
4762.203156 94.728 -159.5753
4796.712043 94.658 -159.8825
4831.470996 94.589 -160.1825
4866.481826 94.520 -160.4803
4901.746360 94.451 -160.7775
4937.266434 94.381 -161.0760
4973.043902 94.309 -161.3782
5009.080628 94.234 -161.6826
5045.378492 94.154 -161.9803
5081.939384 94.070 -162.2590
5118.765212 93.982 -162.5088
5155.857894 93.892 -162.7257
5193.219366 93.801 -162.9129
5230.851574 93.709 -163.0759
5268.756481 93.617 -163.2180
5306.936062 93.524 -163.3401
5345.392309 93.430 -163.4445
5384.127225 93.334 -163.5326
5423.142830 93.234 -163.6004
5462.441159 93.132 -163.6386
5502.024259 93.027 -163.6367
5541.894195 92.921 -163.5890
5582.053045 92.817 -163.4983
5622.502902 92.716 -163.3734
5663.245876 92.620 -163.2240
5704.284090 92.528 -163.0600
5745.619684 92.440 -162.8923
5787.254813 92.355 -162.7302
5829.191647 92.272 -162.5755
5871.432373 92.190 -162.4220
5913.979192 92.107 -162.2597
5956.834323 92.025 -162.0802
6000.000000 91.944 -161.8808
6043.478473 91.865 -161.6618
6087.272010 91.790 -161.4258
6131.382892 91.719 -161.1783
6175.813420 91.651 -160.9265
6220.565910 91.587 -160.6742
6265.642695 91.525 -160.4200
6311.046124 91.465 -160.1591
6356.778566 91.408 -159.8884
6402.842404 91.356 -159.6091
6449.240040 91.308 -159.3259
6495.973891 91.265 -159.0462
6543.046396 91.228 -158.7799
6590.460007 91.194 -158.5351
6638.217197 91.164 -158.3130
6686.320456 91.135 -158.1082
6734.772290 91.107 -157.9119
6783.575226 91.081 -157.7171
6832.731809 91.057 -157.5195
6882.244600 91.035 -157.3179
6932.116181 91.016 -157.1158
6982.349153 91.001 -156.9187
7032.946133 90.989 -156.7303
7083.909760 90.981 -156.5499
7135.242690 90.979 -156.3763
7186.947600 90.985 -156.2107
7239.027185 91.002 -156.0597
7291.484160 91.032 -155.9379
7344.321260 91.078 -155.8692
7397.541239 91.141 -155.8827
7451.146872 91.219 -156.0074
7505.140954 91.313 -156.2707
7559.526299 91.420 -156.6999
7614.305743 91.538 -157.3229
7669.482141 91.664 -158.1689
7725.058371 91.794 -159.2679
7781.037328 91.919 -160.6458
7837.421932 92.032 -162.3161
7894.215122 92.123 -164.2745
7951.419859 92.182 -166.5004
8009.039125 92.201 -168.9586
8067.075924 92.174 -171.6037
8125.533282 92.096 -174.3854
8184.414245 91.963 -177.2508
8243.721885 91.771 179.8579
8303.459292 91.520 177.0042
8363.629581 91.209 174.2541
8424.235888 90.841 171.6720
8485.281374 90.421 169.3145
8546.769221 89.956 167.2238
8608.702634 89.453 165.4274
8671.084842 88.918 163.9429
8733.919097 88.357 162.7835
8797.208675 87.776 161.9614
8860.956876 87.180 161.4890
8925.167022 86.573 161.3755
8989.842461 85.963 161.6240
9054.986566 85.354 162.2354
9120.602731 84.750 163.2151
9186.694378 84.155 164.5779
9253.264952 83.576 166.3507
9320.317925 83.019 168.5660
9387.856790 82.496 171.2507
9455.885071 82.021 174.4175
9524.406312 81.612 178.0546
9593.424086 81.290 -177.8880
9662.941992 81.076 -173.5140
9732.963653 80.989 -169.0016
9803.492719 81.039 -164.6023
9874.532869 81.219 -160.6030
9946.087805 81.508 -157.2638
10018.161257 81.871 -154.7588
10090.756983 82.271 -153.1537
10163.878768 82.670 -152.4185
10237.530423 83.036 -152.4543
10311.715789 83.345 -153.1178
10386.438732 83.582 -154.2415
10461.703149 83.739 -155.6486
10537.512962 83.815 -157.1721
10613.872125 83.817 -158.6698
10690.784618 83.754 -160.0331
10768.254450 83.639 -161.1864
10846.285661 83.484 -162.0808
10924.882318 83.300 -162.6887
11004.048518 83.100 -163.0027
11083.788390 82.894 -163.0349
11164.106090 82.691 -162.8118
11245.005805 82.498 -162.3642
11326.491752 82.319 -161.7199
11408.568180 82.157 -160.9042
11491.239368 82.015 -159.9442
11574.509626 81.896 -158.8692
11658.383294 81.800 -157.7046
11742.864745 81.728 -156.4680
11827.958384 81.680 -155.1727
11913.668646 81.656 -153.8327
12000.000000 81.658 -152.4644
12086.956947 81.686 -151.0811
12174.544019 81.738 -149.6921
12262.765784 81.818 -148.3056
12351.626840 81.925 -146.9346
12441.131819 82.062 -145.5949
12531.285389 82.229 -144.3002
12622.092249 82.428 -143.0618
12713.557132 82.661 -141.8941
12805.684808 82.930 -140.8189
12898.480079 83.236 -139.8619
12991.947783 83.582 -139.0501
13086.092792 83.969 -138.4142
13180.920015 84.398 -137.9946
13276.434395 84.870 -137.8408
13372.640911 85.383 -138.0074
13469.544580 85.935 -138.5513
13567.150452 86.518 -139.5347
13665.463617 87.125 -141.0220
13764.489200 87.744 -143.0719
13864.232362 88.360 -145.7274
13964.698305 88.955 -149.0134
14065.892266 89.510 -152.9317
14167.819519 90.006 -157.4542
14270.485380 90.423 -162.5157
14373.895200 90.745 -168.0147
14478.054370 90.959 -173.8185
14582.968320 91.061 -179.7712
14688.642520 91.051 174.2956
14795.082478 90.940 168.5430
14902.293745 90.745 163.1061
15010.281908 90.489 158.0820
15119.052599 90.201 153.5231
15228.611486 89.914 149.4316
15338.964283 89.661 145.7567
15450.116741 89.477 142.3972
15562.074656 89.389 139.2057
15674.843864 89.419 135.9932
15788.430244 89.574 132.5381
15902.839718 89.846 128.6044
16018.078250 90.211 123.9655
16134.151848 90.625 118.4284
16251.066563 91.036 111.8621
16368.828491 91.380 104.2257
16487.443769 91.595 95.5942
16606.918584 91.625 86.1728
16727.259161 91.427 76.2916
16848.471777 90.978 66.3640
16970.562748 90.281 56.8076
17093.538442 89.356 47.9691
17217.405268 88.237 40.0908
17342.169684 86.964 33.3088
17467.838194 85.579 27.6712
17594.417350 84.123 23.1589
17721.913751 82.632 19.7056
17850.334044 81.141 17.2101
17979.684923 79.679 15.5491
18109.973131 78.268 14.5924
18241.205462 76.925 14.2137
18373.388756 75.658 14.2987
18506.529905 74.470 14.7522
18640.635849 73.359 15.4979
18775.713581 72.319 16.4760
18911.770141 71.341 17.6420
19048.812624 70.418 18.9659
19186.848172 69.543 20.4248
19325.883983 68.715 21.9949
19465.927305 67.944 23.6404
19606.985439 67.250 25.2950
19749.065738 66.670 26.8373
19892.175609 66.248 28.0764
20036.322514 66.025 28.7822
