* Measurement data measured by REW V5.30.5
* Source: EXCL: Microphone (Realtek(R) Audio), MICROPHONE (Master Volume), L, volume: 1.000
* Format: 256k Log Swept Sine, 1 sweep at -16.0 dBFS with no timing reference
* Dated: Feb 21, 2024 12:21:25 AM
* REW Settings:
*  C-weighting compensation: Off
*  Target level: 75.0 dB
* Note: ND X12 011
* Measurement: L ND X12 011
* Smoothing: 1/12 octave
* Frequency Step: 96 ppo
* Start Frequency: 0.36621094 Hz
*
* Freq(Hz) SPL(dB) Phase(degrees)
0.366211 71.369 143.9182
0.368865 71.362 143.8544
0.371538 71.352 143.7589
0.374230 71.340 143.6390
0.376942 71.327 143.5010
0.379673 71.312 143.3496
0.382424 71.297 143.1877
0.385196 71.281 143.0173
0.387987 71.266 142.8394
0.390798 71.249 142.6545
0.393630 71.233 142.4628
0.396483 71.217 142.2645
0.399356 71.200 142.0594
0.402250 71.184 141.8475
0.405165 71.167 141.6288
0.408101 71.150 141.4031
0.411058 71.133 141.1702
0.414037 71.116 140.9301
0.417037 71.099 140.6826
0.420059 71.081 140.4276
0.423103 71.064 140.1649
0.426169 71.046 139.8944
0.429257 71.028 139.6160
0.432367 71.010 139.3296
0.435501 70.992 139.0349
0.438656 70.974 138.7318
0.441835 70.956 138.4201
0.445037 70.937 138.0998
0.448262 70.919 137.7707
0.451510 70.900 137.4325
0.454782 70.881 137.0852
0.458077 70.862 136.7286
0.461397 70.843 136.3625
0.464740 70.824 135.9867
0.468108 70.805 135.6011
0.471500 70.785 135.2055
0.474917 70.765 134.7998
0.478358 70.746 134.3837
0.481825 70.726 133.9572
0.485316 70.705 133.5199
0.488833 70.685 133.0718
0.492375 70.665 132.6127
0.495943 70.644 132.1424
0.499537 70.624 131.6607
0.503157 70.603 131.1674
0.506803 70.582 130.6624
0.510475 70.561 130.1455
0.514174 70.539 129.6165
0.517900 70.518 129.0753
0.521653 70.496 128.5217
0.525433 70.475 127.9554
0.529241 70.453 127.3765
0.533076 70.431 126.7846
0.536939 70.408 126.1796
0.540830 70.386 125.5614
0.544749 70.363 124.9299
0.548696 70.341 124.2848
0.552673 70.318 123.6260
0.556677 70.295 122.9535
0.560711 70.272 122.2670
0.564774 70.248 121.5665
0.568867 70.225 120.8519
0.572989 70.201 120.1230
0.577141 70.177 119.3798
0.581324 70.153 118.6221
0.585536 70.129 117.8500
0.589779 70.104 117.0633
0.594053 70.080 116.2620
0.598358 70.055 115.4461
0.602694 70.030 114.6155
0.607061 70.005 113.7702
0.611460 69.979 112.9102
0.615891 69.954 112.0356
0.620354 69.928 111.1464
0.624849 69.902 110.2426
0.629377 69.876 109.3243
0.633938 69.850 108.3915
0.638532 69.824 107.4444
0.643159 69.797 106.4831
0.647819 69.770 105.5076
0.652514 69.743 104.5182
0.657242 69.716 103.5150
0.662005 69.689 102.4981
0.666802 69.661 101.4677
0.671634 69.633 100.4241
0.676501 69.605 99.3673
0.681403 69.577 98.2977
0.686341 69.549 97.2154
0.691314 69.520 96.1207
0.696324 69.492 95.0137
0.701369 69.464 93.8946
0.706452 69.437 92.7636
0.711571 69.411 91.6206
0.716727 69.388 90.4654
0.721921 69.370 89.2978
0.727153 69.357 88.1172
0.732422 69.353 86.9226
0.737729 69.360 85.7132
0.743075 69.376 84.4881
0.748460 69.400 83.2472
0.753883 69.431 81.9904
0.759346 69.467 80.7185
0.764849 69.509 79.4324
0.770391 69.554 78.1332
0.775974 69.603 76.8223
0.781597 69.656 75.5012
0.787261 69.712 74.1713
0.792965 69.771 72.8343
0.798712 69.834 71.4919
0.804499 69.899 70.1456
0.810329 69.968 68.7970
0.816201 70.041 67.4480
0.822116 70.116 66.1000
0.828073 70.194 64.7546
0.834073 70.275 63.4134
0.840118 70.360 62.0779
0.846205 70.447 60.7494
0.852337 70.537 59.4293
0.858514 70.630 58.1190
0.864735 70.726 56.8195
0.871001 70.824 55.5319
0.877313 70.925 54.2573
0.883670 71.029 52.9965
0.890074 71.135 51.7504
0.896523 71.243 50.5195
0.903020 71.354 49.3047
0.909564 71.467 48.1062
0.916155 71.583 46.9247
0.922793 71.700 45.7603
0.929480 71.819 44.6134
0.936216 71.941 43.4840
0.943000 72.063 42.3723
0.949833 72.188 41.2783
0.956716 72.314 40.2019
0.963649 72.441 39.1430
0.970632 72.570 38.1014
0.977666 72.699 37.0768
0.984750 72.830 36.0691
0.991886 72.961 35.0778
0.999074 73.093 34.1027
1.006313 73.225 33.1432
1.013605 73.357 32.1990
1.020950 73.490 31.2696
1.028349 73.622 30.3545
1.035801 73.754 29.4533
1.043306 73.885 28.5652
1.050867 74.016 27.6899
1.058482 74.146 26.8268
1.066152 74.274 25.9752
1.073878 74.402 25.1344
1.081659 74.529 24.3038
1.089498 74.654 23.4826
1.097393 74.780 22.6702
1.105345 74.905 21.8659
1.113355 75.030 21.0691
1.121422 75.157 20.2795
1.129549 75.284 19.4968
1.137734 75.413 18.7209
1.145978 75.544 17.9519
1.154283 75.675 17.1899
1.162647 75.809 16.4348
1.171072 75.943 15.6868
1.179558 76.080 14.9460
1.188106 76.217 14.2125
1.196715 76.356 13.4863
1.205387 76.496 12.7676
1.214122 76.637 12.0564
1.222920 76.780 11.3527
1.231781 76.923 10.6567
1.240708 77.068 9.9683
1.249698 77.213 9.2876
1.258754 77.359 8.6147
1.267875 77.506 7.9495
1.277063 77.654 7.2921
1.286317 77.802 6.6425
1.295638 77.951 6.0006
1.305027 78.101 5.3665
1.314484 78.250 4.7403
1.324009 78.400 4.1218
1.333603 78.550 3.5110
1.343267 78.699 2.9079
1.353001 78.849 2.3125
1.362805 78.999 1.7248
1.372681 79.148 1.1447
1.382628 79.296 0.5721
1.392647 79.444 0.0071
1.402739 79.591 -0.5506
1.412904 79.737 -1.1009
1.423142 79.883 -1.6439
1.433455 80.027 -2.1798
1.443842 80.170 -2.7089
1.454305 80.311 -3.2313
1.464843 80.452 -3.7475
1.475458 80.591 -4.2578
1.486150 80.729 -4.7625
1.496919 80.866 -5.2621
1.507766 81.003 -5.7568
1.518692 81.138 -6.2470
1.529697 81.273 -6.7328
1.540782 81.407 -7.2143
1.551947 81.540 -7.6919
1.563193 81.672 -8.1657
1.574521 81.804 -8.6358
1.585931 81.934 -9.1024
1.597423 82.065 -9.5657
1.608998 82.194 -10.0259
1.620658 82.323 -10.4830
1.632402 82.452 -10.9374
1.644231 82.580 -11.3891
1.656146 82.707 -11.8383
1.668147 82.834 -12.2852
1.680235 82.961 -12.7299
1.692410 83.087 -13.1727
1.704674 83.213 -13.6136
1.717027 83.339 -14.0529
1.729469 83.464 -14.4906
1.742002 83.590 -14.9271
1.754625 83.715 -15.3623
1.767340 83.840 -15.7966
1.780147 83.966 -16.2300
1.793046 84.091 -16.6628
1.806040 84.216 -17.0949
1.819127 84.341 -17.5267
1.832309 84.466 -17.9582
1.845587 84.591 -18.3894
1.858961 84.715 -18.8204
1.872431 84.838 -19.2511
1.886000 84.961 -19.6816
1.899666 85.083 -20.1116
1.913432 85.205 -20.5411
1.927298 85.325 -20.9701
1.941264 85.445 -21.3985
1.955331 85.565 -21.8261
1.969500 85.684 -22.2529
1.983772 85.802 -22.6788
1.998147 85.919 -23.1038
2.012626 86.036 -23.5278
2.027211 86.153 -23.9507
2.041901 86.269 -24.3726
2.056697 86.385 -24.7933
2.071601 86.501 -25.2129
2.086613 86.616 -25.6314
2.101733 86.732 -26.0487
2.116963 86.847 -26.4648
2.132303 86.962 -26.8798
2.147755 87.077 -27.2938
2.163318 87.191 -27.7067
2.178995 87.306 -28.1188
2.194785 87.421 -28.5302
2.210689 87.535 -28.9411
2.226709 87.649 -29.3516
2.242844 87.762 -29.7619
2.259097 87.875 -30.1720
2.275467 87.987 -30.5820
2.291956 88.099 -30.9918
2.308565 88.210 -31.4015
2.325294 88.321 -31.8110
2.342144 88.431 -32.2202
2.359116 88.541 -32.6292
2.376211 88.650 -33.0379
2.393430 88.759 -33.4463
2.410774 88.867 -33.8544
2.428243 88.975 -34.2621
2.445839 89.083 -34.6695
2.463562 89.191 -35.0766
2.481415 89.298 -35.4833
2.499396 89.405 -35.8899
2.517508 89.512 -36.2962
2.535750 89.619 -36.7025
2.554126 89.726 -37.1088
2.572634 89.832 -37.5153
2.591276 89.938 -37.9221
2.610054 90.043 -38.3294
2.628967 90.148 -38.7372
2.648018 90.253 -39.1454
2.667206 90.357 -39.5542
2.686534 90.460 -39.9635
2.706002 90.563 -40.3732
2.725610 90.666 -40.7833
2.745361 90.768 -41.1938
2.765255 90.870 -41.6047
2.785294 90.971 -42.0158
2.805477 91.072 -42.4273
2.825807 91.173 -42.8392
2.846284 91.273 -43.2514
2.866909 91.373 -43.6640
2.887684 91.473 -44.0772
2.908609 91.572 -44.4912
2.929686 91.671 -44.9060
2.950916 91.770 -45.3220
2.972299 91.868 -45.7393
2.993838 91.966 -46.1579
3.015532 92.063 -46.5778
3.037384 92.160 -46.9990
3.059394 92.256 -47.4213
3.081564 92.352 -47.8446
3.103894 92.447 -48.2686
3.126386 92.541 -48.6932
3.149041 92.636 -49.1183
3.171861 92.729 -49.5436
3.194845 92.823 -49.9691
3.217996 92.916 -50.3947
3.241315 93.008 -50.8204
3.264803 93.100 -51.2462
3.288461 93.192 -51.6725
3.312291 93.283 -52.0993
3.336293 93.374 -52.5271
3.360469 93.464 -52.9558
3.384820 93.554 -53.3858
3.409348 93.643 -53.8167
3.434054 93.731 -54.2486
3.458938 93.819 -54.6813
3.484003 93.907 -55.1145
3.509250 93.994 -55.5481
3.534679 94.080 -55.9819
3.560293 94.166 -56.4157
3.586092 94.251 -56.8494
3.612079 94.336 -57.2831
3.638253 94.421 -57.7168
3.664618 94.505 -58.1507
3.691173 94.588 -58.5852
3.717921 94.671 -59.0204
3.744862 94.753 -59.4565
3.771999 94.835 -59.8935
3.799332 94.916 -60.3312
3.826864 94.996 -60.7693
3.854595 95.076 -61.2077
3.882527 95.156 -61.6460
3.910661 95.235 -62.0840
3.938999 95.313 -62.5215
3.967543 95.391 -62.9583
3.996294 95.469 -63.3943
4.025252 95.546 -63.8297
4.054421 95.623 -64.2647
4.083801 95.699 -64.6995
4.113394 95.775 -65.1343
4.143201 95.850 -65.5691
4.173225 95.924 -66.0039
4.203466 95.998 -66.4387
4.233926 96.072 -66.8732
4.264606 96.145 -67.3074
4.295509 96.218 -67.7411
4.326636 96.290 -68.1741
4.357989 96.362 -68.6066
4.389569 96.434 -69.0383
4.421378 96.505 -69.4696
4.453417 96.576 -69.9006
4.485688 96.647 -70.3313
4.518193 96.717 -70.7619
4.550934 96.787 -71.1925
4.583912 96.856 -71.6230
4.617129 96.926 -72.0535
4.650587 96.994 -72.4839
4.684287 97.063 -72.9141
4.718231 97.131 -73.3443
4.752421 97.199 -73.7744
4.786859 97.267 -74.2045
4.821547 97.335 -74.6347
4.856485 97.402 -75.0651
4.891677 97.469 -75.4959
4.927125 97.535 -75.9271
4.962829 97.602 -76.3589
4.998791 97.668 -76.7913
5.035015 97.734 -77.2245
5.071500 97.800 -77.6586
5.108251 97.865 -78.0936
5.145267 97.930 -78.5296
5.182552 97.995 -78.9669
5.220107 98.060 -79.4053
5.257934 98.124 -79.8450
5.296035 98.188 -80.2860
5.334412 98.252 -80.7283
5.373067 98.315 -81.1721
5.412003 98.378 -81.6174
5.451221 98.441 -82.0642
5.490722 98.503 -82.5128
5.530510 98.565 -82.9633
5.570587 98.627 -83.4156
5.610953 98.688 -83.8698
5.651613 98.748 -84.3258
5.692567 98.808 -84.7834
5.733818 98.868 -85.2426
5.775367 98.927 -85.7032
5.817218 98.986 -86.1651
5.859372 99.044 -86.6285
5.901831 99.102 -87.0934
5.944598 99.159 -87.5599
5.987675 99.215 -88.0278
6.031065 99.271 -88.4969
6.074768 99.326 -88.9669
6.118788 99.380 -89.4375
6.163127 99.434 -89.9084
6.207788 99.487 -90.3795
6.252772 99.540 -90.8508
6.298082 99.592 -91.3223
6.343721 99.643 -91.7938
6.389690 99.693 -92.2653
6.435992 99.743 -92.7363
6.482630 99.792 -93.2064
6.529606 99.841 -93.6753
6.576922 99.889 -94.1428
6.624581 99.936 -94.6088
6.672585 99.983 -95.0732
6.720938 100.029 -95.5360
6.769640 100.075 -95.9970
6.818696 100.120 -96.4561
6.868107 100.165 -96.9130
6.917876 100.209 -97.3675
6.968006 100.253 -97.8194
7.018499 100.297 -98.2687
7.069358 100.340 -98.7155
7.120586 100.383 -99.1598
7.172184 100.426 -99.6017
7.224157 100.468 -100.0411
7.276506 100.511 -100.4781
7.329235 100.553 -100.9126
7.382345 100.595 -101.3447
7.435841 100.638 -101.7746
7.489724 100.680 -102.2023
7.543997 100.722 -102.6283
7.598664 100.764 -103.0525
7.653728 100.807 -103.4754
7.709189 100.849 -103.8969
7.765053 100.891 -104.3173
7.821322 100.934 -104.7368
7.877998 100.977 -105.1554
7.935086 101.019 -105.5736
7.992587 101.062 -105.9915
8.050504 101.105 -106.4094
8.108841 101.148 -106.8273
8.167601 101.191 -107.2455
8.226787 101.234 -107.6640
8.286402 101.277 -108.0829
8.346449 101.320 -108.5023
8.406931 101.363 -108.9224
8.467851 101.406 -109.3432
8.529212 101.449 -109.7647
8.591018 101.492 -110.1870
8.653272 101.534 -110.6099
8.715977 101.577 -111.0334
8.779137 101.619 -111.4576
8.842754 101.661 -111.8823
8.906833 101.703 -112.3075
8.971375 101.744 -112.7331
9.036386 101.786 -113.1591
9.101867 101.827 -113.5853
9.167823 101.868 -114.0116
9.234257 101.908 -114.4380
9.301172 101.949 -114.8644
9.368572 101.989 -115.2908
9.436460 102.028 -115.7172
9.504841 102.068 -116.1434
9.573717 102.107 -116.5696
9.643092 102.146 -116.9956
9.712970 102.185 -117.4215
9.783354 102.223 -117.8474
9.854248 102.262 -118.2732
9.925656 102.299 -118.6989
9.997581 102.337 -119.1247
10.070028 102.374 -119.5504
10.143000 102.411 -119.9761
10.216500 102.447 -120.4017
10.290533 102.483 -120.8273
10.365103 102.519 -121.2528
10.440212 102.554 -121.6780
10.515866 102.589 -122.1029
10.592069 102.623 -122.5272
10.668823 102.656 -122.9509
10.746134 102.689 -123.3737
10.824005 102.722 -123.7953
10.902440 102.753 -124.2155
10.981443 102.784 -124.6340
11.061020 102.815 -125.0504
11.141172 102.845 -125.4645
11.221906 102.874 -125.8760
11.303225 102.903 -126.2844
11.385133 102.931 -126.6896
11.467634 102.958 -127.0911
11.550734 102.985 -127.4889
11.634435 103.012 -127.8827
11.718742 103.038 -128.2723
11.803661 103.064 -128.6576
11.889195 103.090 -129.0387
11.975349 103.115 -129.4156
12.062128 103.141 -129.7883
12.149535 103.167 -130.1572
12.237576 103.192 -130.5224
12.326254 103.218 -130.8845
12.415575 103.244 -131.2437
12.505544 103.270 -131.6008
12.596164 103.296 -131.9561
12.687441 103.323 -132.3104
12.779379 103.350 -132.6644
12.871984 103.377 -133.0187
12.965260 103.405 -133.3742
13.059211 103.432 -133.7315
13.153843 103.460 -134.0913
13.249161 103.488 -134.4542
13.345170 103.516 -134.8208
13.441875 103.544 -135.1916
13.539280 103.571 -135.5668
13.637391 103.598 -135.9468
13.736214 103.625 -136.3313
13.835752 103.650 -136.7203
13.936011 103.675 -137.1134
14.036998 103.699 -137.5101
14.138716 103.721 -137.9095
14.241171 103.742 -138.3107
14.344368 103.762 -138.7126
14.448313 103.780 -139.1140
14.553011 103.797 -139.5137
14.658468 103.812 -139.9101
14.764689 103.826 -140.3021
14.871680 103.839 -140.6884
14.979446 103.851 -141.0679
15.087994 103.861 -141.4397
15.197328 103.872 -141.8032
15.307454 103.882 -142.1581
15.418378 103.891 -142.5044
15.530106 103.901 -142.8425
15.642643 103.912 -143.1732
15.755996 103.923 -143.4976
15.870171 103.934 -143.8170
15.985172 103.947 -144.1331
16.101007 103.961 -144.4475
16.217682 103.976 -144.7621
16.335201 103.991 -145.0784
16.453573 104.007 -145.3979
16.572803 104.024 -145.7217
16.692898 104.041 -146.0508
16.813862 104.058 -146.3855
16.935701 104.076 -146.7258
17.058424 104.092 -147.0714
17.182035 104.108 -147.4216
17.306543 104.124 -147.7752
17.431953 104.138 -148.1310
17.558273 104.152 -148.4877
17.685509 104.165 -148.8440
17.813665 104.177 -149.1987
17.942751 104.188 -149.5506
18.072771 104.199 -149.8992
18.203733 104.210 -150.2440
18.335646 104.220 -150.5848
18.468513 104.231 -150.9221
18.602345 104.242 -151.2563
18.737144 104.253 -151.5883
18.872921 104.265 -151.9193
19.009682 104.277 -152.2502
19.147434 104.290 -152.5824
19.286184 104.303 -152.9170
19.425940 104.317 -153.2552
19.566708 104.330 -153.5979
19.708496 104.343 -153.9457
19.851313 104.356 -154.2990
19.995163 104.369 -154.6577
20.140057 104.380 -155.0213
20.285999 104.390 -155.3885
20.433001 104.398 -155.7576
20.581066 104.404 -156.1263
20.730206 104.408 -156.4915
20.880424 104.411 -156.8497
21.031733 104.411 -157.1972
21.184137 104.409 -157.5301
21.337646 104.406 -157.8450
21.492268 104.403 -158.1393
21.648010 104.399 -158.4114
21.804880 104.397 -158.6617
21.962887 104.398 -158.8924
22.122040 104.401 -159.1077
22.282345 104.408 -159.3137
22.443811 104.419 -159.5181
22.606449 104.435 -159.7295
22.770266 104.454 -159.9563
22.935268 104.476 -160.2057
23.101467 104.499 -160.4831
23.268869 104.523 -160.7911
23.437485 104.545 -161.1292
23.607323 104.563 -161.4934
23.778391 104.578 -161.8770
23.950699 104.587 -162.2711
24.124256 104.591 -162.6658
24.299070 104.590 -163.0512
24.475151 104.585 -163.4189
24.652508 104.576 -163.7629
24.831150 104.567 -164.0804
25.011087 104.557 -164.3724
25.192327 104.549 -164.6430
25.374882 104.543 -164.8990
25.558758 104.540 -165.1484
25.743967 104.538 -165.3991
25.930519 104.539 -165.6575
26.118422 104.540 -165.9273
26.307686 104.541 -166.2091
26.498322 104.541 -166.5005
26.690340 104.538 -166.7966
26.883749 104.533 -167.0916
27.078560 104.526 -167.3795
27.274782 104.518 -167.6560
27.472427 104.510 -167.9193
27.671503 104.503 -168.1701
27.872023 104.497 -168.4123
28.073996 104.493 -168.6512
28.277431 104.492 -168.8933
28.482342 104.492 -169.1443
28.688736 104.494 -169.4082
28.896626 104.495 -169.6866
29.106022 104.496 -169.9783
29.316936 104.495 -170.2800
29.529379 104.492 -170.5870
29.743361 104.488 -170.8942
29.958893 104.482 -171.1973
30.175987 104.475 -171.4934
30.394655 104.467 -171.7812
30.614908 104.460 -172.0614
30.836756 104.453 -172.3358
31.060211 104.447 -172.6069
31.285286 104.443 -172.8770
31.511992 104.438 -173.1482
31.740341 104.435 -173.4215
31.970345 104.432 -173.6976
32.202015 104.429 -173.9770
32.435364 104.426 -174.2598
32.670403 104.423 -174.5468
32.907146 104.420 -174.8384
33.145607 104.417 -175.1353
33.385796 104.413 -175.4368
33.627724 104.408 -175.7416
33.871403 104.401 -176.0465
34.116848 104.392 -176.3474
34.364071 104.381 -176.6397
34.613087 104.370 -176.9194
34.863907 104.357 -177.1840
35.116547 104.346 -177.4338
35.371017 104.335 -177.6718
35.627331 104.326 -177.9032
35.885502 104.319 -178.1339
36.145542 104.313 -178.3695
36.407467 104.306 -178.6128
36.671291 104.300 -178.8635
36.937027 104.291 -179.1181
37.204689 104.280 -179.3706
37.474289 104.266 -179.6144
37.745842 104.252 -179.8442
38.019363 104.236 179.9424
38.294868 104.222 179.7444
38.572369 104.209 179.5570
38.851879 104.197 179.3733
39.133415 104.188 179.1853
39.416992 104.180 178.9860
39.702625 104.173 178.7708
39.990326 104.165 178.5385
40.280113 104.155 178.2913
40.571999 104.143 178.0346
40.866001 104.129 177.7751
41.162132 104.112 177.5190
41.460411 104.094 177.2701
41.760849 104.077 177.0284
42.063465 104.060 176.7900
42.368275 104.045 176.5483
42.675293 104.032 176.2970
42.984535 104.018 176.0326
43.296021 104.004 175.7564
43.609760 103.989 175.4740
43.925774 103.972 175.1934
44.244080 103.954 174.9216
44.564690 103.936 174.6625
44.887623 103.919 174.4153
45.212898 103.905 174.1759
45.540531 103.891 173.9388
45.870537 103.880 173.6994
46.202934 103.869 173.4550
46.537739 103.857 173.2054
46.874969 103.844 172.9528
47.214645 103.830 172.7023
47.556782 103.812 172.4614
47.901398 103.792 172.2397
48.248512 103.771 172.0453
48.598141 103.751 171.8806
48.950302 103.734 171.7385
49.305016 103.721 171.6028
49.662300 103.714 171.4522
50.022175 103.709 171.2688
50.384655 103.704 171.0446
50.749763 103.696 170.7844
51.117516 103.682 170.5023
51.487934 103.662 170.2150
51.861038 103.637 169.9362
52.236843 103.609 169.6741
52.615372 103.578 169.4318
52.996643 103.546 169.2105
53.380680 103.514 169.0107
53.767498 103.482 168.8317
54.157120 103.452 168.6700
54.549564 103.425 168.5193
54.944855 103.400 168.3713
55.343006 103.378 168.2177
55.744045 103.357 168.0519
56.147991 103.336 167.8710
56.554863 103.315 167.6763
56.964684 103.291 167.4757
57.377472 103.264 167.2820
57.793251 103.236 167.1093
58.212044 103.209 166.9659
58.633873 103.186 166.8474
59.058758 103.170 166.7363
59.486721 103.161 166.6089
59.917786 103.155 166.4462
60.351974 103.150 166.2443
60.789310 103.142 166.0150
61.229816 103.129 165.7788
61.673512 103.112 165.5541
62.120422 103.092 165.3493
62.570572 103.071 165.1622
63.023983 103.048 164.9862
63.480682 103.024 164.8173
63.940689 102.997 164.6567
64.404030 102.969 164.5072
64.870728 102.940 164.3670
65.340805 102.913 164.2274
65.814293 102.887 164.0751
66.291214 102.864 163.8986
66.771591 102.841 163.6919
67.255447 102.819 163.4550
67.742805 102.796 163.1939
68.233696 102.771 162.9219
68.728142 102.744 162.6592
69.226173 102.717 162.4264
69.727814 102.691 162.2342
70.233093 102.669 162.0768
70.742035 102.649 161.9394
71.254662 102.628 161.8113
71.771004 102.604 161.6935
72.291084 102.573 161.5927
72.814934 102.535 161.5113
73.342583 102.489 161.4449
73.874054 102.435 161.3854
74.409378 102.374 161.3244
74.948578 102.304 161.2578
75.491684 102.226 161.1953
76.038727 102.143 161.1652
76.589737 102.065 161.1970
77.144737 102.003 161.2823
77.703758 101.970 161.3549
78.266830 101.966 161.3192
78.833984 101.983 161.1108
79.405251 102.005 160.7346
79.980652 102.022 160.2507
80.560226 102.029 159.7329
81.143997 102.024 159.2361
81.732002 102.008 158.7900
82.324265 101.977 158.4152
82.920822 101.930 158.1417
83.521698 101.870 158.0071
84.126930 101.803 158.0299
84.736549 101.742 158.1792
85.350586 101.692 158.3768
85.969070 101.654 158.5385
86.592041 101.624 158.6189
87.219521 101.597 158.6206
87.851547 101.572 158.5698
88.488159 101.552 158.4901
89.129379 101.540 158.3925
89.775246 101.535 158.2795
90.425797 101.539 158.1558
91.081062 101.548 158.0346
91.741074 101.563 157.9207
92.405869 101.583 157.7873
93.075478 101.604 157.5860
93.749939 101.615 157.2840
94.429291 101.602 156.8864
95.113564 101.557 156.4409
95.802795 101.474 156.0449
96.497025 101.362 155.8190
97.196281 101.241 155.8283
97.900604 101.140 156.0266
98.610031 101.074 156.2935
99.324600 101.048 156.5159
100.044350 101.052 156.6307
100.769310 101.076 156.6286
101.499527 101.103 156.5458
102.235031 101.120 156.4448
102.975868 101.119 156.3869
103.722076 101.096 156.4062
104.473686 101.051 156.4959
105.230743 100.988 156.6094
105.993286 100.911 156.6730
106.761360 100.827 156.6082
107.534996 100.746 156.3649
108.314240 100.676 155.9489
109.099129 100.627 155.4296
109.889709 100.606 154.9321
110.686012 100.617 154.6146
111.488091 100.657 154.6252
112.295982 100.715 155.0452
113.109726 100.776 155.8478
113.929367 100.814 156.9047
114.754944 100.795 158.0734
115.586502 100.691 159.3296
116.424088 100.497 160.8038
117.267746 100.242 162.6738
118.117516 99.986 165.0146
118.973442 99.798 167.5463
119.835571 99.727 169.3370
120.703949 99.762 169.3041
121.578621 99.851 167.3172
122.459633 99.961 164.2127
123.347023 100.087 160.9250
124.240845 100.211 157.9991
125.141144 100.296 155.6346
126.047966 100.301 153.8692
126.961365 100.206 152.6887
127.881378 100.025 152.0249
128.808060 99.798 151.7422
129.741455 99.580 151.6771
130.681610 99.424 151.6738
131.628586 99.362 151.6223
132.582428 99.390 151.5266
133.543182 99.476 151.5130
134.510895 99.585 151.7289
135.485611 99.686 152.2257
136.467392 99.760 152.9341
137.456284 99.794 153.7325
138.452347 99.788 154.5054
139.455627 99.755 155.1517
140.466187 99.706 155.6092
141.484070 99.652 155.8977
142.509323 99.602 156.0916
143.542007 99.561 156.2465
144.582169 99.523 156.3844
145.629868 99.482 156.5081
146.685165 99.434 156.5840
147.748108 99.377 156.5436
148.818756 99.315 156.3333
149.897156 99.251 155.9685
150.983368 99.189 155.5430
152.077454 99.138 155.1813
153.179474 99.104 154.9646
154.289474 99.085 154.8941
155.407516 99.074 154.9110
156.533661 99.063 154.9373
157.667969 99.052 154.9057
158.810501 99.048 154.7692
159.961304 99.066 154.5060
161.120453 99.115 154.1234
162.287994 99.192 153.6528
163.464005 99.276 153.1520
164.648529 99.331 152.7263
165.841644 99.332 152.5307
167.043396 99.273 152.6901
168.253860 99.174 153.1627
169.473099 99.058 153.7572
170.701172 98.944 154.2974
171.938141 98.842 154.7212
173.184082 98.760 155.0587
174.439041 98.700 155.3582
175.703094 98.658 155.6411
176.976318 98.625 155.8922
178.258759 98.593 156.0770
179.550491 98.557 156.1720
180.851593 98.517 156.1868
182.162125 98.476 156.1650
183.482147 98.435 156.1682
184.811737 98.394 156.2492
186.150955 98.351 156.4268
187.499878 98.304 156.6751
188.858582 98.255 156.9335
190.227127 98.208 157.1248
191.605591 98.167 157.1913
192.994049 98.130 157.1355
194.392563 98.096 157.0093
195.801208 98.060 156.8741
197.220062 98.020 156.7723
198.649200 97.974 156.7209
200.088699 97.923 156.7169
201.538620 97.872 156.7502
202.999054 97.821 156.8146
204.470062 97.773 156.9106
205.951736 97.727 157.0425
207.444153 97.682 157.2077
208.947372 97.640 157.3916
210.461487 97.604 157.5788
211.986572 97.576 157.7735
213.522720 97.556 158.0026
215.069992 97.543 158.2948
216.628479 97.541 158.6612
218.198257 97.558 159.0999
219.779419 97.608 159.6207
221.372025 97.704 160.2562
222.976181 97.842 161.0260
224.591965 97.997 161.8643
226.219452 98.126 162.5804
227.858734 98.182 162.9498
229.509888 98.137 162.8997
231.173004 98.003 162.5142
232.848175 97.822 161.9268
234.535492 97.642 161.2838
236.235031 97.491 160.7211
237.946884 97.375 160.3162
239.671143 97.283 160.0605
241.407898 97.201 159.8949
243.157242 97.123 159.7758
244.919266 97.050 159.7097
246.694046 96.989 159.7293
248.481689 96.947 159.8350
250.282288 96.922 159.9927
252.095932 96.907 160.1747
253.922729 96.896 160.3689
255.762756 96.884 160.5659
257.616119 96.869 160.7533
259.482910 96.853 160.9196
261.363220 96.834 161.0613
263.257172 96.813 161.1852
265.164856 96.788 161.3021
267.086365 96.760 161.4228
269.021790 96.730 161.5551
270.971222 96.698 161.7030
272.934784 96.667 161.8666
274.912567 96.637 162.0435
276.904694 96.608 162.2311
278.911255 96.579 162.4290
280.932373 96.553 162.6377
282.968140 96.528 162.8537
285.018646 96.504 163.0673
287.084015 96.481 163.2640
289.164337 96.457 163.4316
291.259735 96.433 163.5695
293.370331 96.406 163.6920
295.496216 96.377 163.8204
297.637512 96.344 163.9672
299.794312 96.310 164.1258
301.966736 96.278 164.2756
304.154907 96.248 164.3994
306.358948 96.221 164.4990
308.578949 96.197 164.5917
310.815033 96.174 164.6943
313.067322 96.151 164.8154
315.335938 96.128 164.9580
317.621002 96.103 165.1231
319.922607 96.076 165.3071
322.240906 96.047 165.4992
324.575989 96.016 165.6875
326.928009 95.983 165.8671
329.297058 95.951 166.0423
331.683289 95.921 166.2221
334.086792 95.893 166.4134
336.507721 95.867 166.6164
338.946198 95.843 166.8263
341.402344 95.821 167.0380
343.876282 95.799 167.2490
346.368164 95.778 167.4594
348.878082 95.757 167.6713
351.406189 95.736 167.8871
353.952637 95.713 168.1085
356.517517 95.690 168.3353
359.100983 95.667 168.5652
361.703186 95.644 168.7953
364.324249 95.622 169.0233
366.964294 95.600 169.2465
369.623474 95.581 169.4630
372.301910 95.562 169.6730
374.999756 95.543 169.8822
377.717163 95.523 170.1003
380.454254 95.501 170.3351
383.211182 95.478 170.5849
385.988098 95.455 170.8427
388.785126 95.433 171.1028
391.602417 95.411 171.3626
394.440125 95.390 171.6205
397.298401 95.370 171.8760
400.177399 95.351 172.1303
403.077240 95.333 172.3835
405.998108 95.315 172.6339
408.940125 95.298 172.8806
411.903473 95.281 173.1255
414.888306 95.262 173.3728
417.894745 95.242 173.6262
420.922974 95.221 173.8880
423.973145 95.201 174.1591
427.045441 95.184 174.4398
430.139984 95.168 174.7292
433.256958 95.156 175.0243
436.396515 95.146 175.3205
439.558838 95.136 175.6137
442.744049 95.127 175.8999
445.952362 95.119 176.1754
449.183929 95.112 176.4363
452.438904 95.106 176.6795
455.717468 95.099 176.9037
459.019775 95.090 177.1130
462.346008 95.077 177.3170
465.696350 95.061 177.5267
469.070984 95.044 177.7496
472.470062 95.027 177.9883
475.893768 95.011 178.2398
479.342285 94.996 178.4978
482.815796 94.981 178.7552
486.314484 94.967 179.0095
489.838531 94.951 179.2659
493.388092 94.934 179.5337
496.963379 94.918 179.8183
500.564575 94.903 -179.8834
504.191864 94.890 -179.5788
507.845459 94.879 -179.2738
511.525513 94.868 -178.9706
515.232239 94.856 -178.6686
518.965820 94.845 -178.3659
522.726440 94.833 -178.0588
526.514343 94.820 -177.7434
530.329712 94.808 -177.4175
534.172729 94.797 -177.0833
538.043579 94.787 -176.7464
541.942444 94.779 -176.4102
545.869568 94.772 -176.0747
549.825134 94.766 -175.7388
553.809387 94.761 -175.4029
557.822510 94.756 -175.0687
561.864746 94.751 -174.7367
565.936279 94.745 -174.4056
570.037292 94.739 -174.0732
574.168030 94.733 -173.7375
578.328674 94.727 -173.3988
582.519470 94.722 -173.0593
586.740662 94.717 -172.7197
590.992432 94.712 -172.3766
595.275024 94.707 -172.0253
599.588623 94.703 -171.6651
603.933472 94.699 -171.2990
608.309814 94.696 -170.9306
612.717896 94.693 -170.5610
617.157898 94.691 -170.1883
621.630066 94.689 -169.8079
626.134644 94.688 -169.4152
630.671875 94.688 -169.0090
635.242004 94.690 -168.5923
639.845215 94.694 -168.1696
644.481812 94.700 -167.7426
649.151978 94.707 -167.3119
653.856018 94.718 -166.8801
658.594116 94.731 -166.4535
663.366577 94.747 -166.0420
668.173584 94.765 -165.6543
673.015442 94.783 -165.2920
677.892395 94.799 -164.9488
682.804688 94.814 -164.6167
687.752563 94.827 -164.2892
692.736328 94.839 -163.9611
697.756165 94.849 -163.6275
702.812378 94.860 -163.2861
707.905273 94.870 -162.9398
713.035034 94.881 -162.5947
718.201965 94.890 -162.2561
723.406372 94.898 -161.9255
728.648499 94.902 -161.5999
733.928589 94.902 -161.2706
739.246948 94.899 -160.9237
744.603821 94.894 -160.5423
749.999512 94.888 -160.1128
755.434326 94.883 -159.6319
760.908508 94.883 -159.1094
766.422363 94.888 -158.5624
771.976196 94.898 -158.0076
777.570251 94.913 -157.4557
783.204834 94.932 -156.9105
788.880249 94.952 -156.3703
794.596802 94.974 -155.8290
800.354797 94.996 -155.2800
806.154480 95.021 -154.7196
811.996216 95.048 -154.1482
817.880249 95.079 -153.5689
823.806946 95.115 -152.9881
829.776611 95.155 -152.4141
835.789490 95.199 -151.8525
841.845947 95.246 -151.3024
847.946289 95.296 -150.7609
854.090881 95.350 -150.2297
860.279968 95.406 -149.7147
866.513916 95.464 -149.2211
872.793030 95.523 -148.7490
879.117676 95.584 -148.2972
885.488098 95.645 -147.8653
891.904724 95.705 -147.4510
898.367859 95.765 -147.0491
904.877808 95.824 -146.6534
911.434937 95.883 -146.2587
918.039551 95.941 -145.8633
924.692017 95.999 -145.4683
931.392700 96.057 -145.0770
938.141968 96.116 -144.6930
944.940125 96.174 -144.3173
951.787537 96.233 -143.9474
958.684570 96.291 -143.5801
965.631592 96.350 -143.2125
972.628967 96.409 -142.8434
979.677063 96.469 -142.4725
986.776184 96.529 -142.1003
993.926758 96.590 -141.7245
1001.129150 96.651 -141.3400
1008.383728 96.713 -140.9430
1015.690918 96.777 -140.5358
1023.051025 96.845 -140.1246
1030.464478 96.918 -139.7180
1037.931641 96.994 -139.3265
1045.452881 97.074 -138.9617
1053.028687 97.155 -138.6289
1060.659424 97.235 -138.3242
1068.345459 97.314 -138.0385
1076.087158 97.391 -137.7616
1083.884888 97.467 -137.4867
1091.739136 97.542 -137.2113
1099.650269 97.617 -136.9354
1107.618774 97.692 -136.6595
1115.645020 97.766 -136.3837
1123.729492 97.840 -136.1089
1131.872559 97.915 -135.8358
1140.074585 97.990 -135.5639
1148.336060 98.065 -135.2919
1156.657349 98.141 -135.0185
1165.038940 98.218 -134.7426
1173.481323 98.296 -134.4628
1181.984863 98.376 -134.1795
1190.550049 98.459 -133.8978
1199.177246 98.545 -133.6277
1207.866943 98.634 -133.3803
1216.619629 98.723 -133.1611
1225.435791 98.811 -132.9664
1234.315796 98.896 -132.7871
1243.260132 98.979 -132.6138
1252.269287 99.060 -132.4387
1261.343750 99.140 -132.2573
1270.484009 99.218 -132.0683
1279.690430 99.296 -131.8706
1288.963623 99.374 -131.6632
1298.303955 99.453 -131.4474
1307.712036 99.532 -131.2268
1317.188232 99.614 -131.0055
1326.733154 99.696 -130.7858
1336.347168 99.779 -130.5673
1346.030884 99.862 -130.3470
1355.784790 99.945 -130.1202
1365.609375 100.028 -129.8818
1375.505127 100.113 -129.6265
1385.472656 100.199 -129.3501
1395.512329 100.288 -129.0529
1405.624756 100.383 -128.7423
1415.810547 100.482 -128.4316
1426.070068 100.587 -128.1363
1436.403931 100.695 -127.8660
1446.812744 100.806 -127.6207
1457.296997 100.917 -127.3941
1467.857178 101.030 -127.1790
1478.493896 101.143 -126.9708
1489.207642 101.257 -126.7662
1499.999023 101.373 -126.5628
1510.868652 101.489 -126.3589
1521.817017 101.607 -126.1529
1532.844727 101.728 -125.9436
1543.952393 101.851 -125.7298
1555.140503 101.979 -125.5115
1566.409668 102.113 -125.2929
1577.760498 102.253 -125.0855
1589.193604 102.399 -124.9045
1600.709595 102.550 -124.7602
1612.308960 102.703 -124.6542
1623.992432 102.857 -124.5819
1635.760498 103.013 -124.5372
1647.613892 103.169 -124.5156
1659.553223 103.327 -124.5143
1671.578979 103.486 -124.5313
1683.691895 103.648 -124.5675
1695.892578 103.812 -124.6256
1708.181763 103.978 -124.7086
1720.559937 104.146 -124.8170
1733.027832 104.316 -124.9497
1745.586060 104.488 -125.1045
1758.235352 104.662 -125.2783
1770.976196 104.839 -125.4686
1783.809448 105.021 -125.6792
1796.735718 105.209 -125.9221
1809.755615 105.403 -126.2146
1822.869873 105.601 -126.5709
1836.079102 105.801 -126.9974
1849.384033 106.002 -127.4952
1862.785400 106.202 -128.0629
1876.283936 106.401 -128.6980
1889.880249 106.598 -129.3972
1903.575073 106.791 -130.1566
1917.369141 106.981 -130.9726
1931.263184 107.169 -131.8431
1945.257935 107.354 -132.7695
1959.354126 107.536 -133.7592
1973.552368 107.715 -134.8224
1987.853516 107.889 -135.9657
2002.258301 108.055 -137.1884
2016.767456 108.211 -138.4842
2031.381836 108.356 -139.8444
2046.102051 108.490 -141.2612
2060.928955 108.611 -142.7293
2075.863281 108.720 -144.2457
2090.905762 108.814 -145.8068
2106.057373 108.893 -147.4048
2121.318848 108.954 -149.0264
2136.690918 108.995 -150.6526
2152.174316 109.018 -152.2610
2167.769775 109.024 -153.8319
2183.478271 109.014 -155.3525
2199.300537 108.991 -156.8158
2215.237549 108.957 -158.2163
2231.290039 108.912 -159.5493
2247.458984 108.860 -160.8121
2263.745117 108.803 -162.0057
2280.149170 108.741 -163.1345
2296.672119 108.677 -164.2054
2313.314697 108.612 -165.2268
2330.077881 108.546 -166.2089
2346.962646 108.478 -167.1648
2363.969727 108.409 -168.1057
2381.100098 108.334 -169.0349
2398.354492 108.253 -169.9465
2415.733887 108.163 -170.8281
2433.239258 108.063 -171.6643
2450.871582 107.955 -172.4406
2468.631592 107.838 -173.1460
2486.520264 107.716 -173.7709
2504.538574 107.587 -174.3054
2522.687500 107.454 -174.7372
2540.968018 107.321 -175.0551
2559.380859 107.189 -175.2556
2577.927246 107.063 -175.3457
2596.607910 106.945 -175.3389
2615.424072 106.838 -175.2497
2634.376465 106.741 -175.0919
2653.466309 106.656 -174.8774
2672.694336 106.583 -174.6162
2692.061768 106.523 -174.3172
2711.569580 106.477 -173.9913
2731.218750 106.445 -173.6563
2751.010254 106.428 -173.3353
2770.945312 106.423 -173.0499
2791.024658 106.429 -172.8156
2811.249512 106.442 -172.6402
2831.621094 106.459 -172.5259
2852.140137 106.478 -172.4710
2872.807861 106.495 -172.4697
2893.625488 106.509 -172.5089
2914.593994 106.519 -172.5691
2935.714355 106.524 -172.6302
2956.987793 106.526 -172.6800
2978.415283 106.527 -172.7145
2999.998047 106.528 -172.7341
3021.737305 106.530 -172.7396
3043.634033 106.531 -172.7304
3065.689453 106.534 -172.7029
3087.904785 106.538 -172.6527
3110.281006 106.546 -172.5806
3132.819336 106.558 -172.4968
3155.520996 106.577 -172.4169
3178.387207 106.600 -172.3564
3201.419189 106.627 -172.3272
3224.617920 106.654 -172.3363
3247.984863 106.678 -172.3848
3271.520996 106.697 -172.4644
3295.227783 106.708 -172.5547
3319.106445 106.709 -172.6262
3343.157959 106.701 -172.6481
3367.383789 106.687 -172.5934
3391.785156 106.670 -172.4404
3416.363525 106.654 -172.1733
3441.119873 106.644 -171.7822
3466.055664 106.646 -171.2647
3491.172119 106.666 -170.6316
3516.470703 106.710 -169.9117
3541.952393 106.782 -169.1479
3567.618896 106.883 -168.3891
3593.471436 107.013 -167.6813
3619.511230 107.168 -167.0638
3645.739746 107.345 -166.5655
3672.158203 107.540 -166.2020
3698.768066 107.749 -165.9776
3725.570801 107.969 -165.8938
3752.567871 108.199 -165.9562
3779.760498 108.438 -166.1747
3807.150146 108.681 -166.5593
3834.738281 108.928 -167.1156
3862.526367 109.175 -167.8443
3890.515869 109.420 -168.7465
3918.708252 109.662 -169.8285
3947.104736 109.899 -171.1000
3975.707031 110.125 -172.5709
4004.516602 110.337 -174.2477
4033.534912 110.528 -176.1302
4062.763672 110.691 -178.2067
4092.204102 110.822 179.5470
4121.857910 110.915 177.1619
4151.726562 110.967 174.6718
4181.811523 110.975 172.1140
4212.114746 110.936 169.5320
4242.637695 110.848 166.9784
4273.381836 110.711 164.5106
4304.348633 110.528 162.1829
4335.539551 110.304 160.0417
4366.956543 110.046 158.1238
4398.601074 109.758 156.4560
4430.475098 109.448 155.0568
4462.580078 109.121 153.9412
4494.917969 108.786 153.1210
4527.490234 108.448 152.5999
4560.298340 108.115 152.3701
4593.344238 107.795 152.4144
4626.629395 107.493 152.7122
4660.155762 107.215 153.2405
4693.925293 106.968 153.9687
4727.939453 106.757 154.8530
4762.200195 106.586 155.8360
4796.708984 106.458 156.8492
4831.467773 106.370 157.8215
4866.478516 106.321 158.6893
4901.743164 106.302 159.4009
4937.263184 106.307 159.9148
4973.040527 106.326 160.2022
5009.077148 106.349 160.2528
5045.375000 106.366 160.0779
5081.936035 106.367 159.7054
5118.761719 106.345 159.1744
5155.854492 106.295 158.5305
5193.215820 106.214 157.8221
5230.848145 106.100 157.1010
5268.752930 105.951 156.4233
5306.932617 105.770 155.8434
5345.388672 105.561 155.4069
5384.123535 105.329 155.1467
5423.139160 105.081 155.0869
5462.437500 104.823 155.2436
5502.020508 104.559 155.6254
5541.890625 104.297 156.2331
5582.049316 104.043 157.0576
5622.499023 103.802 158.0798
5663.242188 103.579 159.2711
5704.280273 103.378 160.5936
5745.615723 103.199 162.0051
5787.250977 103.042 163.4678
5829.187988 102.904 164.9589
5871.428711 102.781 166.4720
5913.975586 102.672 168.0109
5956.830566 102.576 169.5811
5999.996094 102.491 171.1841
6043.474609 102.420 172.8182
6087.268066 102.361 174.4802
6131.378906 102.315 176.1643
6175.809570 102.282 177.8642
6220.562012 102.261 179.5776
6265.638672 102.251 -178.6916
6311.041992 102.253 -176.9355
6356.774414 102.268 -175.1483
6402.838379 102.296 -173.3287
6449.235840 102.338 -171.4792
6495.969727 102.397 -169.6060
6543.041992 102.473 -167.7198
6590.455566 102.566 -165.8302
6638.212891 102.677 -163.9424
6686.315918 102.806 -162.0556
6734.767578 102.953 -160.1676
6783.570312 103.120 -158.2794
6832.727051 103.309 -156.3955
6882.239746 103.523 -154.5254
6932.111328 103.762 -152.6844
6982.344238 104.029 -150.8906
7032.941406 104.324 -149.1592
7083.904785 104.649 -147.5023
7135.237793 105.005 -145.9322
7186.942871 105.397 -144.4674
7239.022461 105.826 -143.1347
7291.479492 106.296 -141.9729
7344.316406 106.809 -141.0341
7397.536133 107.364 -140.3792
7451.141602 107.958 -140.0729
7505.135742 108.588 -140.1828
7559.520996 109.246 -140.7800
7614.300293 109.922 -141.9367
7669.476562 110.600 -143.7205
7725.052734 111.262 -146.1865
7781.031738 111.884 -149.3647
7837.416504 112.439 -153.2446
7894.209473 112.902 -157.7669
7951.414062 113.248 -162.8219
8009.033203 113.459 -168.2530
8067.069824 113.524 -173.8680
8125.527344 113.439 -179.4592
8184.408203 113.211 175.1762
8243.715820 112.852 170.2183
8303.453125 112.383 165.8118
8363.623047 111.826 162.0587
8424.229492 111.207 159.0174
8485.275391 110.550 156.7034
8546.763672 109.880 155.0919
8608.697266 109.217 154.1261
8671.079102 108.577 153.7313
8733.913086 107.973 153.8272
8797.202148 107.410 154.3384
8860.950195 106.893 155.1979
8925.160156 106.425 156.3436
8989.835938 106.008 157.7148
9054.980469 105.640 159.2547
9120.596680 105.322 160.9143
9186.688477 105.050 162.6557
9253.258789 104.822 164.4514
9320.311523 104.638 166.2768
9387.850586 104.498 168.1025
9455.878906 104.399 169.8942
9524.400391 104.340 171.6168
9593.417969 104.320 173.2408
9662.935547 104.335 174.7441
9732.957031 104.384 176.1064
9803.486328 104.466 177.3017
9874.526367 104.577 178.2980
9946.081055 104.716 179.0629
10018.154297 104.877 179.5691
10090.750000 105.058 179.7959
10163.872070 105.255 179.7213
10237.523438 105.463 179.3178
10311.708984 105.676 178.5547
10386.431641 105.887 177.4050
10461.696289 106.087 175.8535
10537.505859 106.264 173.8966
10613.865234 106.409 171.5418
10690.777344 106.510 168.8081
10768.247070 106.557 165.7307
10846.278320 106.537 162.3668
10924.875000 106.442 158.7927
11004.041016 106.268 155.0947
11083.781250 106.013 151.3577
11164.098633 105.681 147.6567
11244.998047 105.274 144.0547
11326.484375 104.799 140.6005
11408.560547 104.263 137.3253
11491.231445 103.673 134.2386
11574.501953 103.037 131.3311
11658.375977 102.357 128.5856
11742.857422 101.634 125.9885
11827.951172 100.866 123.5372
11913.661133 100.050 121.2420
11999.992188 99.184 119.1217
12086.949219 98.267 117.1946
12174.536133 97.300 115.4598
12262.757812 96.286 113.8789
12351.619141 95.226 112.3783
12441.124023 94.114 110.8721
12531.277344 92.942 109.2841
12622.083984 91.694 107.5459
12713.548828 90.358 105.5681
12805.676758 88.926 103.1815
12898.471680 87.405 100.0146
12991.939453 85.843 95.1344
13086.083984 84.377 85.6053
13180.911133 83.289 58.3971
13276.425781 82.934 -9.9576
13372.631836 83.435 -43.0675
13469.535156 84.534 -53.8796
13567.140625 85.888 -59.1632
13665.454102 87.285 -62.6609
13764.479492 88.629 -65.6053
13864.222656 89.884 -68.5575
13964.688477 91.030 -71.8265
14065.882812 92.051 -75.5887
14167.809570 92.929 -79.9201
14270.475586 93.644 -84.8051
14373.885742 94.178 -90.1400
14478.044922 94.515 -95.7433
14582.958984 94.649 -101.3706
14688.632812 94.585 -106.7444
14795.072266 94.343 -111.5968
14902.283203 93.955 -115.7096
15010.271484 93.458 -118.9384
15119.041992 92.896 -121.2207
15228.600586 92.312 -122.5723
15338.953125 91.745 -123.0773
15450.105469 91.231 -122.8763
15562.063477 90.802 -122.1593
15674.833008 90.484 -121.1650
15788.418945 90.294 -120.1779
15902.828125 90.236 -119.5111
16018.066406 90.299 -119.4794
16134.139648 90.452 -120.3634
16251.054688 90.645 -122.3688
16368.816406 90.816 -125.5880
16487.431641 90.896 -129.9744
16606.906250 90.818 -135.3307
16727.246094 90.527 -141.3123
16848.458984 89.987 -147.4636
16970.550781 89.191 -153.2941
17093.527344 88.150 -158.3572
17217.394531 86.894 -162.2913
17342.158203 85.460 -164.8251
17467.826172 83.891 -165.7691
17594.404297 82.232 -165.0135
17721.900391 80.534 -162.5408
17850.320312 78.849 -158.4569
17979.671875 77.227 -153.0184
18109.960938 75.703 -146.6226
18241.193359 74.286 -139.7271
18373.376953 72.969 -132.6831
18506.517578 71.747 -125.5900
18640.623047 70.617 -118.2693
18775.701172 69.591 -110.3300
18911.757812 68.697 -101.3256
19048.800781 67.989 -91.1308
19186.835938 67.525 -80.4758
19325.871094 67.317 -70.9122
19465.914062 67.295 -63.7232
19606.972656 67.348 -59.0481
19749.052734 67.394 -56.2357
19892.162109 67.411 -54.6105
20036.308594 67.411 -53.8325
