* Measurement data measured by REW V5.30.3
* Source: EXCL: Microphone (Realtek(R) Audio), MICROPHONE (Master Volume), L, volume: 1.000
* Format: 256k Log Swept Sine, 1 sweep at -18.0 dBFS with no timing reference
* Dated: Jan 7, 2024 11:34:34 PM
* REW Settings:
*  C-weighting compensation: Off
*  Target level: 75.0 dB
* Note: ND ZR L
* Measurement: L ND ZR
* Smoothing: 1/12 octave
* Frequency Step: 96 ppo
* Start Frequency: 0.36621094 Hz
*
* Freq(Hz) SPL(dB) Phase(degrees)
0.366211 71.644 160.2761
0.368865 71.633 160.2497
0.371538 71.618 160.2101
0.374230 71.599 160.1604
0.376942 71.578 160.1032
0.379673 71.555 160.0404
0.382424 71.532 159.9732
0.385196 71.507 159.9024
0.387987 71.482 159.8284
0.390798 71.457 159.7515
0.393630 71.432 159.6717
0.396483 71.406 159.5892
0.399356 71.380 159.5038
0.402250 71.354 159.4156
0.405165 71.328 159.3246
0.408101 71.301 159.2307
0.411058 71.275 159.1338
0.414037 71.248 159.0340
0.417037 71.221 158.9312
0.420059 71.194 158.8253
0.423103 71.166 158.7164
0.426169 71.138 158.6043
0.429257 71.111 158.4890
0.432367 71.083 158.3705
0.435501 71.054 158.2487
0.438656 71.026 158.1236
0.441835 70.997 157.9952
0.445037 70.968 157.8633
0.448262 70.939 157.7280
0.451510 70.910 157.5892
0.454782 70.881 157.4469
0.458077 70.851 157.3009
0.461397 70.821 157.1514
0.464740 70.791 156.9981
0.468108 70.761 156.8411
0.471500 70.730 156.6803
0.474917 70.699 156.5156
0.478358 70.668 156.3471
0.481825 70.637 156.1746
0.485316 70.605 155.9982
0.488833 70.574 155.8177
0.492375 70.542 155.6331
0.495943 70.510 155.4443
0.499537 70.477 155.2514
0.503157 70.445 155.0542
0.506803 70.412 154.8526
0.510475 70.379 154.6468
0.514174 70.345 154.4365
0.517900 70.312 154.2217
0.521653 70.278 154.0024
0.525433 70.244 153.7786
0.529241 70.210 153.5501
0.533076 70.175 153.3169
0.536939 70.140 153.0790
0.540830 70.105 152.8363
0.544749 70.070 152.5887
0.548696 70.034 152.3362
0.552673 69.999 152.0788
0.556677 69.962 151.8163
0.560711 69.926 151.5488
0.564774 69.889 151.2761
0.568867 69.853 150.9983
0.572989 69.815 150.7152
0.577141 69.778 150.4269
0.581324 69.740 150.1332
0.585536 69.702 149.8341
0.589779 69.664 149.5295
0.594053 69.626 149.2195
0.598358 69.587 148.9039
0.602694 69.548 148.5827
0.607061 69.508 148.2558
0.611460 69.469 147.9233
0.615891 69.429 147.5849
0.620354 69.389 147.2408
0.624849 69.348 146.8908
0.629377 69.307 146.5349
0.633938 69.266 146.1731
0.638532 69.225 145.8053
0.643159 69.183 145.4314
0.647819 69.141 145.0515
0.652514 69.099 144.6654
0.657242 69.056 144.2732
0.662005 69.013 143.8748
0.666802 68.970 143.4701
0.671634 68.927 143.0591
0.676501 68.883 142.6418
0.681403 68.839 142.2182
0.686341 68.794 141.7881
0.691314 68.749 141.3516
0.696324 68.704 140.9085
0.701369 68.659 140.4588
0.706452 68.613 140.0023
0.711571 68.566 139.5388
0.716727 68.519 139.0678
0.721921 68.472 138.5887
0.727153 68.423 138.1006
0.732422 68.373 137.6020
0.737729 68.322 137.0914
0.743075 68.268 136.5670
0.748460 68.213 136.0272
0.753883 68.156 135.4707
0.759346 68.096 134.8963
0.764849 68.035 134.3031
0.770391 67.971 133.6902
0.775974 67.906 133.0567
0.781597 67.838 132.4020
0.787261 67.768 131.7253
0.792965 67.697 131.0258
0.798712 67.624 130.3028
0.804499 67.549 129.5554
0.810329 67.472 128.7829
0.816201 67.394 127.9845
0.822116 67.315 127.1592
0.828073 67.234 126.3063
0.834073 67.152 125.4249
0.840118 67.069 124.5142
0.846205 66.985 123.5732
0.852337 66.900 122.6010
0.858514 66.814 121.5969
0.864735 66.728 120.5599
0.871001 66.642 119.4892
0.877313 66.555 118.3841
0.883670 66.467 117.2436
0.890074 66.380 116.0671
0.896523 66.293 114.8539
0.903020 66.207 113.6034
0.909564 66.121 112.3150
0.916155 66.036 110.9884
0.922793 65.951 109.6231
0.929480 65.868 108.2189
0.936216 65.786 106.7757
0.943000 65.706 105.2936
0.949833 65.628 103.7729
0.956716 65.551 102.2138
0.963649 65.477 100.6171
0.970632 65.406 98.9835
0.977666 65.337 97.3140
0.984750 65.272 95.6098
0.991886 65.210 93.8725
0.999074 65.152 92.1036
1.006313 65.097 90.3050
1.013605 65.048 88.4789
1.020950 65.003 86.6275
1.028349 64.963 84.7533
1.035801 64.928 82.8589
1.043306 64.900 80.9471
1.050867 64.877 79.0205
1.058482 64.862 77.0820
1.066152 64.853 75.1342
1.073878 64.852 73.1794
1.081659 64.859 71.2200
1.089498 64.874 69.2575
1.097393 64.898 67.2930
1.105345 64.931 65.3275
1.113355 64.973 63.3617
1.121422 65.024 61.3972
1.129549 65.084 59.4357
1.137734 65.153 57.4794
1.145978 65.231 55.5312
1.154283 65.318 53.5939
1.162647 65.413 51.6706
1.171072 65.517 49.7641
1.179558 65.629 47.8772
1.188106 65.749 46.0128
1.196715 65.877 44.1732
1.205387 66.012 42.3609
1.214122 66.154 40.5780
1.222920 66.303 38.8262
1.231781 66.459 37.1073
1.240708 66.621 35.4227
1.249698 66.788 33.7734
1.258754 66.961 32.1605
1.267875 67.139 30.5847
1.277063 67.321 29.0464
1.286317 67.508 27.5462
1.295638 67.698 26.0840
1.305027 67.892 24.6600
1.314484 68.088 23.2739
1.324009 68.286 21.9256
1.333603 68.486 20.6147
1.343267 68.687 19.3406
1.353001 68.889 18.1029
1.362805 69.091 16.9010
1.372681 69.292 15.7341
1.382628 69.491 14.6015
1.392647 69.689 13.5024
1.402739 69.884 12.4361
1.412904 70.076 11.4015
1.423142 70.264 10.3978
1.433455 70.449 9.4238
1.443842 70.629 8.4783
1.454305 70.806 7.5599
1.464843 70.979 6.6669
1.475458 71.150 5.7977
1.486150 71.320 4.9507
1.496919 71.490 4.1243
1.507766 71.659 3.3173
1.518692 71.829 2.5287
1.529697 72.000 1.7576
1.540782 72.171 1.0034
1.551947 72.343 0.2652
1.563193 72.515 -0.4574
1.574521 72.688 -1.1651
1.585931 72.862 -1.8585
1.597423 73.036 -2.5380
1.608998 73.210 -3.2042
1.620658 73.384 -3.8576
1.632402 73.559 -4.4987
1.644231 73.734 -5.1278
1.656146 73.908 -5.7455
1.668147 74.082 -6.3522
1.680235 74.256 -6.9483
1.692410 74.430 -7.5341
1.704674 74.603 -8.1101
1.717027 74.775 -8.6766
1.729469 74.947 -9.2340
1.742002 75.117 -9.7827
1.754625 75.287 -10.3229
1.767340 75.455 -10.8550
1.780147 75.622 -11.3794
1.793046 75.787 -11.8965
1.806040 75.951 -12.4067
1.819127 76.113 -12.9104
1.832309 76.273 -13.4081
1.845587 76.431 -13.9004
1.858961 76.587 -14.3876
1.872431 76.742 -14.8701
1.886000 76.894 -15.3481
1.899666 77.045 -15.8216
1.913432 77.194 -16.2907
1.927298 77.342 -16.7553
1.941264 77.488 -17.2155
1.955331 77.632 -17.6712
1.969500 77.775 -18.1223
1.983772 77.917 -18.5687
1.998147 78.057 -19.0105
2.012626 78.197 -19.4475
2.027211 78.335 -19.8796
2.041901 78.473 -20.3069
2.056697 78.610 -20.7292
2.071601 78.746 -21.1465
2.086613 78.881 -21.5587
2.101733 79.017 -21.9658
2.116963 79.152 -22.3678
2.132303 79.287 -22.7646
2.147755 79.421 -23.1564
2.163318 79.556 -23.5431
2.178995 79.690 -23.9250
2.194785 79.825 -24.3023
2.210689 79.959 -24.6753
2.226709 80.092 -25.0444
2.242844 80.224 -25.4098
2.259097 80.355 -25.7719
2.275467 80.485 -26.1308
2.291956 80.615 -26.4867
2.308565 80.743 -26.8397
2.325294 80.870 -27.1899
2.342144 80.997 -27.5373
2.359116 81.122 -27.8822
2.376211 81.247 -28.2244
2.393430 81.372 -28.5641
2.410774 81.495 -28.9013
2.428243 81.619 -29.2361
2.445839 81.742 -29.5685
2.463562 81.865 -29.8985
2.481415 81.988 -30.2261
2.499396 82.110 -30.5515
2.517508 82.233 -30.8744
2.535750 82.356 -31.1950
2.554126 82.478 -31.5132
2.572634 82.601 -31.8289
2.591276 82.723 -32.1421
2.610054 82.845 -32.4528
2.628967 82.966 -32.7612
2.648018 83.087 -33.0674
2.667206 83.207 -33.3717
2.686534 83.327 -33.6744
2.706002 83.446 -33.9756
2.725610 83.565 -34.2758
2.745361 83.683 -34.5752
2.765255 83.801 -34.8741
2.785294 83.919 -35.1728
2.805477 84.037 -35.4716
2.825807 84.155 -35.7706
2.846284 84.272 -36.0701
2.866909 84.389 -36.3704
2.887684 84.507 -36.6713
2.908609 84.624 -36.9729
2.929686 84.742 -37.2751
2.950916 84.859 -37.5776
2.972299 84.976 -37.8803
2.993838 85.093 -38.1830
3.015532 85.210 -38.4858
3.037384 85.326 -38.7888
3.059394 85.442 -39.0921
3.081564 85.558 -39.3961
3.103894 85.673 -39.7010
3.126386 85.789 -40.0071
3.149041 85.904 -40.3147
3.171861 86.019 -40.6242
3.194845 86.133 -40.9358
3.217996 86.248 -41.2498
3.241315 86.362 -41.5662
3.264803 86.476 -41.8854
3.288461 86.590 -42.2071
3.312291 86.703 -42.5313
3.336293 86.817 -42.8578
3.360469 86.930 -43.1864
3.384820 87.042 -43.5171
3.409348 87.155 -43.8499
3.434054 87.267 -44.1848
3.458938 87.378 -44.5221
3.484003 87.490 -44.8618
3.509250 87.600 -45.2041
3.534679 87.711 -45.5494
3.560293 87.820 -45.8979
3.586092 87.930 -46.2497
3.612079 88.038 -46.6053
3.638253 88.147 -46.9647
3.664618 88.254 -47.3281
3.691173 88.361 -47.6957
3.717921 88.468 -48.0674
3.744862 88.573 -48.4430
3.771999 88.678 -48.8223
3.799332 88.783 -49.2050
3.826864 88.886 -49.5907
3.854595 88.989 -49.9791
3.882527 89.091 -50.3700
3.910661 89.193 -50.7632
3.938999 89.293 -51.1585
3.967543 89.393 -51.5560
3.996294 89.491 -51.9558
4.025252 89.589 -52.3583
4.054421 89.685 -52.7637
4.083801 89.781 -53.1723
4.113394 89.876 -53.5840
4.143201 89.969 -53.9986
4.173225 90.061 -54.4157
4.203466 90.153 -54.8344
4.233926 90.243 -55.2542
4.264606 90.332 -55.6744
4.295509 90.420 -56.0944
4.326636 90.506 -56.5140
4.357989 90.592 -56.9329
4.389569 90.677 -57.3515
4.421378 90.760 -57.7700
4.453417 90.842 -58.1889
4.485688 90.922 -58.6083
4.518193 91.001 -59.0277
4.550934 91.080 -59.4468
4.583912 91.156 -59.8644
4.617129 91.232 -60.2799
4.650587 91.306 -60.6922
4.684287 91.380 -61.1007
4.718231 91.452 -61.5049
4.752421 91.524 -61.9045
4.786859 91.594 -62.3000
4.821547 91.663 -62.6914
4.856485 91.731 -63.0791
4.891677 91.797 -63.4629
4.927125 91.863 -63.8424
4.962829 91.928 -64.2170
4.998791 91.992 -64.5860
5.035015 92.055 -64.9487
5.071500 92.118 -65.3045
5.108251 92.180 -65.6530
5.145267 92.241 -65.9941
5.182552 92.302 -66.3280
5.220107 92.363 -66.6547
5.257934 92.423 -66.9747
5.296035 92.482 -67.2880
5.334412 92.542 -67.5947
5.373067 92.601 -67.8946
5.412003 92.661 -68.1878
5.451221 92.720 -68.4741
5.490722 92.780 -68.7533
5.530510 92.840 -69.0255
5.570587 92.901 -69.2907
5.610953 92.962 -69.5493
5.651613 93.023 -69.8021
5.692567 93.085 -70.0499
5.733818 93.148 -70.2933
5.775367 93.211 -70.5332
5.817218 93.275 -70.7699
5.859372 93.340 -71.0038
5.901831 93.406 -71.2351
5.944598 93.473 -71.4639
5.987675 93.541 -71.6909
6.031065 93.610 -71.9169
6.074768 93.680 -72.1430
6.118788 93.750 -72.3705
6.163127 93.822 -72.6002
6.207788 93.895 -72.8329
6.252772 93.968 -73.0691
6.298082 94.043 -73.3089
6.343721 94.118 -73.5526
6.389690 94.194 -73.8007
6.435992 94.271 -74.0538
6.482630 94.348 -74.3127
6.529606 94.425 -74.5782
6.576922 94.503 -74.8507
6.624581 94.582 -75.1306
6.672585 94.660 -75.4178
6.720938 94.739 -75.7123
6.769640 94.817 -76.0141
6.818696 94.896 -76.3230
6.868107 94.974 -76.6390
6.917876 95.052 -76.9622
6.968006 95.130 -77.2926
7.018499 95.207 -77.6301
7.069358 95.283 -77.9744
7.120586 95.359 -78.3250
7.172184 95.435 -78.6813
7.224157 95.509 -79.0426
7.276506 95.583 -79.4085
7.329235 95.655 -79.7785
7.382345 95.727 -80.1523
7.435841 95.798 -80.5297
7.489724 95.868 -80.9101
7.543997 95.938 -81.2928
7.598664 96.006 -81.6771
7.653728 96.074 -82.0624
7.709189 96.141 -82.4483
7.765053 96.207 -82.8345
7.821322 96.272 -83.2209
7.877998 96.336 -83.6070
7.935086 96.400 -83.9926
7.992587 96.464 -84.3774
8.050504 96.527 -84.7611
8.108841 96.590 -85.1435
8.167601 96.652 -85.5248
8.226787 96.714 -85.9049
8.286402 96.776 -86.2840
8.346449 96.837 -86.6622
8.406931 96.899 -87.0396
8.467851 96.960 -87.4164
8.529212 97.022 -87.7927
8.591018 97.083 -88.1687
8.653272 97.144 -88.5448
8.715977 97.206 -88.9211
8.779137 97.267 -89.2981
8.842754 97.328 -89.6758
8.906833 97.390 -90.0545
8.971375 97.451 -90.4341
9.036386 97.512 -90.8150
9.101867 97.573 -91.1970
9.167823 97.634 -91.5804
9.234257 97.694 -91.9652
9.301172 97.755 -92.3512
9.368572 97.815 -92.7383
9.436460 97.875 -93.1264
9.504841 97.935 -93.5153
9.573717 97.995 -93.9048
9.643092 98.054 -94.2949
9.712970 98.113 -94.6852
9.783354 98.171 -95.0756
9.854248 98.230 -95.4659
9.925656 98.288 -95.8559
9.997581 98.346 -96.2454
10.070028 98.404 -96.6346
10.143000 98.462 -97.0233
10.216500 98.519 -97.4116
10.290533 98.577 -97.7994
10.365103 98.634 -98.1870
10.440212 98.692 -98.5744
10.515866 98.749 -98.9620
10.592069 98.806 -99.3498
10.668823 98.863 -99.7382
10.746134 98.921 -100.1273
10.824005 98.978 -100.5173
10.902440 99.034 -100.9084
10.981443 99.091 -101.3007
11.061020 99.148 -101.6942
11.141172 99.204 -102.0890
11.221906 99.259 -102.4849
11.303225 99.314 -102.8818
11.385133 99.369 -103.2793
11.467634 99.423 -103.6772
11.550734 99.476 -104.0751
11.634435 99.529 -104.4724
11.718742 99.581 -104.8687
11.803661 99.632 -105.2634
11.889195 99.683 -105.6561
11.975349 99.733 -106.0463
12.062128 99.782 -106.4336
12.149535 99.831 -106.8175
12.237576 99.879 -107.1979
12.326254 99.927 -107.5745
12.415575 99.975 -107.9474
12.505544 100.022 -108.3166
12.596164 100.069 -108.6823
12.687441 100.116 -109.0447
12.779379 100.163 -109.4042
12.871984 100.210 -109.7612
12.965260 100.256 -110.1161
13.059211 100.303 -110.4693
13.153843 100.350 -110.8212
13.249161 100.396 -111.1722
13.345170 100.442 -111.5225
13.441875 100.488 -111.8722
13.539280 100.534 -112.2215
13.637391 100.580 -112.5702
13.736214 100.625 -112.9183
13.835752 100.670 -113.2657
13.936011 100.714 -113.6121
14.036998 100.758 -113.9573
14.138716 100.802 -114.3013
14.241171 100.846 -114.6441
14.344368 100.890 -114.9858
14.448313 100.933 -115.3267
14.553011 100.977 -115.6671
14.658468 101.020 -116.0079
14.764689 101.064 -116.3496
14.871680 101.108 -116.6933
14.979446 101.153 -117.0398
15.087994 101.197 -117.3902
15.197328 101.242 -117.7453
15.307454 101.286 -118.1059
15.418378 101.330 -118.4726
15.530106 101.374 -118.8459
15.642643 101.417 -119.2257
15.755996 101.460 -119.6120
15.870171 101.502 -120.0042
15.985172 101.542 -120.4019
16.101007 101.582 -120.8040
16.217682 101.621 -121.2097
16.335201 101.658 -121.6180
16.453573 101.694 -122.0281
16.572803 101.730 -122.4390
16.692898 101.764 -122.8502
16.813862 101.798 -123.2612
16.935701 101.831 -123.6716
17.058424 101.863 -124.0814
17.182035 101.895 -124.4905
17.306543 101.926 -124.8989
17.431953 101.957 -125.3065
17.558273 101.987 -125.7131
17.685509 102.017 -126.1184
17.813665 102.047 -126.5218
17.942751 102.076 -126.9227
18.072771 102.104 -127.3204
18.203733 102.133 -127.7142
18.335646 102.162 -128.1035
18.468513 102.191 -128.4880
18.602345 102.220 -128.8680
18.737144 102.250 -129.2440
18.872921 102.281 -129.6174
19.009682 102.313 -129.9898
19.147434 102.346 -130.3632
19.286184 102.380 -130.7395
19.425940 102.416 -131.1208
19.566708 102.451 -131.5085
19.708496 102.487 -131.9034
19.851313 102.522 -132.3052
19.995163 102.557 -132.7129
20.140057 102.590 -133.1244
20.285999 102.622 -133.5369
20.433001 102.652 -133.9473
20.581066 102.681 -134.3524
20.730206 102.709 -134.7496
20.880424 102.736 -135.1371
21.031733 102.763 -135.5146
21.184137 102.790 -135.8829
21.337646 102.817 -136.2441
21.492268 102.846 -136.6016
21.648010 102.876 -136.9588
21.804880 102.906 -137.3193
21.962887 102.936 -137.6856
22.122040 102.966 -138.0592
22.282345 102.994 -138.4394
22.443811 103.020 -138.8244
22.606449 103.044 -139.2107
22.770266 103.065 -139.5944
22.935268 103.084 -139.9717
23.101467 103.101 -140.3398
23.268869 103.116 -140.6977
23.437485 103.131 -141.0465
23.607323 103.146 -141.3893
23.778391 103.161 -141.7305
23.950699 103.176 -142.0748
24.124256 103.189 -142.4257
24.299070 103.201 -142.7839
24.475151 103.209 -143.1467
24.652508 103.213 -143.5073
24.831150 103.213 -143.8553
25.011087 103.207 -144.1783
25.192327 103.198 -144.4638
25.374882 103.188 -144.7020
25.558758 103.180 -144.8890
25.743967 103.178 -145.0285
25.930519 103.184 -145.1330
26.118422 103.201 -145.2235
26.307686 103.231 -145.3264
26.498322 103.272 -145.4697
26.690340 103.322 -145.6779
26.883749 103.376 -145.9677
27.078560 103.431 -146.3451
27.274782 103.482 -146.8042
27.472427 103.524 -147.3287
27.671503 103.555 -147.8947
27.872023 103.575 -148.4746
28.073996 103.584 -149.0417
28.277431 103.586 -149.5740
28.482342 103.582 -150.0580
28.688736 103.578 -150.4895
28.896626 103.576 -150.8742
29.106022 103.579 -151.2249
29.316936 103.589 -151.5583
29.529379 103.604 -151.8906
29.743361 103.623 -152.2341
29.958893 103.644 -152.5952
30.175987 103.666 -152.9741
30.394655 103.686 -153.3659
30.614908 103.705 -153.7634
30.836756 103.722 -154.1591
31.060211 103.738 -154.5480
31.285286 103.752 -154.9281
31.511992 103.767 -155.3003
31.740341 103.781 -155.6672
31.970345 103.795 -156.0315
32.202015 103.808 -156.3943
32.435364 103.819 -156.7544
32.670403 103.828 -157.1085
32.907146 103.835 -157.4521
33.145607 103.840 -157.7816
33.385796 103.843 -158.0951
33.627724 103.847 -158.3941
33.871403 103.851 -158.6831
34.116848 103.857 -158.9682
34.364071 103.863 -159.2563
34.613087 103.868 -159.5522
34.863907 103.873 -159.8577
35.116547 103.875 -160.1707
35.371017 103.875 -160.4866
35.627331 103.873 -160.7989
35.885502 103.868 -161.1025
36.145542 103.864 -161.3946
36.407467 103.859 -161.6767
36.671291 103.857 -161.9539
36.937027 103.857 -162.2345
37.204689 103.859 -162.5266
37.474289 103.863 -162.8371
37.745842 103.867 -163.1689
38.019363 103.870 -163.5211
38.294868 103.872 -163.8893
38.572369 103.872 -164.2668
38.851879 103.869 -164.6471
39.133415 103.865 -165.0241
39.416992 103.860 -165.3933
39.702625 103.854 -165.7515
39.990326 103.847 -166.0966
40.280113 103.842 -166.4273
40.571999 103.838 -166.7438
40.866001 103.835 -167.0483
41.162132 103.835 -167.3448
41.460411 103.837 -167.6389
41.760849 103.840 -167.9352
42.063465 103.844 -168.2361
42.368275 103.846 -168.5397
42.675293 103.847 -168.8411
42.984535 103.846 -169.1335
43.296021 103.844 -169.4121
43.609760 103.841 -169.6756
43.925774 103.838 -169.9266
44.244080 103.835 -170.1698
44.564690 103.831 -170.4094
44.887623 103.827 -170.6476
45.212898 103.822 -170.8853
45.540531 103.816 -171.1243
45.870537 103.809 -171.3688
46.202934 103.802 -171.6257
46.537739 103.793 -171.9003
46.874969 103.782 -172.1928
47.214645 103.766 -172.4960
47.556782 103.745 -172.7981
47.901398 103.722 -173.0887
48.248512 103.699 -173.3649
48.598141 103.678 -173.6335
48.950302 103.660 -173.9065
49.305016 103.645 -174.1946
49.662300 103.631 -174.5024
50.022175 103.620 -174.8282
50.384655 103.609 -175.1691
50.749763 103.599 -175.5250
51.117516 103.590 -175.8974
51.487934 103.580 -176.2840
51.861038 103.567 -176.6723
52.236843 103.549 -177.0401
52.615372 103.528 -177.3628
52.996643 103.507 -177.6242
53.380680 103.490 -177.8237
53.767498 103.479 -177.9748
54.157120 103.476 -178.0972
54.549564 103.479 -178.2091
54.944855 103.487 -178.3254
55.343006 103.500 -178.4591
55.744045 103.514 -178.6234
56.147991 103.527 -178.8292
56.554863 103.536 -179.0804
56.964684 103.537 -179.3709
57.377472 103.528 -179.6852
57.793251 103.508 179.9979
58.212044 103.477 179.7007
58.633873 103.440 179.4423
59.058758 103.399 179.2328
59.486721 103.361 179.0674
59.917786 103.328 178.9253
60.351974 103.304 178.7759
60.789310 103.287 178.5915
61.229816 103.274 178.3574
61.673512 103.262 178.0747
62.120422 103.249 177.7557
62.570572 103.234 177.4175
63.023983 103.216 177.0778
63.480682 103.196 176.7512
63.940689 103.176 176.4457
64.404030 103.157 176.1615
64.870728 103.138 175.8960
65.340805 103.118 175.6528
65.814293 103.097 175.4426
66.291214 103.078 175.2723
66.771591 103.061 175.1312
67.255447 103.049 174.9910
67.742805 103.038 174.8244
68.233696 103.023 174.6270
68.728142 103.000 174.4197
69.226173 102.971 174.2302
69.727814 102.940 174.0683
70.233093 102.911 173.9200
70.742035 102.884 173.7590
71.254662 102.861 173.5640
71.771004 102.838 173.3284
72.291084 102.813 173.0592
72.814934 102.788 172.7713
73.342583 102.764 172.4797
73.874054 102.741 172.1910
74.409378 102.724 171.8998
74.948578 102.710 171.5945
75.491684 102.696 171.2709
76.038727 102.678 170.9435
76.589737 102.653 170.6462
77.144737 102.621 170.4199
77.703758 102.587 170.2906
78.266830 102.556 170.2496
78.833984 102.533 170.2517
79.405251 102.516 170.2412
79.980652 102.499 170.1866
80.560226 102.478 170.0918
81.143997 102.452 169.9764
81.732002 102.424 169.8478
82.324265 102.396 169.6945
82.920822 102.369 169.5008
83.521698 102.342 169.2623
84.126930 102.311 168.9920
84.736549 102.275 168.7202
85.350586 102.233 168.4879
85.969070 102.190 168.3298
86.592041 102.151 168.2552
87.219521 102.119 168.2420
87.851547 102.097 168.2493
88.488159 102.082 168.2391
89.129379 102.068 168.1948
89.775246 102.052 168.1277
90.425797 102.033 168.0633
91.081062 102.015 168.0144
91.741074 102.002 167.9659
92.405869 101.995 167.8849
93.075478 101.989 167.7455
93.749939 101.976 167.5439
94.429291 101.951 167.3008
95.113564 101.910 167.0559
95.802795 101.854 166.8535
96.497025 101.791 166.7220
97.196281 101.730 166.6549
97.900604 101.684 166.6057
98.610031 101.659 166.5010
99.324600 101.656 166.2744
100.044350 101.666 165.9061
100.769310 101.681 165.4329
101.499527 101.691 164.9220
102.235031 101.691 164.4398
102.975868 101.672 164.0406
103.722076 101.630 163.7652
104.473686 101.560 163.6417
105.230743 101.467 163.6826
105.993286 101.361 163.8731
106.761360 101.258 164.1639
107.534996 101.177 164.4778
108.314240 101.137 164.7317
109.099129 101.147 164.8668
109.889709 101.205 164.8739
110.686012 101.302 164.7958
111.488091 101.423 164.6904
112.295982 101.549 164.5634
113.109726 101.658 164.3263
113.929367 101.721 163.8347
114.754944 101.712 162.9566
115.586502 101.608 161.6238
116.424088 101.401 159.9030
117.267746 101.100 158.0905
118.117516 100.736 156.7987
118.973442 100.354 156.8546
119.835571 100.010 158.4458
120.703949 99.749 160.1076
121.578621 99.581 160.1406
122.459633 99.503 158.6142
123.347023 99.507 156.5964
124.240845 99.572 154.9088
125.141144 99.662 153.8832
126.047966 99.737 153.5409
126.961365 99.772 153.8065
127.881378 99.769 154.5859
128.808060 99.753 155.7123
129.741455 99.752 156.9122
130.681610 99.779 157.8846
131.628586 99.817 158.4681
132.582428 99.840 158.7313
133.543182 99.832 158.9025
134.510895 99.795 159.2037
135.485611 99.749 159.7127
136.467392 99.715 160.3492
137.456284 99.703 160.9443
138.452347 99.709 161.3604
139.455627 99.712 161.5967
140.466187 99.696 161.7858
141.484070 99.655 162.0892
142.509323 99.592 162.5575
143.542007 99.516 163.0756
144.582169 99.436 163.4573
145.629868 99.367 163.5641
146.685165 99.340 163.3425
147.748108 99.389 162.8320
148.818756 99.535 162.1909
149.897156 99.769 161.6959
150.983368 100.055 161.6340
152.077454 100.340 162.1465
153.179474 100.563 163.1871
154.289474 100.672 164.6094
155.407516 100.639 166.2343
156.533661 100.465 167.7993
157.667969 100.178 168.9528
158.810501 99.825 169.3593
159.961304 99.474 168.8274
161.120453 99.196 167.4102
162.287994 99.032 165.4595
163.464005 98.977 163.5768
164.648529 98.994 162.3393
165.841644 99.050 161.9762
167.043396 99.121 162.2893
168.253860 99.189 162.8483
169.473099 99.241 163.2867
170.701172 99.273 163.4939
171.938141 99.291 163.5685
173.184082 99.301 163.6598
174.439041 99.305 163.8617
175.703094 99.296 164.1597
176.976318 99.275 164.4260
178.258759 99.252 164.4792
179.550491 99.244 164.1823
180.851593 99.270 163.5198
182.162125 99.331 162.6201
183.482147 99.405 161.7086
184.811737 99.453 161.0397
186.150955 99.447 160.8303
187.499878 99.383 161.1423
188.858582 99.282 161.8195
190.227127 99.171 162.6141
191.605591 99.070 163.3444
192.994049 98.995 163.9453
194.392563 98.948 164.4269
195.801208 98.920 164.8091
197.220062 98.897 165.0910
198.649200 98.863 165.2776
200.088699 98.815 165.4040
201.538620 98.759 165.5126
202.999054 98.705 165.6244
204.470062 98.660 165.7462
205.951736 98.623 165.8784
207.444153 98.589 166.0096
208.947372 98.555 166.1143
210.461487 98.521 166.1675
211.986572 98.487 166.1625
213.522720 98.455 166.1149
215.069992 98.426 166.0559
216.628479 98.396 166.0222
218.198257 98.365 166.0483
219.779419 98.332 166.1493
221.372025 98.299 166.3126
222.976181 98.268 166.5109
224.591965 98.243 166.7148
226.219452 98.223 166.9020
227.858734 98.204 167.0616
229.509888 98.177 167.1872
231.173004 98.134 167.2639
232.848175 98.070 167.2693
234.535492 97.992 167.2012
236.235031 97.916 167.1064
237.946884 97.860 167.0734
239.671143 97.840 167.1729
241.407898 97.854 167.3943
243.157242 97.885 167.6714
244.919266 97.912 167.9510
246.694046 97.924 168.2065
248.481689 97.919 168.4327
250.282288 97.903 168.6387
252.095932 97.883 168.8400
253.922729 97.863 169.0526
255.762756 97.844 169.2909
257.616119 97.829 169.5651
259.482910 97.815 169.8788
261.363220 97.801 170.2272
263.257172 97.788 170.5894
265.164856 97.776 170.9254
267.086365 97.765 171.1870
269.021790 97.756 171.3344
270.971222 97.749 171.3610
272.934784 97.742 171.3107
274.912567 97.735 171.2505
276.904694 97.727 171.2291
278.911255 97.718 171.2604
280.932373 97.706 171.3296
282.968140 97.691 171.4120
285.018646 97.674 171.4901
287.084015 97.656 171.5568
289.164337 97.638 171.6103
291.259735 97.620 171.6544
293.370331 97.602 171.6995
295.496216 97.583 171.7574
297.637512 97.562 171.8362
299.794312 97.538 171.9384
301.966736 97.512 172.0625
304.154907 97.484 172.2042
306.358948 97.455 172.3557
308.578949 97.425 172.5076
310.815033 97.392 172.6508
313.067322 97.357 172.7802
315.335938 97.322 172.8998
317.621002 97.288 173.0237
319.922607 97.260 173.1697
322.240906 97.238 173.3443
324.575989 97.222 173.5399
326.928009 97.208 173.7437
329.297058 97.195 173.9439
331.683289 97.180 174.1338
334.086792 97.163 174.3117
336.507721 97.146 174.4823
338.946198 97.127 174.6546
341.402344 97.108 174.8374
343.876282 97.089 175.0339
346.368164 97.069 175.2410
348.878082 97.050 175.4537
351.406189 97.030 175.6702
353.952637 97.011 175.8911
356.517517 96.991 176.1173
359.100983 96.972 176.3470
361.703186 96.953 176.5763
364.324249 96.936 176.8024
366.964294 96.919 177.0247
369.623474 96.902 177.2440
372.301910 96.887 177.4611
374.999756 96.871 177.6783
377.717163 96.856 177.8999
380.454254 96.840 178.1290
383.211182 96.825 178.3670
385.988098 96.810 178.6149
388.785126 96.796 178.8727
391.602417 96.781 179.1390
394.440125 96.767 179.4101
397.298401 96.753 179.6793
400.177399 96.740 179.9373
403.077240 96.726 -179.8218
405.998108 96.713 -179.5947
408.940125 96.701 -179.3713
411.903473 96.688 -179.1421
414.888306 96.675 -178.9021
417.894745 96.661 -178.6508
420.922974 96.648 -178.3909
423.973145 96.636 -178.1253
427.045441 96.626 -177.8544
430.139984 96.617 -177.5786
433.256958 96.611 -177.3002
436.396515 96.606 -177.0228
439.558838 96.602 -176.7479
442.744049 96.599 -176.4763
445.952362 96.597 -176.2106
449.183929 96.596 -175.9563
452.438904 96.596 -175.7203
455.717468 96.595 -175.5061
459.019775 96.591 -175.3098
462.346008 96.585 -175.1190
465.696350 96.576 -174.9197
469.070984 96.565 -174.7029
472.470062 96.552 -174.4664
475.893768 96.540 -174.2142
479.342285 96.529 -173.9535
482.815796 96.519 -173.6899
486.314484 96.509 -173.4244
489.838531 96.499 -173.1518
493.388092 96.488 -172.8645
496.963379 96.478 -172.5598
500.564575 96.469 -172.2436
504.191864 96.463 -171.9265
507.845459 96.457 -171.6173
511.525513 96.452 -171.3197
515.232239 96.446 -171.0316
518.965820 96.441 -170.7462
522.726440 96.434 -170.4553
526.514343 96.427 -170.1523
530.329712 96.421 -169.8358
534.172729 96.416 -169.5100
538.043579 96.412 -169.1812
541.942444 96.409 -168.8520
545.869568 96.406 -168.5200
549.825134 96.404 -168.1823
553.809387 96.403 -167.8407
557.822510 96.403 -167.4996
561.864746 96.403 -167.1631
565.936279 96.405 -166.8328
570.037292 96.407 -166.5071
574.168030 96.408 -166.1829
578.328674 96.409 -165.8578
582.519470 96.409 -165.5304
586.740662 96.409 -165.1984
590.992432 96.410 -164.8574
595.275024 96.411 -164.5048
599.588623 96.412 -164.1423
603.933472 96.415 -163.7742
608.309814 96.419 -163.4041
612.717896 96.422 -163.0328
617.157898 96.426 -162.6579
621.630066 96.429 -162.2746
626.134644 96.432 -161.8777
630.671875 96.436 -161.4664
635.242004 96.443 -161.0459
639.845215 96.452 -160.6222
644.481812 96.464 -160.1960
649.151978 96.479 -159.7636
653.856018 96.498 -159.3254
658.594116 96.521 -158.8893
663.366577 96.545 -158.4676
668.173584 96.571 -158.0697
673.015442 96.595 -157.6956
677.892395 96.618 -157.3368
682.804688 96.639 -156.9840
687.752563 96.658 -156.6301
692.736328 96.675 -156.2703
697.756165 96.692 -155.9006
702.812378 96.708 -155.5189
707.905273 96.725 -155.1261
713.035034 96.743 -154.7252
718.201965 96.762 -154.3194
723.406372 96.781 -153.9104
728.648499 96.801 -153.4986
733.928589 96.822 -153.0836
739.246948 96.844 -152.6647
744.603821 96.866 -152.2406
749.999512 96.890 -151.8100
755.434326 96.915 -151.3726
760.908508 96.942 -150.9291
766.422363 96.971 -150.4809
771.976196 97.001 -150.0289
777.570251 97.032 -149.5738
783.204834 97.065 -149.1153
788.880249 97.098 -148.6514
794.596802 97.134 -148.1792
800.354797 97.171 -147.6971
806.154480 97.211 -147.2078
811.996216 97.255 -146.7183
817.880249 97.303 -146.2379
823.806946 97.354 -145.7762
829.776611 97.407 -145.3401
835.789490 97.461 -144.9308
841.845947 97.514 -144.5404
847.946289 97.565 -144.1582
854.090881 97.614 -143.7757
860.279968 97.663 -143.3888
866.513916 97.711 -142.9947
872.793030 97.760 -142.5916
879.117676 97.809 -142.1814
885.488098 97.860 -141.7687
891.904724 97.911 -141.3564
898.367859 97.965 -140.9430
904.877808 98.019 -140.5250
911.434937 98.075 -140.1010
918.039551 98.133 -139.6731
924.692017 98.193 -139.2448
931.392700 98.255 -138.8199
938.141968 98.319 -138.4027
944.940125 98.385 -137.9954
951.787537 98.451 -137.5973
958.684570 98.518 -137.2061
965.631592 98.585 -136.8187
972.628967 98.653 -136.4317
979.677063 98.722 -136.0436
986.776184 98.791 -135.6548
993.926758 98.861 -135.2639
1001.129150 98.931 -134.8682
1008.383728 99.004 -134.4653
1015.690918 99.079 -134.0564
1023.051025 99.158 -133.6454
1030.464478 99.241 -133.2386
1037.931641 99.329 -132.8466
1045.452881 99.421 -132.4815
1053.028687 99.515 -132.1487
1060.659424 99.608 -131.8451
1068.345459 99.699 -131.5625
1076.087158 99.789 -131.2916
1083.884888 99.877 -131.0251
1091.739136 99.965 -130.7598
1099.650269 100.053 -130.4952
1107.618774 100.141 -130.2315
1115.645020 100.229 -129.9686
1123.729492 100.318 -129.7061
1131.872559 100.407 -129.4432
1140.074585 100.497 -129.1791
1148.336060 100.588 -128.9127
1156.657349 100.680 -128.6438
1165.038940 100.774 -128.3723
1173.481323 100.870 -128.0982
1181.984863 100.970 -127.8232
1190.550049 101.074 -127.5537
1199.177246 101.182 -127.3015
1207.866943 101.293 -127.0798
1216.619629 101.406 -126.8953
1225.435791 101.519 -126.7455
1234.315796 101.629 -126.6225
1243.260132 101.738 -126.5178
1252.269287 101.845 -126.4241
1261.343750 101.950 -126.3380
1270.484009 102.055 -126.2596
1279.690430 102.158 -126.1892
1288.963623 102.260 -126.1264
1298.303955 102.361 -126.0707
1307.712036 102.460 -126.0221
1317.188232 102.558 -125.9800
1326.733154 102.652 -125.9406
1336.347168 102.744 -125.8951
1346.030884 102.832 -125.8327
1355.784790 102.919 -125.7436
1365.609375 103.006 -125.6215
1375.505127 103.095 -125.4633
1385.472656 103.188 -125.2696
1395.512329 103.286 -125.0468
1405.624756 103.391 -124.8082
1415.810547 103.505 -124.5717
1426.070068 103.626 -124.3556
1436.403931 103.751 -124.1708
1446.812744 103.880 -124.0187
1457.296997 104.010 -123.8942
1467.857178 104.141 -123.7911
1478.493896 104.272 -123.7042
1489.207642 104.404 -123.6298
1499.999023 104.537 -123.5644
1510.868652 104.671 -123.5051
1521.817017 104.806 -123.4493
1532.844727 104.944 -123.3953
1543.952393 105.084 -123.3422
1555.140503 105.229 -123.2906
1566.409668 105.379 -123.2455
1577.760498 105.535 -123.2184
1589.193604 105.697 -123.2231
1600.709595 105.862 -123.2684
1612.308960 106.030 -123.3552
1623.992432 106.199 -123.4792
1635.760498 106.369 -123.6347
1647.613892 106.539 -123.8175
1659.553223 106.710 -124.0246
1671.578979 106.883 -124.2549
1683.691895 107.057 -124.5095
1695.892578 107.234 -124.7919
1708.181763 107.412 -125.1058
1720.559937 107.592 -125.4528
1733.027832 107.772 -125.8319
1745.586060 107.954 -126.2408
1758.235352 108.138 -126.6757
1770.976196 108.325 -127.1343
1783.809448 108.516 -127.6208
1796.735718 108.712 -128.1474
1809.755615 108.913 -128.7309
1822.869873 109.117 -129.3847
1836.079102 109.322 -130.1145
1849.384033 109.527 -130.9215
1862.785400 109.731 -131.8044
1876.283936 109.932 -132.7613
1889.880249 110.129 -133.7896
1903.575073 110.322 -134.8862
1917.369141 110.511 -136.0482
1931.263184 110.695 -137.2738
1945.257935 110.875 -138.5650
1959.354126 111.050 -139.9301
1973.552368 111.220 -141.3800
1987.853516 111.381 -142.9214
2002.258301 111.531 -144.5531
2016.767456 111.667 -146.2672
2031.381836 111.787 -148.0526
2046.102051 111.890 -149.8960
2060.928955 111.974 -151.7843
2075.863281 112.039 -153.7053
2090.905762 112.084 -155.6465
2106.057373 112.108 -157.5932
2121.318848 112.111 -159.5268
2136.690918 112.091 -161.4252
2152.174316 112.052 -163.2647
2167.769775 111.994 -165.0259
2183.478271 111.921 -166.6976
2199.300537 111.837 -168.2749
2215.237549 111.742 -169.7534
2231.290039 111.639 -171.1291
2247.458984 111.531 -172.3995
2263.745117 111.421 -173.5662
2280.149170 111.312 -174.6360
2296.672119 111.206 -175.6205
2313.314697 111.105 -176.5368
2330.077881 111.012 -177.4068
2346.962646 110.926 -178.2570
2363.969727 110.844 -179.1118
2381.100098 110.764 -179.9846
2398.354492 110.680 179.1245
2415.733887 110.591 178.2268
2433.239258 110.493 177.3397
2450.871582 110.386 176.4819
2468.631592 110.270 175.6704
2486.520264 110.145 174.9202
2504.538574 110.012 174.2459
2522.687500 109.874 173.6634
2540.968018 109.733 173.1862
2559.380859 109.594 172.8191
2577.927246 109.459 172.5555
2596.607910 109.332 172.3813
2615.424072 109.216 172.2796
2634.376465 109.109 172.2336
2653.466309 109.014 172.2278
2672.694336 108.929 172.2495
2692.061768 108.854 172.2895
2711.569580 108.788 172.3391
2731.218750 108.732 172.3875
2751.010254 108.684 172.4228
2770.945312 108.642 172.4379
2791.024658 108.605 172.4328
2811.249512 108.570 172.4136
2831.621094 108.537 172.3888
2852.140137 108.505 172.3656
2872.807861 108.475 172.3504
2893.625488 108.446 172.3500
2914.593994 108.420 172.3725
2935.714355 108.398 172.4222
2956.987793 108.383 172.4947
2978.415283 108.375 172.5776
2999.998047 108.374 172.6567
3021.737305 108.380 172.7222
3043.634033 108.391 172.7717
3065.689453 108.406 172.8112
3087.904785 108.426 172.8497
3110.281006 108.451 172.8926
3132.819336 108.483 172.9371
3155.520996 108.523 172.9742
3178.387207 108.571 172.9934
3201.419189 108.626 172.9859
3224.617920 108.689 172.9448
3247.984863 108.757 172.8652
3271.520996 108.830 172.7473
3295.227783 108.906 172.5974
3319.106445 108.987 172.4252
3343.157959 109.073 172.2365
3367.383789 109.167 172.0302
3391.785156 109.270 171.7999
3416.363525 109.384 171.5365
3441.119873 109.508 171.2312
3466.055664 109.646 170.8749
3491.172119 109.798 170.4533
3516.470703 109.966 169.9429
3541.952393 110.150 169.3120
3567.618896 110.349 168.5275
3593.471436 110.560 167.5589
3619.511230 110.777 166.3810
3645.739746 110.996 164.9753
3672.158203 111.210 163.3330
3698.768066 111.415 161.4547
3725.570801 111.605 159.3453
3752.567871 111.777 157.0098
3779.760498 111.924 154.4540
3807.150146 112.042 151.6902
3834.738281 112.123 148.7404
3862.526367 112.163 145.6382
3890.515869 112.158 142.4232
3918.708252 112.106 139.1359
3947.104736 112.006 135.8167
3975.707031 111.857 132.5052
4004.516602 111.661 129.2403
4033.534912 111.417 126.0593
4062.763672 111.128 122.9999
4092.204102 110.796 120.1006
4121.857910 110.425 117.3957
4151.726562 110.021 114.9097
4181.811523 109.588 112.6580
4212.114746 109.131 110.6505
4242.637695 108.656 108.8966
4273.381836 108.166 107.4045
4304.348633 107.667 106.1760
4335.539551 107.165 105.2032
4366.956543 106.664 104.4698
4398.601074 106.170 103.9525
4430.475098 105.684 103.6255
4462.580078 105.209 103.4675
4494.917969 104.744 103.4631
4527.490234 104.290 103.5989
4560.298340 103.847 103.8604
4593.344238 103.415 104.2343
4626.629395 102.992 104.7145
4660.155762 102.579 105.3028
4693.925293 102.176 106.0021
4727.939453 101.784 106.8107
4762.200195 101.404 107.7203
4796.708984 101.037 108.7155
4831.467773 100.685 109.7794
4866.478516 100.346 110.9000
4901.743164 100.020 112.0697
4937.263184 99.706 113.2809
4973.040527 99.403 114.5253
5009.077148 99.109 115.7993
5045.375000 98.824 117.1083
5081.936035 98.546 118.4626
5118.761719 98.276 119.8704
5155.854492 98.015 121.3338
5193.215820 97.764 122.8460
5230.848145 97.525 124.3965
5268.752930 97.296 125.9766
5306.932617 97.078 127.5802
5345.388672 96.871 129.2008
5384.123535 96.672 130.8326
5423.139160 96.481 132.4761
5462.437500 96.296 134.1393
5502.020508 96.118 135.8334
5541.890625 95.946 137.5671
5582.049316 95.784 139.3417
5622.499023 95.630 141.1526
5663.242188 95.486 142.9938
5704.280273 95.352 144.8584
5745.615723 95.228 146.7379
5787.250977 95.114 148.6250
5829.187988 95.007 150.5200
5871.428711 94.908 152.4318
5913.975586 94.817 154.3734
5956.830566 94.733 156.3536
5999.996094 94.660 158.3742
6043.474609 94.599 160.4313
6087.268066 94.551 162.5187
6131.378906 94.516 164.6285
6175.809570 94.496 166.7515
6220.562012 94.491 168.8812
6265.638672 94.499 171.0150
6311.041992 94.522 173.1522
6356.774414 94.560 175.2911
6402.838379 94.614 177.4265
6449.235840 94.683 179.5516
6495.969727 94.768 -178.3405
6543.041992 94.869 -176.2579
6590.455566 94.985 -174.2056
6638.212891 95.115 -172.1820
6686.315918 95.259 -170.1785
6734.767578 95.418 -168.1852
6783.570312 95.597 -166.1974
6832.727051 95.797 -164.2174
6882.239746 96.022 -162.2548
6932.111328 96.275 -160.3279
6982.344238 96.557 -158.4591
7032.941406 96.871 -156.6693
7083.904785 97.218 -154.9776
7135.237793 97.601 -153.4061
7186.942871 98.022 -151.9854
7239.022461 98.486 -150.7574
7291.479492 98.994 -149.7776
7344.316406 99.545 -149.1160
7397.536133 100.136 -148.8500
7451.141602 100.760 -149.0580
7505.135742 101.408 -149.8148
7559.520996 102.067 -151.1907
7614.300293 102.719 -153.2453
7669.476562 103.343 -156.0195
7725.052734 103.915 -159.5265
7781.031738 104.406 -163.7392
7837.416504 104.791 -168.5789
7894.209473 105.044 -173.9113
7951.414062 105.148 -179.5531
8009.033203 105.092 174.7132
8067.069824 104.878 169.1164
8125.527344 104.516 163.8685
8184.408203 104.023 159.1447
8243.715820 103.422 155.0742
8303.453125 102.740 151.7393
8363.623047 102.001 149.1785
8424.229492 101.231 147.3927
8485.275391 100.452 146.3510
8546.763672 99.684 145.9943
8608.697266 98.944 146.2426
8671.079102 98.241 147.0086
8733.913086 97.583 148.2092
8797.202148 96.974 149.7745
8860.950195 96.413 151.6497
8925.160156 95.902 153.7890
8989.835938 95.440 156.1481
9054.980469 95.027 158.6862
9120.596680 94.660 161.3701
9186.688477 94.338 164.1783
9253.258789 94.061 167.1012
9320.311523 93.827 170.1326
9387.850586 93.638 173.2614
9455.878906 93.496 176.4714
9524.400391 93.402 179.7452
9593.417969 93.358 -176.9292
9662.935547 93.369 -173.5571
9732.957031 93.440 -170.1465
9803.486328 93.580 -166.7197
9874.526367 93.800 -163.3190
9946.081055 94.110 -160.0072
10018.154297 94.520 -156.8694
10090.750000 95.042 -154.0213
10163.872070 95.678 -151.6244
10237.523438 96.425 -149.8858
10311.708984 97.261 -149.0368
10386.431641 98.153 -149.2964
10461.696289 99.054 -150.8317
10537.505859 99.907 -153.7297
10613.865234 100.654 -157.9741
10690.777344 101.234 -163.4235
10768.247070 101.596 -169.7966
10846.278320 101.703 -176.6797
10924.875000 101.547 176.4142
11004.041016 101.147 169.9443
11083.781250 100.544 164.2501
11164.098633 99.793 159.5114
11244.998047 98.949 155.7622
11326.484375 98.061 152.9306
11408.560547 97.163 150.8864
11491.231445 96.280 149.4846
11574.501953 95.421 148.5998
11658.375977 94.587 148.1468
11742.857422 93.774 148.0851
11827.951172 92.978 148.4070
11913.661133 92.197 149.1182
11999.992188 91.431 150.2241
12086.949219 90.682 151.7272
12174.536133 89.952 153.6250
12262.757812 89.246 155.9033
12351.619141 88.569 158.5316
12441.124023 87.927 161.4670
12531.277344 87.323 164.6660
12622.083984 86.760 168.0921
12713.548828 86.240 171.7153
12805.676758 85.762 175.5063
12898.471680 85.326 179.4382
12991.939453 84.931 -176.5077
13086.083984 84.577 -172.3441
13180.911133 84.264 -168.0845
13276.425781 83.993 -163.7447
13372.631836 83.763 -159.3364
13469.535156 83.575 -154.8652
13567.140625 83.430 -150.3380
13665.454102 83.329 -145.7659
13764.479492 83.273 -141.1601
13864.222656 83.263 -136.5247
13964.688477 83.302 -131.8618
14065.882812 83.392 -127.1774
14167.809570 83.541 -122.4833
14270.475586 83.753 -117.7948
14373.885742 84.038 -113.1367
14478.044922 84.405 -108.5490
14582.958984 84.861 -104.0889
14688.632812 85.417 -99.8316
14795.072266 86.079 -95.8778
14902.283203 86.851 -92.3602
15010.271484 87.732 -89.4401
15119.041992 88.710 -87.2988
15228.600586 89.765 -86.1281
15338.953125 90.864 -86.1097
15450.105469 91.964 -87.3866
15562.063477 93.019 -90.0369
15674.833008 93.978 -94.0566
15788.418945 94.787 -99.3437
15902.828125 95.402 -105.6859
16018.066406 95.787 -112.7571
16134.139648 95.924 -120.1438
16251.054688 95.824 -127.4096
16368.816406 95.519 -134.1814
16487.431641 95.067 -140.2214
16606.906250 94.535 -145.4673
16727.246094 93.995 -150.0362
16848.458984 93.508 -154.1987
16970.550781 93.111 -158.3221
17093.527344 92.801 -162.7825
17217.394531 92.537 -167.8639
17342.158203 92.251 -173.6833
17467.826172 91.865 179.8441
17594.404297 91.311 172.9914
17721.900391 90.548 166.1573
17850.320312 89.562 159.7681
17979.671875 88.361 154.1932
18109.960938 86.973 149.7044
18241.193359 85.429 146.4681
18373.376953 83.768 144.5490
18506.517578 82.027 143.9080
18640.623047 80.241 144.4050
18775.701172 78.441 145.8292
18911.757812 76.651 147.9731
19048.800781 74.878 150.7467
19186.835938 73.121 154.3009
19325.871094 71.379 159.0423
19465.914062 69.668 165.3942
19606.972656 68.043 173.3220
19749.052734 66.604 -178.1080
19892.162109 65.499 -170.6956
20036.308594 64.889 -166.3849
