* Measurement data measured by REW V5.31
* Source: EXCL: Microphone (USB Sound Device        ), MICROPHONE (Master Volume), L, volume: 0.250
* Format: 256k Log Swept Sine, 1 sweep at -10.0 dBFS with no timing reference
* Dated: Jun 30, 2024 11:43:37 PM
* REW Settings:
*  C-weighting compensation: Off
*  Target level: 75.0 dB
* Note: NF Audio NM2+
* Measurement: L NF Audio NM+
* Smoothing: 1/12 octave
* Frequency Step: 96 ppo
* Start Frequency: 0.36621094 Hz
*
* Freq(Hz) SPL(dB) Phase(degrees)
0.366211 84.444 158.6085
0.368865 84.438 158.5859
0.371538 84.429 158.5520
0.374230 84.418 158.5095
0.376942 84.406 158.4605
0.379673 84.393 158.4066
0.382424 84.379 158.3489
0.385196 84.365 158.2881
0.387987 84.350 158.2245
0.390798 84.336 158.1584
0.393630 84.321 158.0897
0.396483 84.306 158.0186
0.399356 84.291 157.9451
0.402250 84.276 157.8690
0.405165 84.261 157.7906
0.408101 84.245 157.7096
0.411058 84.230 157.6262
0.414037 84.214 157.5402
0.417037 84.199 157.4516
0.420059 84.183 157.3605
0.423103 84.167 157.2668
0.426169 84.151 157.1704
0.429257 84.135 157.0714
0.432368 84.119 156.9697
0.435501 84.102 156.8653
0.438656 84.086 156.7581
0.441835 84.069 156.6483
0.445037 84.053 156.5356
0.448262 84.036 156.4202
0.451510 84.019 156.3020
0.454782 84.002 156.1809
0.458077 83.985 156.0570
0.461397 83.967 155.9302
0.464740 83.950 155.8005
0.468108 83.932 155.6679
0.471500 83.915 155.5324
0.474917 83.897 155.3939
0.478358 83.879 155.2525
0.481825 83.861 155.1082
0.485316 83.843 154.9608
0.488833 83.824 154.8105
0.492375 83.806 154.6571
0.495943 83.787 154.5007
0.499537 83.768 154.3414
0.503157 83.750 154.1789
0.506803 83.731 154.0135
0.510475 83.711 153.8450
0.514175 83.692 153.6735
0.517900 83.673 153.4989
0.521653 83.653 153.3213
0.525434 83.633 153.1406
0.529241 83.613 152.9569
0.533076 83.593 152.7702
0.536939 83.573 152.5805
0.540830 83.553 152.3878
0.544749 83.533 152.1920
0.548696 83.512 151.9933
0.552673 83.491 151.7917
0.556677 83.470 151.5871
0.560711 83.449 151.3797
0.564774 83.428 151.1693
0.568867 83.407 150.9561
0.572989 83.385 150.7401
0.577141 83.364 150.5213
0.581324 83.342 150.2999
0.585536 83.320 150.0757
0.589779 83.298 149.8489
0.594053 83.275 149.6195
0.598358 83.253 149.3876
0.602694 83.230 149.1533
0.607061 83.208 148.9165
0.611460 83.185 148.6775
0.615891 83.161 148.4363
0.620354 83.138 148.1929
0.624849 83.115 147.9475
0.629377 83.091 147.7001
0.633938 83.067 147.4509
0.638532 83.043 147.1999
0.643159 83.019 146.9473
0.647819 82.995 146.6932
0.652514 82.970 146.4378
0.657242 82.946 146.1811
0.662005 82.921 145.9233
0.666802 82.896 145.6646
0.671634 82.871 145.4052
0.676501 82.845 145.1452
0.681403 82.820 144.8848
0.686341 82.794 144.6241
0.691314 82.768 144.3634
0.696324 82.742 144.1028
0.701370 82.715 143.8426
0.706452 82.688 143.5828
0.711571 82.661 143.3236
0.716728 82.632 143.0648
0.721921 82.603 142.8063
0.727153 82.572 142.5475
0.732422 82.539 142.2879
0.737729 82.504 142.0263
0.743075 82.467 141.7617
0.748460 82.428 141.4933
0.753883 82.388 141.2204
0.759346 82.347 140.9424
0.764849 82.305 140.6590
0.770391 82.262 140.3700
0.775974 82.218 140.0752
0.781597 82.174 139.7745
0.787261 82.130 139.4678
0.792966 82.085 139.1550
0.798712 82.039 138.8360
0.804500 81.993 138.5108
0.810329 81.946 138.1794
0.816201 81.898 137.8416
0.822116 81.850 137.4973
0.828073 81.801 137.1467
0.834074 81.751 136.7895
0.840118 81.701 136.4258
0.846206 81.649 136.0555
0.852338 81.597 135.6786
0.858514 81.544 135.2952
0.864735 81.490 134.9051
0.871001 81.435 134.5083
0.877313 81.380 134.1050
0.883670 81.323 133.6950
0.890074 81.265 133.2784
0.896524 81.206 132.8553
0.903020 81.146 132.4258
0.909564 81.085 131.9897
0.916155 81.022 131.5474
0.922794 80.958 131.0988
0.929481 80.894 130.6441
0.936216 80.827 130.1833
0.943000 80.759 129.7168
0.949834 80.690 129.2445
0.956717 80.620 128.7668
0.963649 80.548 128.2839
0.970632 80.474 127.7960
0.977666 80.398 127.3034
0.984750 80.321 126.8064
0.991886 80.242 126.3053
0.999074 80.162 125.8006
1.006314 80.079 125.2927
1.013606 79.994 124.7820
1.020951 79.908 124.2689
1.028349 79.819 123.7542
1.035801 79.728 123.2382
1.043307 79.635 122.7217
1.050867 79.540 122.2053
1.058482 79.442 121.6897
1.066152 79.342 121.1754
1.073878 79.239 120.6631
1.081660 79.134 120.1531
1.089498 79.025 119.6457
1.097393 78.914 119.1406
1.105345 78.800 118.6373
1.113355 78.683 118.1350
1.121423 78.563 117.6328
1.129549 78.439 117.1299
1.137734 78.312 116.6256
1.145979 78.182 116.1191
1.154283 78.049 115.6099
1.162647 77.912 115.0973
1.171072 77.772 114.5808
1.179558 77.629 114.0598
1.188106 77.483 113.5335
1.196715 77.334 113.0015
1.205387 77.181 112.4629
1.214122 77.026 111.9172
1.222920 76.868 111.3634
1.231782 76.706 110.8009
1.240708 76.542 110.2287
1.249699 76.375 109.6459
1.258754 76.205 109.0516
1.267876 76.033 108.4447
1.277063 75.858 107.8242
1.286318 75.680 107.1888
1.295639 75.500 106.5375
1.305027 75.317 105.8688
1.314484 75.133 105.1814
1.324009 74.946 104.4738
1.333604 74.756 103.7446
1.343268 74.565 102.9921
1.353002 74.372 102.2147
1.362806 74.178 101.4106
1.372681 73.981 100.5779
1.382628 73.783 99.7150
1.392647 73.584 98.8198
1.402739 73.383 97.8905
1.412904 73.180 96.9253
1.423142 72.977 95.9223
1.433455 72.771 94.8798
1.443843 72.564 93.7962
1.454305 72.353 92.6698
1.464844 72.138 91.4986
1.475459 71.918 90.2804
1.486150 71.689 89.0119
1.496920 71.453 87.6889
1.507767 71.207 86.3060
1.518693 70.951 84.8568
1.529698 70.687 83.3337
1.540783 70.413 81.7283
1.551948 70.132 80.0306
1.563194 69.844 78.2298
1.574521 69.550 76.3133
1.585931 69.252 74.2674
1.597423 68.949 72.0766
1.608999 68.645 69.7239
1.620658 68.340 67.1910
1.632402 68.035 64.4580
1.644232 67.733 61.5044
1.656146 67.434 58.3096
1.668147 67.141 54.8542
1.680235 66.856 51.1219
1.692411 66.580 47.1017
1.704675 66.315 42.7911
1.717028 66.063 38.1993
1.729470 65.827 33.3503
1.742003 65.610 28.2848
1.754626 65.413 23.0602
1.767341 65.239 17.7476
1.780147 65.091 12.4257
1.793047 64.971 7.1729
1.806040 64.883 2.0585
1.819128 64.829 -2.8644
1.832310 64.811 -7.5622
1.845587 64.831 -12.0203
1.858961 64.889 -16.2377
1.872432 64.986 -20.2211
1.886001 65.119 -23.9802
1.899667 65.288 -27.5258
1.913433 65.491 -30.8687
1.927299 65.724 -34.0193
1.941265 65.984 -36.9876
1.955332 66.270 -39.7831
1.969501 66.576 -42.4149
1.983773 66.902 -44.8916
1.998148 67.242 -47.2210
2.012627 67.594 -49.4106
2.027212 67.953 -51.4673
2.041902 68.318 -53.3973
2.056698 68.683 -55.2062
2.071602 69.045 -56.8993
2.086614 69.401 -58.4813
2.101734 69.746 -59.9567
2.116964 70.078 -61.3299
2.132304 70.394 -62.6055
2.147756 70.690 -63.7887
2.163320 70.966 -64.8861
2.178996 71.220 -65.9056
2.194786 71.453 -66.8573
2.210690 71.667 -67.7525
2.226710 71.863 -68.6024
2.242845 72.046 -69.4164
2.259098 72.216 -70.2012
2.275468 72.375 -70.9610
2.291957 72.523 -71.6982
2.308566 72.663 -72.4137
2.325295 72.795 -73.1073
2.342145 72.919 -73.7785
2.359117 73.036 -74.4259
2.376212 73.147 -75.0480
2.393431 73.252 -75.6429
2.410775 73.353 -76.2084
2.428244 73.449 -76.7424
2.445840 73.541 -77.2423
2.463564 73.631 -77.7057
2.481416 73.719 -78.1300
2.499397 73.805 -78.5132
2.517509 73.890 -78.8535
2.535752 73.973 -79.1501
2.554127 74.055 -79.4032
2.572635 74.134 -79.6142
2.591277 74.209 -79.7856
2.610055 74.280 -79.9200
2.628968 74.346 -80.0200
2.648019 74.408 -80.0876
2.667208 74.465 -80.1244
2.686535 74.517 -80.1317
2.706003 74.566 -80.1105
2.725612 74.612 -80.0616
2.745363 74.656 -79.9857
2.765257 74.698 -79.8837
2.785295 74.741 -79.7560
2.805478 74.784 -79.6034
2.825808 74.828 -79.4263
2.846285 74.875 -79.2252
2.866910 74.925 -79.0001
2.887685 74.979 -78.7509
2.908611 75.036 -78.4765
2.929688 75.098 -78.1755
2.950917 75.163 -77.8463
2.972301 75.232 -77.4877
2.993839 75.303 -77.0997
3.015534 75.376 -76.6838
3.037386 75.452 -76.2426
3.059396 75.530 -75.7798
3.081565 75.611 -75.2997
3.103896 75.694 -74.8070
3.126388 75.780 -74.3066
3.149043 75.868 -73.8036
3.171862 75.960 -73.3028
3.194847 76.055 -72.8089
3.217998 76.154 -72.3256
3.241317 76.257 -71.8558
3.264805 76.364 -71.4009
3.288463 76.476 -70.9606
3.312293 76.593 -70.5330
3.336295 76.715 -70.1162
3.360471 76.842 -69.7088
3.384822 76.973 -69.3111
3.409350 77.109 -68.9246
3.434056 77.249 -68.5523
3.458940 77.391 -68.1973
3.484005 77.536 -67.8634
3.509252 77.683 -67.5542
3.534681 77.831 -67.2733
3.560295 77.978 -67.0238
3.586094 78.125 -66.8084
3.612081 78.272 -66.6287
3.638255 78.417 -66.4858
3.664620 78.561 -66.3792
3.691175 78.705 -66.3076
3.717923 78.847 -66.2688
3.744864 78.990 -66.2606
3.772001 79.132 -66.2805
3.799335 79.273 -66.3265
3.826866 79.413 -66.3966
3.854597 79.552 -66.4891
3.882529 79.688 -66.6024
3.910664 79.823 -66.7354
3.939002 79.954 -66.8872
3.967546 80.083 -67.0574
3.996296 80.207 -67.2460
4.025255 80.328 -67.4536
4.054423 80.445 -67.6806
4.083804 80.559 -67.9274
4.113396 80.669 -68.1932
4.143204 80.775 -68.4765
4.173227 80.877 -68.7749
4.203468 80.976 -69.0855
4.233928 81.072 -69.4053
4.264609 81.164 -69.7314
4.295512 81.252 -70.0613
4.326639 81.337 -70.3931
4.357992 81.419 -70.7260
4.389572 81.497 -71.0598
4.421380 81.570 -71.3957
4.453419 81.640 -71.7345
4.485691 81.706 -72.0766
4.518196 81.768 -72.4213
4.550936 81.826 -72.7668
4.583914 81.881 -73.1108
4.617131 81.933 -73.4504
4.650589 81.982 -73.7827
4.684289 82.029 -74.1052
4.718233 82.073 -74.4159
4.752424 82.116 -74.7136
4.786862 82.155 -74.9983
4.821549 82.193 -75.2704
4.856488 82.228 -75.5308
4.891680 82.261 -75.7798
4.927127 82.292 -76.0178
4.962831 82.322 -76.2445
4.998794 82.351 -76.4594
5.035017 82.380 -76.6618
5.071503 82.408 -76.8509
5.108253 82.437 -77.0259
5.145270 82.467 -77.1862
5.182555 82.497 -77.3318
5.220110 82.527 -77.4634
5.257937 82.558 -77.5824
5.296038 82.590 -77.6910
5.334415 82.622 -77.7916
5.373071 82.657 -77.8867
5.412006 82.693 -77.9782
5.451224 82.731 -78.0678
5.490725 82.771 -78.1564
5.530514 82.814 -78.2441
5.570590 82.859 -78.3314
5.610957 82.906 -78.4195
5.651616 82.956 -78.5102
5.692570 83.008 -78.6063
5.733821 83.061 -78.7108
5.775370 83.116 -78.8264
5.817221 83.173 -78.9555
5.859375 83.232 -79.0996
5.901834 83.292 -79.2593
5.944602 83.354 -79.4346
5.987679 83.417 -79.6258
6.031068 83.482 -79.8331
6.074771 83.547 -80.0572
6.118792 83.612 -80.2991
6.163131 83.677 -80.5596
6.207792 83.742 -80.8394
6.252776 83.807 -81.1391
6.298086 83.871 -81.4583
6.343725 83.934 -81.7961
6.389694 83.997 -82.1511
6.435996 84.058 -82.5216
6.482634 84.118 -82.9057
6.529610 84.177 -83.3023
6.576926 84.233 -83.7103
6.624585 84.288 -84.1292
6.672590 84.341 -84.5583
6.720942 84.393 -84.9966
6.769645 84.442 -85.4422
6.818700 84.490 -85.8929
6.868111 84.536 -86.3462
6.917881 84.581 -86.8003
6.968010 84.624 -87.2537
7.018504 84.666 -87.7058
7.069362 84.706 -88.1558
7.120590 84.745 -88.6031
7.172189 84.783 -89.0464
7.224161 84.821 -89.4844
7.276511 84.859 -89.9158
7.329239 84.896 -90.3396
7.382350 84.933 -90.7554
7.435845 84.971 -91.1632
7.489729 85.009 -91.5635
7.544002 85.048 -91.9568
7.598669 85.088 -92.3437
7.653732 85.130 -92.7245
7.709194 85.172 -93.0997
7.765058 85.217 -93.4696
7.821327 85.263 -93.8352
7.878004 85.311 -94.1976
7.935091 85.361 -94.5585
7.992592 85.412 -94.9193
8.050510 85.466 -95.2812
8.108847 85.521 -95.6450
8.167607 85.578 -96.0115
8.226793 85.637 -96.3813
8.286408 85.697 -96.7554
8.346454 85.759 -97.1346
8.406936 85.822 -97.5196
8.467856 85.885 -97.9108
8.529218 85.949 -98.3083
8.591024 86.014 -98.7116
8.653278 86.080 -99.1203
8.715983 86.145 -99.5339
8.779143 86.210 -99.9519
8.842760 86.275 -100.3736
8.906839 86.340 -100.7983
8.971381 86.404 -101.2250
9.036392 86.468 -101.6522
9.101873 86.531 -102.0787
9.167829 86.594 -102.5033
9.234263 86.656 -102.9252
9.301178 86.717 -103.3433
9.368578 86.777 -103.7568
9.436467 86.837 -104.1645
9.504847 86.896 -104.5657
9.573723 86.955 -104.9595
9.643099 87.012 -105.3457
9.712976 87.069 -105.7241
9.783361 87.124 -106.0945
9.854255 87.177 -106.4568
9.925663 87.228 -106.8113
9.997588 87.277 -107.1581
10.070035 87.323 -107.4976
10.143007 87.368 -107.8304
10.216507 87.412 -108.1572
10.290540 87.454 -108.4785
10.365109 87.496 -108.7948
10.440219 87.537 -109.1067
10.515873 87.577 -109.4147
10.592076 87.616 -109.7195
10.668830 87.655 -110.0214
10.746141 87.694 -110.3207
10.824012 87.733 -110.6176
10.902447 87.771 -110.9123
10.981451 87.808 -111.2049
11.061027 87.845 -111.4953
11.141180 87.881 -111.7834
11.221913 87.917 -112.0693
11.303232 87.951 -112.3526
11.385140 87.985 -112.6333
11.467641 88.018 -112.9112
11.550741 88.050 -113.1864
11.634442 88.081 -113.4588
11.718750 88.112 -113.7283
11.803669 88.142 -113.9951
11.889203 88.172 -114.2593
11.975357 88.202 -114.5211
12.062136 88.231 -114.7808
12.149543 88.260 -115.0386
12.237583 88.288 -115.2949
12.326262 88.315 -115.5500
12.415583 88.342 -115.8041
12.505552 88.368 -116.0576
12.596172 88.393 -116.3106
12.687449 88.418 -116.5633
12.779387 88.441 -116.8160
12.871992 88.464 -117.0686
12.965268 88.485 -117.3213
13.059220 88.507 -117.5743
13.153852 88.527 -117.8275
13.249170 88.547 -118.0811
13.345179 88.567 -118.3353
13.441884 88.587 -118.5903
13.539289 88.606 -118.8465
13.637401 88.625 -119.1042
13.736223 88.644 -119.3639
13.835761 88.663 -119.6263
13.936021 88.682 -119.8918
14.037007 88.700 -120.1613
14.138725 88.719 -120.4352
14.241180 88.737 -120.7141
14.344377 88.755 -120.9987
14.448323 88.772 -121.2892
14.553021 88.789 -121.5859
14.658478 88.806 -121.8888
14.764700 88.823 -122.1979
14.871691 88.839 -122.5127
14.979457 88.855 -122.8329
15.088005 88.870 -123.1577
15.197339 88.885 -123.4866
15.307465 88.900 -123.8186
15.418389 88.914 -124.1530
15.530117 88.928 -124.4890
15.642655 88.942 -124.8259
15.756008 88.956 -125.1632
15.870182 88.969 -125.5004
15.985184 88.983 -125.8373
16.101019 88.998 -126.1737
16.217694 89.013 -126.5096
16.335214 89.028 -126.8452
16.453586 89.044 -127.1806
16.572815 89.061 -127.5161
16.692909 89.079 -127.8519
16.813872 89.098 -128.1880
16.935713 89.118 -128.5245
17.058436 89.139 -128.8613
17.182048 89.160 -129.1982
17.306556 89.182 -129.5349
17.431967 89.204 -129.8709
17.558286 89.227 -130.2057
17.685521 89.250 -130.5387
17.813677 89.273 -130.8694
17.942762 89.296 -131.1971
18.072783 89.319 -131.5213
18.203746 89.343 -131.8415
18.335658 89.366 -132.1574
18.468526 89.389 -132.4685
18.602356 89.413 -132.7746
18.737156 89.437 -133.0756
18.872934 89.461 -133.3715
19.009695 89.485 -133.6621
19.147447 89.509 -133.9478
19.286197 89.533 -134.2286
19.425953 89.558 -134.5048
19.566721 89.582 -134.7768
19.708510 89.606 -135.0450
19.851326 89.629 -135.3098
19.995177 89.652 -135.5717
20.140070 89.675 -135.8310
20.286013 89.697 -136.0882
20.433014 89.718 -136.3434
20.581080 89.738 -136.5969
20.730219 89.758 -136.8485
20.880439 89.776 -137.0983
21.031747 89.794 -137.3460
21.184152 89.811 -137.5915
21.337661 89.828 -137.8347
21.492282 89.843 -138.0754
21.648024 89.858 -138.3139
21.804895 89.873 -138.5504
21.962902 89.887 -138.7855
22.122054 89.901 -139.0199
22.282360 89.914 -139.2543
22.443827 89.927 -139.4898
22.606464 89.940 -139.7272
22.770280 89.953 -139.9673
22.935283 89.965 -140.2109
23.101481 89.977 -140.4582
23.268884 89.989 -140.7095
23.437500 90.001 -140.9647
23.607338 90.012 -141.2238
23.778406 90.022 -141.4863
23.950714 90.032 -141.7519
24.124271 90.042 -142.0203
24.299086 90.052 -142.2911
24.475167 90.062 -142.5641
24.652524 90.072 -142.8391
24.831166 90.082 -143.1157
25.011103 90.092 -143.3937
25.192344 90.102 -143.6726
25.374898 90.113 -143.9521
25.558775 90.123 -144.2315
25.743984 90.134 -144.5102
25.930536 90.145 -144.7874
26.118439 90.156 -145.0624
26.307704 90.168 -145.3347
26.498341 90.179 -145.6035
26.690359 90.191 -145.8686
26.883768 90.203 -146.1297
27.078579 90.216 -146.3866
27.274801 90.228 -146.6393
27.472446 90.241 -146.8882
27.671522 90.254 -147.1333
27.872042 90.267 -147.3750
28.074014 90.280 -147.6135
28.277450 90.293 -147.8492
28.482360 90.305 -148.0820
28.688755 90.317 -148.3124
28.896645 90.329 -148.5402
29.106042 90.340 -148.7654
29.316957 90.351 -148.9882
29.529400 90.361 -149.2085
29.743382 90.370 -149.4265
29.958915 90.379 -149.6424
30.176009 90.388 -149.8564
30.394677 90.396 -150.0692
30.614929 90.404 -150.2811
30.836778 90.411 -150.4927
31.060234 90.418 -150.7046
31.285309 90.425 -150.9172
31.512015 90.432 -151.1311
31.740364 90.438 -151.3465
31.970368 90.444 -151.5638
32.202039 90.450 -151.7832
32.435388 90.456 -152.0047
32.670428 90.462 -152.2284
32.907171 90.467 -152.4542
33.145630 90.473 -152.6821
33.385817 90.478 -152.9116
33.627745 90.484 -153.1423
33.871425 90.489 -153.3737
34.116871 90.495 -153.6052
34.364096 90.500 -153.8361
34.613113 90.506 -154.0658
34.863934 90.512 -154.2937
35.116572 90.518 -154.5196
35.371041 90.524 -154.7435
35.627354 90.530 -154.9656
35.885525 90.536 -155.1862
36.145566 90.543 -155.4053
36.407492 90.549 -155.6232
36.671316 90.555 -155.8394
36.937051 90.561 -156.0538
37.204712 90.567 -156.2655
37.474313 90.572 -156.4744
37.745867 90.577 -156.6801
38.019389 90.581 -156.8829
38.294893 90.585 -157.0832
38.572394 90.589 -157.2816
38.851905 90.593 -157.4787
39.133442 90.597 -157.6749
39.417019 90.600 -157.8701
39.702651 90.603 -158.0644
39.990353 90.606 -158.2576
40.280140 90.608 -158.4498
40.572026 90.610 -158.6413
40.866028 90.612 -158.8326
41.162160 90.614 -159.0238
41.460438 90.616 -159.2152
41.760877 90.618 -159.4065
42.063494 90.620 -159.5973
42.368303 90.621 -159.7869
42.675322 90.623 -159.9749
42.984565 90.624 -160.1609
43.296048 90.625 -160.3450
43.609789 90.627 -160.5275
43.925804 90.628 -160.7089
44.244108 90.630 -160.8897
44.564719 90.631 -161.0705
44.887654 90.633 -161.2514
45.212928 90.634 -161.4323
45.540560 90.635 -161.6128
45.870565 90.636 -161.7926
46.202962 90.636 -161.9713
46.537768 90.637 -162.1486
46.875000 90.637 -162.3247
47.214676 90.637 -162.4996
47.556813 90.638 -162.6738
47.901429 90.638 -162.8477
48.248542 90.638 -163.0215
48.598171 90.639 -163.1954
48.950334 90.640 -163.3695
49.305048 90.640 -163.5437
49.662333 90.641 -163.7175
50.022206 90.641 -163.8908
50.384688 90.642 -164.0633
50.749796 90.642 -164.2347
51.117550 90.642 -164.4046
51.487969 90.642 -164.5727
51.861072 90.642 -164.7379
52.236879 90.641 -164.8997
52.615409 90.641 -165.0574
52.996681 90.641 -165.2114
53.380717 90.641 -165.3622
53.767536 90.641 -165.5111
54.157158 90.642 -165.6589
54.549603 90.643 -165.8064
54.944892 90.645 -165.9545
55.343045 90.647 -166.1039
55.744084 90.649 -166.2556
56.148028 90.652 -166.4108
56.554900 90.654 -166.5701
56.964720 90.657 -166.7338
57.377510 90.659 -166.9014
57.793291 90.661 -167.0722
58.212085 90.663 -167.2455
58.633914 90.664 -167.4201
59.058799 90.664 -167.5948
59.486764 90.664 -167.7682
59.917829 90.663 -167.9393
60.352019 90.662 -168.1077
60.789354 90.660 -168.2736
61.229859 90.658 -168.4376
61.673556 90.656 -168.5999
62.120468 90.653 -168.7601
62.570618 90.650 -168.9184
63.024031 90.647 -169.0751
63.480729 90.644 -169.2311
63.940736 90.641 -169.3871
64.404077 90.638 -169.5431
64.870776 90.634 -169.6985
65.340856 90.631 -169.8524
65.814343 90.627 -170.0045
66.291261 90.623 -170.1548
66.771635 90.619 -170.3034
67.255489 90.615 -170.4503
67.742850 90.610 -170.5952
68.233743 90.606 -170.7381
68.728193 90.602 -170.8793
69.226226 90.597 -171.0199
69.727867 90.593 -171.1606
70.233144 90.589 -171.3019
70.742083 90.585 -171.4435
71.254709 90.581 -171.5850
71.771050 90.577 -171.7259
72.291132 90.573 -171.8660
72.814984 90.570 -172.0051
73.342631 90.568 -172.1433
73.874102 90.566 -172.2822
74.409424 90.565 -172.4241
74.948626 90.565 -172.5706
75.491734 90.564 -172.7217
76.038779 90.562 -172.8742
76.589787 90.559 -173.0237
77.144788 90.555 -173.1665
77.703811 90.551 -173.3017
78.266885 90.547 -173.4313
78.834039 90.543 -173.5600
79.405303 90.539 -173.6929
79.980706 90.535 -173.8345
80.560280 90.531 -173.9877
81.144053 90.527 -174.1536
81.732056 90.521 -174.3316
82.324320 90.514 -174.5197
82.920876 90.506 -174.7144
83.521755 90.497 -174.9119
84.126988 90.486 -175.1079
84.736607 90.475 -175.2983
85.350643 90.463 -175.4788
85.969129 90.450 -175.6452
86.592097 90.437 -175.7950
87.219579 90.424 -175.9278
87.851608 90.412 -176.0464
88.488217 90.400 -176.1547
89.129439 90.388 -176.2560
89.775308 90.375 -176.3523
90.425856 90.362 -176.4446
91.081119 90.349 -176.5332
91.741131 90.336 -176.6193
92.405925 90.325 -176.7072
93.075536 90.315 -176.8033
93.750000 90.306 -176.9128
94.429351 90.298 -177.0358
95.113625 90.290 -177.1678
95.802858 90.282 -177.3033
96.497085 90.274 -177.4383
97.196342 90.266 -177.5701
97.900667 90.257 -177.6964
98.610096 90.248 -177.8160
99.324665 90.239 -177.9293
100.044413 90.229 -178.0381
100.769376 90.219 -178.1447
101.499592 90.208 -178.2504
102.235100 90.198 -178.3555
102.975938 90.187 -178.4601
103.722144 90.177 -178.5643
104.473757 90.166 -178.6682
105.230817 90.157 -178.7716
105.993363 90.147 -178.8744
106.761435 90.138 -178.9759
107.535072 90.128 -179.0755
108.314315 90.117 -179.1731
109.099206 90.107 -179.2701
109.889783 90.096 -179.3686
110.686090 90.085 -179.4714
111.488167 90.074 -179.5813
112.296056 90.064 -179.6994
113.109800 90.053 -179.8231
113.929440 90.042 -179.9454
114.755020 90.030 179.9431
115.586582 90.017 179.8505
116.424170 90.005 179.7814
117.267827 89.993 179.7338
118.117598 89.982 179.6986
118.973527 89.971 179.6627
119.835658 89.960 179.6151
120.704037 89.947 179.5550
121.578708 89.932 179.4880
122.459718 89.917 179.4180
123.347111 89.902 179.3445
124.240935 89.889 179.2659
125.141236 89.877 179.1822
126.048061 89.866 179.0948
126.961458 89.856 179.0055
127.881473 89.846 178.9155
128.808154 89.836 178.8250
129.741551 89.825 178.7333
130.681712 89.814 178.6395
131.628686 89.802 178.5425
132.582521 89.790 178.4425
133.543269 89.777 178.3401
134.510979 89.764 178.2361
135.485701 89.751 178.1320
136.467486 89.737 178.0288
137.456386 89.723 177.9277
138.452451 89.708 177.8295
139.455735 89.692 177.7345
140.466288 89.676 177.6428
141.484165 89.659 177.5539
142.509418 89.642 177.4668
143.542100 89.625 177.3808
144.582265 89.607 177.2957
145.629968 89.590 177.2115
146.685262 89.571 177.1280
147.748204 89.552 177.0445
148.818849 89.532 176.9609
149.897251 89.511 176.8790
150.983469 89.488 176.8029
152.077557 89.464 176.7384
153.179574 89.440 176.6914
154.289576 89.415 176.6655
155.407622 89.391 176.6593
156.533770 89.369 176.6658
157.668078 89.349 176.6757
158.810606 89.330 176.6810
159.961413 89.311 176.6781
161.120559 89.293 176.6670
162.288105 89.274 176.6497
163.464112 89.256 176.6299
164.648640 89.237 176.6114
165.841752 89.218 176.5980
167.043510 89.199 176.5923
168.253976 89.182 176.5963
169.473213 89.165 176.6102
170.701286 89.149 176.6320
171.938258 89.135 176.6567
173.184194 89.123 176.6773
174.439158 89.112 176.6867
175.703216 89.102 176.6806
176.976434 89.092 176.6586
178.258878 89.082 176.6232
179.550615 89.071 176.5778
180.851713 89.060 176.5256
182.162239 89.048 176.4684
183.482262 89.036 176.4070
184.811850 89.023 176.3416
186.151073 89.009 176.2722
187.500000 88.994 176.1990
188.858702 88.978 176.1235
190.227250 88.962 176.0485
191.605715 88.945 175.9774
192.994169 88.927 175.9140
194.392685 88.910 175.8607
195.801334 88.892 175.8179
197.220191 88.874 175.7834
198.649330 88.855 175.7518
200.088825 88.836 175.7191
201.538751 88.816 175.6852
202.999184 88.796 175.6516
204.470200 88.776 175.6183
205.951875 88.758 175.5837
207.444287 88.740 175.5464
208.947514 88.721 175.5059
210.461634 88.702 175.4634
211.986726 88.681 175.4221
213.522869 88.657 175.3858
215.070144 88.632 175.3596
216.628631 88.606 175.3478
218.198411 88.579 175.3517
219.779567 88.552 175.3688
221.372180 88.527 175.3931
222.976334 88.503 175.4183
224.592112 88.480 175.4402
226.219600 88.458 175.4573
227.858880 88.436 175.4705
229.510039 88.413 175.4810
231.173164 88.391 175.4900
232.848340 88.368 175.4976
234.535655 88.345 175.5037
236.235197 88.322 175.5079
237.947054 88.298 175.5105
239.671317 88.274 175.5124
241.408074 88.249 175.5158
243.157416 88.222 175.5231
244.919435 88.195 175.5366
246.694223 88.167 175.5589
248.481871 88.138 175.5923
250.282473 88.109 175.6396
252.096123 88.080 175.7023
253.922915 88.053 175.7797
255.762945 88.029 175.8663
257.616309 88.007 175.9526
259.483103 87.987 176.0285
261.363424 87.968 176.0890
263.257372 87.949 176.1353
265.165043 87.927 176.1738
267.086538 87.904 176.2129
269.021957 87.879 176.2598
270.971401 87.854 176.3192
272.934972 87.829 176.3920
274.912771 87.805 176.4763
276.904902 87.783 176.5691
278.911469 87.761 176.6677
280.932577 87.742 176.7692
282.968330 87.725 176.8701
285.018835 87.710 176.9647
287.084199 87.697 177.0456
289.164530 87.684 177.1063
291.259935 87.670 177.1454
293.370525 87.654 177.1682
295.496408 87.635 177.1846
297.637697 87.612 177.2045
299.794503 87.588 177.2339
301.966937 87.562 177.2747
304.155114 87.535 177.3261
306.359147 87.509 177.3860
308.579152 87.482 177.4515
310.815244 87.455 177.5198
313.067539 87.428 177.5895
315.336156 87.401 177.6616
317.621211 87.372 177.7399
319.922826 87.343 177.8285
322.241118 87.314 177.9292
324.576210 87.285 178.0407
326.928223 87.256 178.1600
329.297280 87.229 178.2838
331.683504 87.203 178.4090
334.087019 87.177 178.5333
336.507952 87.152 178.6551
338.946427 87.127 178.7740
341.402572 87.101 178.8912
343.876516 87.075 179.0088
346.368387 87.047 179.1294
348.878315 87.020 179.2548
351.406431 86.992 179.3856
353.952867 86.964 179.5214
356.517756 86.936 179.6615
359.101230 86.909 179.8054
361.703426 86.881 179.9524
364.324478 86.854 -179.8976
366.964523 86.827 -179.7446
369.623699 86.799 -179.5885
372.302145 86.771 -179.4290
375.000000 86.744 -179.2660
377.717405 86.716 -179.0996
380.454501 86.689 -178.9298
383.211431 86.662 -178.7563
385.988339 86.635 -178.5789
388.785369 86.608 -178.3973
391.602668 86.582 -178.2115
394.440383 86.556 -178.0223
397.298660 86.530 -177.8307
400.177650 86.505 -177.6377
403.077502 86.480 -177.4445
405.998368 86.456 -177.2514
408.940400 86.431 -177.0583
411.903750 86.406 -176.8637
414.888575 86.380 -176.6645
417.895028 86.353 -176.4573
420.923268 86.327 -176.2401
423.973452 86.301 -176.0116
427.045738 86.276 -175.7731
430.140287 86.253 -175.5279
433.257261 86.231 -175.2811
436.396822 86.211 -175.0365
439.559133 86.192 -174.7953
442.744360 86.173 -174.5578
445.952668 86.156 -174.3260
449.184225 86.140 -174.1044
452.439199 86.125 -173.8983
455.717760 86.109 -173.7103
459.020079 86.090 -173.5361
462.346327 86.069 -173.3649
465.696680 86.045 -173.1847
469.071310 86.018 -172.9879
472.470394 85.991 -172.7730
475.894109 85.964 -172.5435
479.342634 85.937 -172.3051
482.816148 85.910 -172.0641
486.314833 85.884 -171.8226
489.838871 85.856 -171.5760
493.388445 85.828 -171.3164
496.963741 85.799 -171.0396
500.564945 85.772 -170.7487
504.192245 85.747 -170.4513
507.845830 85.723 -170.1544
511.525890 85.700 -169.8614
515.232618 85.677 -169.5715
518.966206 85.654 -169.2814
522.726849 85.630 -168.9860
526.514743 85.607 -168.6805
530.330086 85.583 -168.3627
534.173076 85.561 -168.0353
538.043915 85.540 -167.7031
541.942803 85.520 -167.3690
545.869944 85.500 -167.0321
549.825542 85.481 -166.6915
553.809805 85.463 -166.3486
557.822939 85.446 -166.0068
561.865154 85.429 -165.6682
565.936660 85.412 -165.3327
570.037671 85.395 -164.9969
574.168399 85.377 -164.6570
578.329060 85.359 -164.3105
582.519870 85.341 -163.9573
586.741049 85.323 -163.5976
590.992817 85.305 -163.2295
595.275394 85.288 -162.8508
599.589005 85.271 -162.4632
603.933874 85.256 -162.0709
608.310228 85.242 -161.6783
612.718295 85.228 -161.2866
617.158304 85.215 -160.8930
621.630488 85.200 -160.4915
626.135079 85.186 -160.0754
630.672311 85.173 -159.6427
635.242423 85.162 -159.1976
639.845651 85.153 -158.7466
644.482237 85.146 -158.2922
649.152421 85.141 -157.8332
653.856447 85.138 -157.3708
658.594560 85.138 -156.9118
663.367008 85.140 -156.4666
668.174039 85.144 -156.0430
673.015903 85.147 -155.6398
677.892854 85.148 -155.2484
682.805145 85.146 -154.8587
687.753032 85.143 -154.4633
692.736774 85.138 -154.0563
697.756631 85.132 -153.6333
702.812863 85.126 -153.1929
707.905735 85.122 -152.7379
713.035511 85.118 -152.2732
718.202461 85.117 -151.8029
723.406852 85.116 -151.3285
728.648956 85.116 -150.8501
733.929047 85.118 -150.3677
739.247399 85.120 -149.8817
744.604290 85.124 -149.3930
750.000000 85.128 -148.9023
755.434809 85.133 -148.4100
760.909001 85.139 -147.9166
766.422861 85.146 -147.4226
771.976677 85.153 -146.9286
777.570739 85.160 -146.4351
783.205337 85.168 -145.9422
788.880766 85.176 -145.4477
794.597321 85.184 -144.9470
800.355301 85.193 -144.4355
806.155005 85.202 -143.9112
811.996736 85.213 -143.3772
817.880799 85.227 -142.8396
823.807501 85.243 -142.3056
829.777150 85.260 -141.7820
835.790057 85.277 -141.2700
841.846536 85.292 -140.7629
847.946903 85.307 -140.2501
854.091476 85.321 -139.7241
860.280575 85.335 -139.1824
866.514523 85.350 -138.6243
872.793644 85.367 -138.0494
879.118267 85.386 -137.4606
885.488720 85.408 -136.8648
891.905336 85.433 -136.2676
898.368450 85.460 -135.6708
904.878398 85.490 -135.0733
911.435520 85.523 -134.4747
918.040157 85.559 -133.8775
924.692655 85.597 -133.2850
931.393359 85.638 -132.7009
938.142619 85.682 -132.1290
944.940787 85.727 -131.5708
951.788218 85.773 -131.0249
958.685268 85.821 -130.4884
965.632296 85.869 -129.9585
972.629666 85.918 -129.4327
979.677741 85.968 -128.9102
986.776890 86.019 -128.3908
993.927482 86.071 -127.8723
1001.129891 86.123 -127.3494
1008.384491 86.177 -126.8176
1015.691660 86.234 -126.2782
1023.051781 86.294 -125.7370
1030.465236 86.359 -125.2028
1037.932411 86.428 -124.6877
1045.453698 86.500 -124.2041
1053.029486 86.573 -123.7575
1060.660172 86.645 -123.3438
1068.346153 86.716 -122.9537
1076.087829 86.785 -122.5771
1083.885605 86.853 -122.2068
1091.739887 86.919 -121.8407
1099.651084 86.985 -121.4786
1107.619609 87.050 -121.1201
1115.645878 87.115 -120.7643
1123.730308 87.179 -120.4101
1131.873321 87.243 -120.0560
1140.075341 87.307 -119.7011
1148.336797 87.371 -119.3449
1156.658119 87.435 -118.9869
1165.039741 87.500 -118.6258
1173.482099 87.565 -118.2599
1181.985634 87.633 -117.8897
1190.550789 87.704 -117.5207
1199.178011 87.778 -117.1642
1207.867749 87.854 -116.8317
1216.620457 87.932 -116.5292
1225.436590 88.008 -116.2528
1234.316609 88.082 -115.9938
1243.260976 88.153 -115.7426
1252.270157 88.221 -115.4910
1261.344623 88.288 -115.2343
1270.484846 88.353 -114.9709
1279.691303 88.417 -114.6996
1288.964474 88.480 -114.4186
1298.304842 88.544 -114.1280
1307.712894 88.608 -113.8299
1317.189120 88.673 -113.5274
1326.734016 88.740 -113.2224
1336.348077 88.807 -112.9147
1346.031806 88.875 -112.6021
1355.785708 88.946 -112.2811
1365.610290 89.018 -111.9491
1375.506065 89.093 -111.6026
1385.473549 89.172 -111.2381
1395.513261 89.255 -110.8559
1405.625726 89.344 -110.4632
1415.811469 89.438 -110.0735
1426.071023 89.538 -109.7033
1436.404921 89.640 -109.3627
1446.813703 89.743 -109.0527
1457.297912 89.846 -108.7674
1467.858093 89.947 -108.5000
1478.494798 90.045 -108.2447
1489.208581 90.141 -107.9966
1500.000000 90.234 -107.7508
1510.869618 90.323 -107.5027
1521.818002 90.408 -107.2482
1532.845723 90.488 -106.9843
1543.953355 90.566 -106.7085
1555.141477 90.643 -106.4202
1566.410674 90.720 -106.1236
1577.761531 90.800 -105.8294
1589.194642 90.883 -105.5515
1600.710601 90.967 -105.2993
1612.310010 91.052 -105.0732
1623.993473 91.136 -104.8680
1635.761599 91.219 -104.6763
1647.615002 91.301 -104.4925
1659.554299 91.383 -104.3123
1671.580114 91.465 -104.1327
1683.693072 91.548 -103.9532
1695.893807 91.631 -103.7759
1708.182952 91.715 -103.6031
1720.561150 91.798 -103.4352
1733.029045 91.881 -103.2695
1745.587288 91.963 -103.1015
1758.236533 92.044 -102.9252
1770.977440 92.127 -102.7359
1783.810673 92.213 -102.5351
1796.736900 92.303 -102.3328
1809.756796 92.399 -102.1442
1822.871040 92.498 -101.9808
1836.080315 92.600 -101.8472
1849.385310 92.704 -101.7427
1862.786718 92.809 -101.6642
1876.285239 92.916 -101.6077
1889.881575 93.024 -101.5681
1903.576436 93.136 -101.5406
1917.370535 93.251 -101.5209
1931.264593 93.373 -101.5068
1945.259332 93.501 -101.5011
1959.355483 93.637 -101.5137
1973.553781 93.778 -101.5592
1987.854965 93.924 -101.6488
2002.259781 94.071 -101.7868
2016.768981 94.218 -101.9719
2031.383320 94.364 -102.2001
2046.103561 94.508 -102.4673
2060.930471 94.650 -102.7698
2075.864823 94.789 -103.1066
2090.907395 94.925 -103.4774
2106.058972 95.057 -103.8801
2121.320344 95.185 -104.3097
2136.692305 95.308 -104.7582
2152.175658 95.427 -105.2177
2167.771210 95.543 -105.6852
2183.479774 95.657 -106.1663
2199.302169 95.770 -106.6707
2215.239219 95.881 -107.2062
2231.291755 95.989 -107.7754
2247.460615 96.093 -108.3772
2263.746641 96.192 -109.0066
2280.150683 96.286 -109.6561
2296.673595 96.376 -110.3170
2313.316238 96.463 -110.9817
2330.079481 96.547 -111.6478
2346.964198 96.631 -112.3213
2363.971268 96.715 -113.0134
2381.101578 96.799 -113.7351
2398.356022 96.882 -114.4946
2415.735498 96.962 -115.2978
2433.240913 97.039 -116.1492
2450.873180 97.112 -117.0529
2468.633217 97.179 -118.0123
2486.521951 97.238 -119.0270
2504.540314 97.287 -120.0900
2522.689246 97.324 -121.1874
2540.969692 97.350 -122.3013
2559.382606 97.364 -123.4169
2577.928947 97.368 -124.5254
2596.609683 97.361 -125.6208
2615.425787 97.344 -126.6966
2634.378241 97.317 -127.7439
2653.468031 97.279 -128.7513
2672.696154 97.231 -129.7041
2692.063613 97.175 -130.5869
2711.571415 97.112 -131.3877
2731.220579 97.046 -132.1027
2751.012130 96.978 -132.7360
2770.947098 96.910 -133.2942
2791.026522 96.842 -133.7827
2811.251451 96.776 -134.2055
2831.622938 96.713 -134.5658
2852.142045 96.652 -134.8681
2872.809842 96.595 -135.1178
2893.627406 96.543 -135.3196
2914.595823 96.496 -135.4765
2935.716186 96.456 -135.5941
2956.989596 96.423 -135.6852
2978.417161 96.398 -135.7676
3000.000000 96.381 -135.8594
3021.739237 96.368 -135.9727
3043.636005 96.358 -136.1111
3065.691446 96.349 -136.2686
3087.906710 96.340 -136.4332
3110.282955 96.331 -136.5942
3132.821347 96.323 -136.7473
3155.523062 96.317 -136.8929
3178.389283 96.312 -137.0325
3201.421202 96.308 -137.1669
3224.620020 96.305 -137.2962
3247.986946 96.303 -137.4200
3271.523198 96.302 -137.5357
3295.230004 96.301 -137.6365
3319.108599 96.302 -137.7143
3343.160228 96.306 -137.7658
3367.386145 96.315 -137.7947
3391.787613 96.329 -137.8086
3416.365904 96.349 -137.8140
3441.122300 96.374 -137.8129
3466.058091 96.404 -137.8016
3491.174576 96.441 -137.7761
3516.473066 96.485 -137.7384
3541.954880 96.539 -137.6979
3567.621345 96.603 -137.6680
3593.473800 96.675 -137.6631
3619.513592 96.757 -137.6971
3645.742080 96.847 -137.7815
3672.160630 96.942 -137.9221
3698.770620 97.043 -138.1183
3725.573436 97.149 -138.3696
3752.570477 97.260 -138.6806
3779.763150 97.376 -139.0610
3807.152872 97.496 -139.5213
3834.741071 97.619 -140.0683
3862.529185 97.742 -140.7042
3890.518664 97.868 -141.4321
3918.710966 97.995 -142.2608
3947.107561 98.124 -143.2049
3975.709929 98.253 -144.2822
4004.519563 98.382 -145.5105
4033.537962 98.507 -146.9047
4062.766641 98.624 -148.4716
4092.207123 98.729 -150.2089
4121.860942 98.821 -152.1097
4151.729646 98.896 -154.1664
4181.814790 98.951 -156.3698
4212.117944 98.984 -158.7054
4242.640687 98.990 -161.1500
4273.384610 98.967 -163.6734
4304.351317 98.916 -166.2447
4335.542421 98.834 -168.8348
4366.959549 98.724 -171.4180
4398.604338 98.585 -173.9716
4430.478438 98.417 -176.4734
4462.583511 98.220 -178.8985
4494.921231 97.995 178.7808
4527.493283 97.744 176.5901
4560.301365 97.469 174.5486
4593.347189 97.172 172.6708
4626.632476 96.855 170.9709
4660.158962 96.520 169.4637
4693.928395 96.171 168.1610
4727.942535 95.812 167.0676
4762.203156 95.447 166.1790
4796.712043 95.080 165.4817
4831.470996 94.713 164.9581
4866.481826 94.349 164.5929
4901.746360 93.988 164.3741
4937.266434 93.632 164.2895
4973.043902 93.281 164.3263
5009.080628 92.936 164.4755
5045.378492 92.595 164.7358
5081.939384 92.260 165.1105
5118.765212 91.930 165.6021
5155.857894 91.609 166.2071
5193.219366 91.297 166.9148
5230.851574 90.997 167.7106
5268.756481 90.707 168.5821
5306.936062 90.429 169.5193
5345.392309 90.161 170.5115
5384.127225 89.902 171.5488
5423.142830 89.651 172.6283
5462.441159 89.406 173.7552
5502.024259 89.167 174.9387
5541.894195 88.934 176.1864
5582.053045 88.709 177.4996
5622.502902 88.494 178.8750
5663.245876 88.289 -179.6907
5704.284090 88.096 -178.2006
5745.619684 87.916 -176.6608
5787.254813 87.749 -175.0800
5829.191647 87.596 -173.4660
5871.432373 87.458 -171.8266
5913.979192 87.333 -170.1723
5956.834323 87.223 -168.5172
6000.000000 87.126 -166.8734
6043.478473 87.039 -165.2432
6087.272010 86.961 -163.6178
6131.382892 86.891 -161.9856
6175.813420 86.831 -160.3382
6220.565910 86.779 -158.6692
6265.642695 86.737 -156.9722
6311.046124 86.706 -155.2415
6356.778566 86.688 -153.4749
6402.842404 86.685 -151.6760
6449.240040 86.697 -149.8511
6495.973891 86.727 -148.0094
6543.046396 86.775 -146.1631
6590.460007 86.842 -144.3238
6638.217197 86.927 -142.4977
6686.320456 87.030 -140.6854
6734.772290 87.152 -138.8853
6783.575226 87.294 -137.0984
6832.731809 87.457 -135.3295
6882.244600 87.642 -133.5886
6932.116181 87.852 -131.8911
6982.349153 88.087 -130.2554
7032.946133 88.348 -128.6975
7083.909760 88.638 -127.2310
7135.242690 88.958 -125.8708
7186.947600 89.312 -124.6390
7239.027185 89.702 -123.5666
7291.484160 90.131 -122.6968
7344.321260 90.599 -122.0857
7397.541239 91.105 -121.7973
7451.146872 91.646 -121.8987
7505.140954 92.214 -122.4584
7559.526299 92.802 -123.5468
7614.305743 93.399 -125.2332
7669.482141 93.989 -127.5803
7725.058371 94.552 -130.6371
7781.037328 95.065 -134.4251
7837.421932 95.505 -138.9242
7894.215122 95.846 -144.0619
7951.419859 96.069 -149.7097
8009.039125 96.157 -155.6874
8067.075924 96.103 -161.7763
8125.533282 95.908 -167.7441
8184.414245 95.581 -173.3729
8243.721885 95.137 -178.4801
8303.459292 94.595 177.0684
8363.629581 93.977 173.3543
8424.235888 93.307 170.4120
8485.281374 92.607 168.2336
8546.769221 91.899 166.7752
8608.702634 91.202 165.9666
8671.084842 90.531 165.7247
8733.919097 89.896 165.9660
8797.208675 89.304 166.6151
8860.956876 88.758 167.6074
8925.167022 88.263 168.8852
8989.842461 87.819 170.3929
9054.986566 87.427 172.0784
9120.602731 87.086 173.8982
9186.694378 86.795 175.8196
9253.264952 86.551 177.8213
9320.317925 86.357 179.8859
9387.856790 86.212 -178.0087
9455.885071 86.118 -175.8893
9524.406312 86.077 -173.7847
9593.424086 86.088 -171.7206
9662.941992 86.155 -169.7193
9732.963653 86.281 -167.8085
9803.492719 86.470 -166.0306
9874.532869 86.724 -164.4442
9946.087805 87.046 -163.1220
10018.161257 87.434 -162.1457
10090.756983 87.886 -161.6054
10163.878768 88.396 -161.6046
10237.530423 88.953 -162.2574
10311.715789 89.539 -163.6766
10386.438732 90.129 -165.9555
10461.703149 90.692 -169.1493
10537.512962 91.195 -173.2631
10613.872125 91.605 -178.2442
10690.784618 91.886 176.0279
10768.254450 92.010 169.7459
10846.285661 91.957 163.1694
10924.882318 91.719 156.5988
11004.048518 91.300 150.3339
11083.788390 90.719 144.6322
11164.106090 90.000 139.6826
11245.005805 89.174 135.6019
11326.491752 88.271 132.4423
11408.568180 87.323 130.2018
11491.239368 86.358 128.8334
11574.509626 85.400 128.2560
11658.383294 84.471 128.3698
11742.864745 83.583 129.0718
11827.958384 82.748 130.2648
11913.668646 81.970 131.8582
12000.000000 81.252 133.7696
12086.956947 80.593 135.9299
12174.544019 79.991 138.2876
12262.765784 79.443 140.8040
12351.626840 78.946 143.4453
12441.131819 78.498 146.1807
12531.285389 78.095 148.9871
12622.092249 77.736 151.8503
12713.557132 77.419 154.7593
12805.684808 77.143 157.7004
12898.480079 76.907 160.6602
12991.947783 76.711 163.6289
13086.092792 76.554 166.5994
13180.920015 76.436 169.5604
13276.434395 76.358 172.4971
13372.640911 76.320 175.3963
13469.544580 76.322 178.2484
13567.150452 76.366 -178.9580
13665.463617 76.453 -176.2395
13764.489200 76.584 -173.6151
13864.232362 76.761 -171.1037
13964.698305 76.987 -168.7293
14065.892266 77.266 -166.5263
14167.819519 77.600 -164.5393
14270.485380 77.992 -162.8189
14373.895200 78.444 -161.4258
14478.054370 78.954 -160.4323
14582.968320 79.520 -159.9181
14688.642520 80.135 -159.9620
14795.082478 80.789 -160.6402
14902.293745 81.468 -162.0229
15010.281908 82.156 -164.1649
15119.052599 82.832 -167.0976
15228.611486 83.474 -170.8248
15338.964283 84.062 -175.3186
15450.116741 84.573 179.4837
15562.074656 84.990 173.6786
15674.843864 85.299 167.3875
15788.430244 85.494 160.7432
15902.839718 85.572 153.8766
16018.078250 85.537 146.9026
16134.151848 85.394 139.9126
16251.066563 85.148 132.9750
16368.828491 84.801 126.1494
16487.443769 84.352 119.5029
16606.918584 83.797 113.1252
16727.259161 83.133 107.1394
16848.471777 82.362 101.7043
16970.562748 81.490 97.0002
17093.538442 80.541 93.1978
17217.405268 79.552 90.4005
17342.169684 78.580 88.5566
17467.838194 77.689 87.3818
17594.417350 76.924 86.3928
17721.913751 76.282 85.1099
17850.334044 75.709 83.2949
17979.684923 75.135 81.0258
18109.973131 74.506 78.5800
18241.205462 73.799 76.2658
18373.388756 73.019 74.3182
18506.529905 72.187 72.8675
18640.635849 71.329 71.9433
18775.713581 70.470 71.4940
18911.770141 69.633 71.4135
19048.812624 68.832 71.5677
19186.848172 68.075 71.8192
19325.883983 67.369 72.0513
19465.927305 66.721 72.1838
19606.985439 66.150 72.1831
19749.065738 65.683 72.0672
19892.175609 65.350 71.9026
20036.322514 65.178 71.7835
