* Measurement data measured by REW V5.31
* Source: EXCL: Microphone (USB Sound Device        ), MICROPHONE (Master Volume), L, volume: 0.390
* Format: 256k Log Swept Sine, 1 sweep at -5.0 dBFS with no timing reference
* Dated: Sep 9, 2024 11:31:53 PM
* REW Settings:
*  C-weighting compensation: Off
*  Target level: 75.0 dB
* Note: NF Audio RA15 Gold
* Measurement: L NF Audio RA15 Gold
* Smoothing: 1/12 octave
* Frequency Step: 96 ppo
* Start Frequency: 0.36621094 Hz
*
* Freq(Hz)	SPL(dB)	Phase(degrees)
0.366211	81.329	168.9903
0.368865	81.325	168.9763
0.371538	81.318	168.9555
0.374230	81.310	168.9293
0.376942	81.301	168.8992
0.379673	81.292	168.8663
0.382424	81.282	168.8311
0.385196	81.271	168.7941
0.387987	81.261	168.7556
0.390798	81.250	168.7156
0.393630	81.239	168.6742
0.396483	81.229	168.6315
0.399356	81.218	168.5874
0.402250	81.207	168.5420
0.405165	81.196	168.4952
0.408101	81.184	168.4471
0.411058	81.173	168.3975
0.414037	81.162	168.3466
0.417037	81.150	168.2943
0.420059	81.139	168.2405
0.423103	81.127	168.1853
0.426169	81.116	168.1286
0.429257	81.104	168.0705
0.432368	81.092	168.0109
0.435501	81.080	167.9499
0.438656	81.068	167.8873
0.441835	81.056	167.8232
0.445037	81.044	167.7576
0.448262	81.031	167.6905
0.451510	81.019	167.6219
0.454782	81.006	167.5516
0.458077	80.994	167.4799
0.461397	80.981	167.4065
0.464740	80.969	167.3316
0.468108	80.956	167.2550
0.471500	80.943	167.1769
0.474917	80.930	167.0971
0.478358	80.917	167.0157
0.481825	80.903	166.9328
0.485316	80.890	166.8481
0.488833	80.877	166.7618
0.492375	80.863	166.6739
0.495943	80.850	166.5843
0.499537	80.836	166.4930
0.503157	80.822	166.4001
0.506803	80.808	166.3055
0.510475	80.794	166.2092
0.514175	80.780	166.1113
0.517900	80.766	166.0116
0.521653	80.752	165.9103
0.525434	80.737	165.8073
0.529241	80.723	165.7026
0.533076	80.708	165.5962
0.536939	80.693	165.4881
0.540830	80.679	165.3784
0.544749	80.664	165.2669
0.548696	80.649	165.1538
0.552673	80.633	165.0390
0.556677	80.618	164.9225
0.560711	80.603	164.8044
0.564774	80.587	164.6846
0.568867	80.572	164.5632
0.572989	80.556	164.4402
0.577141	80.540	164.3155
0.581324	80.524	164.1892
0.585536	80.508	164.0613
0.589779	80.492	163.9319
0.594053	80.476	163.8009
0.598358	80.459	163.6684
0.602694	80.443	163.5343
0.607061	80.426	163.3987
0.611460	80.409	163.2617
0.615891	80.393	163.1233
0.620354	80.376	162.9834
0.624849	80.358	162.8421
0.629377	80.341	162.6995
0.633938	80.324	162.5556
0.638532	80.306	162.4104
0.643159	80.289	162.2640
0.647819	80.271	162.1164
0.652514	80.253	161.9676
0.657242	80.235	161.8177
0.662005	80.217	161.6668
0.666802	80.199	161.5149
0.671634	80.180	161.3620
0.676501	80.162	161.2083
0.681403	80.143	161.0538
0.686341	80.124	160.8985
0.691314	80.105	160.7425
0.696324	80.086	160.5859
0.701370	80.066	160.4287
0.706452	80.047	160.2709
0.711571	80.027	160.1127
0.716728	80.006	159.9538
0.721921	79.984	159.7941
0.727153	79.961	159.6333
0.732422	79.936	159.4711
0.737729	79.909	159.3069
0.743075	79.881	159.1400
0.748460	79.851	158.9701
0.753883	79.820	158.7967
0.759346	79.789	158.6196
0.764849	79.756	158.4386
0.770391	79.724	158.2536
0.775974	79.690	158.0644
0.781597	79.657	157.8711
0.787261	79.623	157.6736
0.792966	79.588	157.4718
0.798712	79.554	157.2657
0.804500	79.518	157.0552
0.810329	79.483	156.8404
0.816201	79.446	156.6212
0.822116	79.410	156.3975
0.828073	79.372	156.1694
0.834074	79.334	155.9369
0.840118	79.296	155.6998
0.846206	79.257	155.4582
0.852338	79.217	155.2121
0.858514	79.176	154.9614
0.864735	79.135	154.7062
0.871001	79.093	154.4464
0.877313	79.050	154.1820
0.883670	79.006	153.9130
0.890074	78.961	153.6395
0.896524	78.915	153.3613
0.903020	78.869	153.0787
0.909564	78.821	152.7915
0.916155	78.772	152.4997
0.922794	78.722	152.2035
0.929481	78.671	151.9028
0.936216	78.619	151.5977
0.943000	78.565	151.2882
0.949834	78.510	150.9744
0.956717	78.453	150.6563
0.963649	78.396	150.3340
0.970632	78.336	150.0076
0.977666	78.275	149.6772
0.984750	78.212	149.3428
0.991886	78.148	149.0046
0.999074	78.082	148.6627
1.006314	78.014	148.3172
1.013606	77.944	147.9683
1.020951	77.872	147.6160
1.028349	77.798	147.2607
1.035801	77.722	146.9024
1.043307	77.644	146.5413
1.050867	77.563	146.1777
1.058482	77.480	145.8116
1.066152	77.394	145.4432
1.073878	77.305	145.0724
1.081660	77.214	144.6992
1.089498	77.119	144.3233
1.097393	77.021	143.9438
1.105345	76.919	143.5601
1.113355	76.813	143.1709
1.121423	76.702	142.7753
1.129549	76.587	142.3725
1.137734	76.467	141.9615
1.145979	76.342	141.5418
1.154283	76.213	141.1128
1.162647	76.079	140.6740
1.171072	75.941	140.2246
1.179558	75.798	139.7643
1.188106	75.652	139.2924
1.196715	75.502	138.8084
1.205387	75.348	138.3116
1.214122	75.190	137.8012
1.222920	75.029	137.2767
1.231782	74.866	136.7371
1.240708	74.699	136.1818
1.249699	74.530	135.6098
1.258754	74.359	135.0201
1.267876	74.186	134.4118
1.277063	74.011	133.7838
1.286318	73.835	133.1349
1.295639	73.658	132.4639
1.305027	73.480	131.7693
1.314484	73.302	131.0499
1.324009	73.124	130.3041
1.333604	72.947	129.5300
1.343268	72.770	128.7261
1.353002	72.595	127.8902
1.362806	72.421	127.0202
1.372681	72.250	126.1140
1.382628	72.081	125.1689
1.392647	71.915	124.1823
1.402739	71.753	123.1511
1.412904	71.595	122.0720
1.423142	71.442	120.9411
1.433455	71.293	119.7542
1.443843	71.148	118.5059
1.454305	71.008	117.1899
1.464844	70.871	115.7986
1.475459	70.737	114.3229
1.486150	70.604	112.7525
1.496920	70.471	111.0760
1.507767	70.338	109.2817
1.518693	70.205	107.3568
1.529698	70.071	105.2882
1.540783	69.938	103.0616
1.551948	69.804	100.6625
1.563194	69.671	98.0758
1.574521	69.540	95.2864
1.585931	69.411	92.2797
1.597423	69.284	89.0431
1.608999	69.161	85.5665
1.620658	69.042	81.8442
1.632402	68.927	77.8770
1.644232	68.819	73.6738
1.656146	68.717	69.2532
1.668147	68.622	64.6448
1.680235	68.536	59.8890
1.692411	68.459	55.0359
1.704675	68.393	50.1417
1.717028	68.338	45.2655
1.729470	68.295	40.4644
1.742003	68.267	35.7893
1.754626	68.253	31.2817
1.767341	68.256	26.9724
1.780147	68.277	22.8807
1.793047	68.317	19.0156
1.806040	68.379	15.3772
1.819128	68.463	11.9585
1.832310	68.573	8.7481
1.845587	68.709	5.7323
1.858961	68.873	2.8970
1.872432	69.064	0.2293
1.886001	69.283	-2.2824
1.899667	69.528	-4.6485
1.913433	69.798	-6.8788
1.927299	70.090	-8.9823
1.941265	70.404	-10.9678
1.955332	70.736	-12.8432
1.969501	71.084	-14.6163
1.983773	71.445	-16.2945
1.998148	71.818	-17.8844
2.012627	72.199	-19.3925
2.027212	72.586	-20.8247
2.041902	72.976	-22.1865
2.056698	73.366	-23.4830
2.071602	73.754	-24.7189
2.086614	74.136	-25.8986
2.101734	74.510	-27.0263
2.116964	74.872	-28.1059
2.132304	75.222	-29.1413
2.147756	75.556	-30.1365
2.163320	75.874	-31.0954
2.178996	76.174	-32.0224
2.194786	76.458	-32.9221
2.210690	76.727	-33.7989
2.226710	76.982	-34.6570
2.242845	77.226	-35.4992
2.259098	77.460	-36.3275
2.275468	77.684	-37.1428
2.291957	77.901	-37.9455
2.308566	78.110	-38.7355
2.325295	78.312	-39.5127
2.342145	78.508	-40.2765
2.359117	78.698	-41.0267
2.376212	78.883	-41.7627
2.393431	79.063	-42.4842
2.410775	79.239	-43.1908
2.428244	79.410	-43.8822
2.445840	79.579	-44.5580
2.463564	79.745	-45.2183
2.481416	79.909	-45.8629
2.499397	80.071	-46.4923
2.517509	80.232	-47.1070
2.535752	80.391	-47.7083
2.554127	80.548	-48.2980
2.572635	80.703	-48.8784
2.591277	80.856	-49.4520
2.610055	81.004	-50.0206
2.628968	81.149	-50.5855
2.648019	81.289	-51.1473
2.667208	81.426	-51.7058
2.686535	81.559	-52.2606
2.706003	81.687	-52.8109
2.725612	81.812	-53.3558
2.745363	81.934	-53.8943
2.765257	82.053	-54.4254
2.785295	82.170	-54.9480
2.805478	82.284	-55.4611
2.825808	82.396	-55.9638
2.846285	82.506	-56.4555
2.866910	82.615	-56.9355
2.887685	82.722	-57.4039
2.908611	82.828	-57.8611
2.929688	82.933	-58.3082
2.950917	83.035	-58.7466
2.972301	83.135	-59.1778
2.993839	83.233	-59.6031
3.015534	83.328	-60.0232
3.037386	83.420	-60.4381
3.059396	83.510	-60.8477
3.081565	83.598	-61.2514
3.103896	83.683	-61.6487
3.126388	83.767	-62.0386
3.149043	83.849	-62.4203
3.171862	83.929	-62.7930
3.194847	84.009	-63.1556
3.217998	84.087	-63.5074
3.241317	84.165	-63.8477
3.264805	84.243	-64.1762
3.288463	84.319	-64.4927
3.312293	84.395	-64.7976
3.336295	84.469	-65.0915
3.360471	84.542	-65.3751
3.384822	84.614	-65.6492
3.409350	84.684	-65.9143
3.434056	84.754	-66.1709
3.458940	84.822	-66.4197
3.484005	84.890	-66.6608
3.509252	84.957	-66.8947
3.534681	85.023	-67.1214
3.560295	85.090	-67.3413
3.586094	85.157	-67.5542
3.612081	85.224	-67.7602
3.638255	85.291	-67.9588
3.664620	85.359	-68.1499
3.691175	85.427	-68.3331
3.717923	85.495	-68.5082
3.744864	85.563	-68.6757
3.772001	85.632	-68.8361
3.799335	85.701	-68.9903
3.826866	85.769	-69.1396
3.854597	85.838	-69.2850
3.882529	85.908	-69.4280
3.910664	85.978	-69.5696
3.939002	86.048	-69.7109
3.967546	86.119	-69.8526
3.996296	86.192	-69.9950
4.025255	86.264	-70.1381
4.054423	86.338	-70.2814
4.083804	86.413	-70.4246
4.113396	86.489	-70.5677
4.143204	86.565	-70.7111
4.173227	86.642	-70.8555
4.203468	86.719	-71.0022
4.233928	86.797	-71.1525
4.264609	86.876	-71.3077
4.295512	86.954	-71.4692
4.326639	87.033	-71.6380
4.357992	87.113	-71.8150
4.389572	87.192	-72.0004
4.421380	87.272	-72.1943
4.453419	87.352	-72.3962
4.485691	87.432	-72.6059
4.518196	87.512	-72.8232
4.550936	87.593	-73.0480
4.583914	87.673	-73.2805
4.617131	87.753	-73.5208
4.650589	87.833	-73.7694
4.684289	87.912	-74.0266
4.718233	87.990	-74.2928
4.752424	88.067	-74.5683
4.786862	88.144	-74.8534
4.821549	88.220	-75.1479
4.856488	88.295	-75.4517
4.891680	88.369	-75.7640
4.927127	88.442	-76.0841
4.962831	88.514	-76.4110
4.998794	88.585	-76.7441
5.035017	88.655	-77.0826
5.071503	88.724	-77.4262
5.108253	88.791	-77.7746
5.145270	88.857	-78.1279
5.182555	88.922	-78.4865
5.220110	88.985	-78.8501
5.257937	89.046	-79.2182
5.296038	89.107	-79.5901
5.334415	89.166	-79.9645
5.373071	89.223	-80.3403
5.412006	89.280	-80.7165
5.451224	89.335	-81.0922
5.490725	89.389	-81.4670
5.530514	89.443	-81.8409
5.570590	89.494	-82.2141
5.610957	89.545	-82.5864
5.651616	89.595	-82.9577
5.692570	89.644	-83.3275
5.733821	89.692	-83.6952
5.775370	89.739	-84.0600
5.817221	89.787	-84.4214
5.859375	89.833	-84.7789
5.901834	89.880	-85.1326
5.944602	89.926	-85.4826
5.987679	89.972	-85.8292
6.031068	90.018	-86.1728
6.074771	90.064	-86.5138
6.118792	90.111	-86.8526
6.163131	90.157	-87.1894
6.207792	90.204	-87.5243
6.252776	90.252	-87.8575
6.298086	90.300	-88.1891
6.343725	90.349	-88.5195
6.389694	90.399	-88.8494
6.435996	90.449	-89.1797
6.482634	90.500	-89.5113
6.529610	90.551	-89.8451
6.576926	90.603	-90.1816
6.624585	90.657	-90.5212
6.672590	90.710	-90.8641
6.720942	90.765	-91.2106
6.769645	90.820	-91.5612
6.818700	90.876	-91.9163
6.868111	90.932	-92.2765
6.917881	90.989	-92.6425
6.968010	91.046	-93.0145
7.018504	91.103	-93.3926
7.069362	91.160	-93.7768
7.120590	91.218	-94.1668
7.172189	91.275	-94.5622
7.224161	91.333	-94.9628
7.276511	91.390	-95.3684
7.329239	91.447	-95.7787
7.382350	91.503	-96.1935
7.435845	91.559	-96.6125
7.489729	91.614	-97.0349
7.544002	91.669	-97.4600
7.598669	91.724	-97.8867
7.653732	91.778	-98.3144
7.709194	91.831	-98.7425
7.765058	91.884	-99.1704
7.821327	91.936	-99.5978
7.878004	91.987	-100.0239
7.935091	92.039	-100.4481
7.992592	92.090	-100.8695
8.050510	92.140	-101.2875
8.108847	92.191	-101.7018
8.167607	92.241	-102.1121
8.226793	92.291	-102.5184
8.286408	92.341	-102.9204
8.346454	92.391	-103.3182
8.406936	92.441	-103.7115
8.467856	92.492	-104.1004
8.529218	92.543	-104.4850
8.591024	92.594	-104.8657
8.653278	92.646	-105.2430
8.715983	92.699	-105.6171
8.779143	92.751	-105.9887
8.842760	92.804	-106.3580
8.906839	92.858	-106.7253
8.971381	92.912	-107.0912
9.036392	92.967	-107.4560
9.101873	93.021	-107.8202
9.167829	93.076	-108.1841
9.234263	93.132	-108.5480
9.301178	93.187	-108.9121
9.368578	93.242	-109.2762
9.436467	93.297	-109.6405
9.504847	93.352	-110.0048
9.573723	93.406	-110.3691
9.643099	93.459	-110.7332
9.712976	93.511	-111.0967
9.783361	93.560	-111.4591
9.854255	93.608	-111.8201
9.925663	93.652	-112.1793
9.997588	93.694	-112.5362
10.070035	93.733	-112.8905
10.143007	93.769	-113.2417
10.216507	93.803	-113.5894
10.290540	93.835	-113.9333
10.365109	93.865	-114.2731
10.440219	93.893	-114.6088
10.515873	93.921	-114.9403
10.592076	93.948	-115.2676
10.668830	93.974	-115.5907
10.746141	94.000	-115.9098
10.824012	94.025	-116.2252
10.902447	94.050	-116.5371
10.981451	94.074	-116.8460
11.061027	94.098	-117.1522
11.141180	94.122	-117.4560
11.221913	94.145	-117.7579
11.303232	94.168	-118.0582
11.385140	94.191	-118.3573
11.467641	94.213	-118.6554
11.550741	94.235	-118.9529
11.634442	94.256	-119.2497
11.718750	94.278	-119.5461
11.803669	94.298	-119.8422
11.889203	94.319	-120.1379
11.975357	94.339	-120.4333
12.062136	94.359	-120.7282
12.149543	94.379	-121.0226
12.237583	94.398	-121.3166
12.326262	94.416	-121.6100
12.415583	94.434	-121.9029
12.505552	94.452	-122.1953
12.596172	94.469	-122.4874
12.687449	94.485	-122.7792
12.779387	94.500	-123.0710
12.871992	94.515	-123.3631
12.965268	94.530	-123.6556
13.059220	94.544	-123.9489
13.153852	94.558	-124.2433
13.249170	94.572	-124.5391
13.345179	94.586	-124.8365
13.441884	94.599	-125.1357
13.539289	94.612	-125.4369
13.637401	94.626	-125.7402
13.736223	94.638	-126.0455
13.835761	94.651	-126.3529
13.936021	94.663	-126.6623
14.037007	94.674	-126.9736
14.138725	94.686	-127.2867
14.241180	94.696	-127.6014
14.344377	94.707	-127.9176
14.448323	94.716	-128.2352
14.553021	94.726	-128.5542
14.658478	94.736	-128.8746
14.764700	94.745	-129.1964
14.871691	94.755	-129.5198
14.979457	94.764	-129.8448
15.088005	94.774	-130.1715
15.197339	94.784	-130.5002
15.307465	94.794	-130.8309
15.418389	94.805	-131.1637
15.530117	94.815	-131.4985
15.642655	94.826	-131.8353
15.756008	94.836	-132.1739
15.870182	94.847	-132.5140
15.985184	94.857	-132.8555
16.101019	94.868	-133.1978
16.217694	94.879	-133.5406
16.335214	94.889	-133.8835
16.453586	94.900	-134.2262
16.572815	94.911	-134.5682
16.692909	94.923	-134.9092
16.813872	94.935	-135.2491
16.935713	94.948	-135.5876
17.058436	94.961	-135.9246
17.182048	94.974	-136.2600
17.306556	94.988	-136.5938
17.431967	95.002	-136.9258
17.558286	95.017	-137.2561
17.685521	95.032	-137.5844
17.813677	95.046	-137.9106
17.942762	95.061	-138.2345
18.072783	95.076	-138.5559
18.203746	95.090	-138.8746
18.335658	95.105	-139.1902
18.468526	95.119	-139.5025
18.602356	95.134	-139.8113
18.737156	95.148	-140.1166
18.872934	95.163	-140.4182
19.009695	95.177	-140.7163
19.147447	95.192	-141.0108
19.286197	95.207	-141.3019
19.425953	95.221	-141.5897
19.566721	95.236	-141.8745
19.708510	95.250	-142.1564
19.851326	95.263	-142.4355
19.995177	95.276	-142.7121
20.140070	95.289	-142.9862
20.286013	95.301	-143.2579
20.433014	95.313	-143.5275
20.581080	95.324	-143.7952
20.730219	95.335	-144.0611
20.880439	95.345	-144.3255
21.031747	95.355	-144.5889
21.184152	95.365	-144.8516
21.337661	95.374	-145.1138
21.492282	95.384	-145.3760
21.648024	95.393	-145.6385
21.804895	95.401	-145.9014
21.962902	95.409	-146.1649
22.122054	95.417	-146.4290
22.282360	95.424	-146.6940
22.443827	95.430	-146.9596
22.606464	95.436	-147.2261
22.770280	95.442	-147.4935
22.935283	95.447	-147.7619
23.101481	95.452	-148.0315
23.268884	95.457	-148.3025
23.437500	95.462	-148.5751
23.607338	95.466	-148.8494
23.778406	95.470	-149.1254
23.950714	95.474	-149.4030
24.124271	95.478	-149.6819
24.299086	95.481	-149.9619
24.475167	95.484	-150.2426
24.652524	95.487	-150.5235
24.831166	95.490	-150.8042
25.011103	95.494	-151.0845
25.192344	95.497	-151.3640
25.374898	95.501	-151.6428
25.558775	95.505	-151.9205
25.743984	95.509	-152.1973
25.930536	95.513	-152.4731
26.118439	95.518	-152.7476
26.307704	95.522	-153.0207
26.498341	95.527	-153.2921
26.690359	95.532	-153.5615
26.883768	95.537	-153.8285
27.078579	95.541	-154.0927
27.274801	95.546	-154.3540
27.472446	95.551	-154.6122
27.671522	95.555	-154.8672
27.872042	95.560	-155.1192
28.074014	95.564	-155.3684
28.277450	95.568	-155.6150
28.482360	95.572	-155.8594
28.688755	95.576	-156.1018
28.896645	95.579	-156.3424
29.106042	95.582	-156.5815
29.316957	95.584	-156.8191
29.529400	95.586	-157.0553
29.743382	95.588	-157.2902
29.958915	95.589	-157.5239
30.176009	95.591	-157.7565
30.394677	95.591	-157.9885
30.614929	95.592	-158.2200
30.836778	95.593	-158.4518
31.060234	95.593	-158.6842
31.285309	95.593	-158.9179
31.512015	95.593	-159.1532
31.740364	95.593	-159.3903
31.970368	95.593	-159.6293
32.202039	95.592	-159.8701
32.435388	95.591	-160.1122
32.670428	95.590	-160.3553
32.907171	95.588	-160.5989
33.145630	95.587	-160.8428
33.385817	95.586	-161.0865
33.627745	95.584	-161.3300
33.871425	95.583	-161.5732
34.116871	95.582	-161.8161
34.364096	95.581	-162.0585
34.613113	95.580	-162.3004
34.863934	95.580	-162.5416
35.116572	95.579	-162.7819
35.371041	95.578	-163.0209
35.627354	95.577	-163.2584
35.885525	95.576	-163.4940
36.145566	95.575	-163.7275
36.407492	95.573	-163.9585
36.671316	95.572	-164.1868
36.937051	95.570	-164.4126
37.204712	95.568	-164.6358
37.474313	95.565	-164.8568
37.745867	95.563	-165.0756
38.019389	95.561	-165.2928
38.294893	95.558	-165.5086
38.572394	95.555	-165.7233
38.851905	95.552	-165.9375
39.133442	95.548	-166.1514
39.417019	95.545	-166.3655
39.702651	95.541	-166.5800
39.990353	95.537	-166.7950
40.280140	95.533	-167.0103
40.572026	95.528	-167.2256
40.866028	95.523	-167.4406
41.162160	95.518	-167.6552
41.460438	95.513	-167.8694
41.760877	95.508	-168.0835
42.063494	95.503	-168.2977
42.368303	95.498	-168.5123
42.675322	95.493	-168.7271
42.984565	95.488	-168.9419
43.296048	95.482	-169.1559
43.609789	95.476	-169.3686
43.925804	95.470	-169.5791
44.244108	95.464	-169.7874
44.564719	95.457	-169.9934
44.887654	95.451	-170.1973
45.212928	95.445	-170.3995
45.540560	95.439	-170.6004
45.870565	95.432	-170.8004
46.202962	95.426	-170.9997
46.537768	95.419	-171.1985
46.875000	95.413	-171.3968
47.214676	95.406	-171.5944
47.556813	95.399	-171.7913
47.901429	95.392	-171.9874
48.248542	95.385	-172.1823
48.598171	95.378	-172.3761
48.950334	95.371	-172.5686
49.305048	95.363	-172.7597
49.662333	95.356	-172.9495
50.022206	95.349	-173.1383
50.384688	95.343	-173.3264
50.749796	95.336	-173.5146
51.117550	95.329	-173.7031
51.487969	95.322	-173.8920
51.861072	95.316	-174.0811
52.236879	95.308	-174.2696
52.615409	95.301	-174.4568
52.996681	95.294	-174.6422
53.380717	95.287	-174.8255
53.767536	95.279	-175.0069
54.157158	95.272	-175.1868
54.549603	95.266	-175.3656
54.944892	95.259	-175.5440
55.343045	95.253	-175.7226
55.744084	95.247	-175.9021
56.148028	95.241	-176.0833
56.554900	95.236	-176.2671
56.964720	95.230	-176.4543
57.377510	95.225	-176.6453
57.793291	95.219	-176.8398
58.212085	95.212	-177.0370
58.633914	95.205	-177.2358
59.058799	95.198	-177.4354
59.486764	95.190	-177.6355
59.917829	95.181	-177.8362
60.352019	95.172	-178.0374
60.789354	95.162	-178.2389
61.229859	95.152	-178.4397
61.673556	95.141	-178.6392
62.120468	95.129	-178.8370
62.570618	95.117	-179.0328
63.024031	95.105	-179.2266
63.480729	95.092	-179.4180
63.940736	95.079	-179.6068
64.404077	95.066	-179.7927
64.870776	95.053	-179.9758
65.340856	95.040	179.8434
65.814343	95.026	179.6639
66.291261	95.013	179.4852
66.771635	94.999	179.3070
67.255489	94.985	179.1296
67.742850	94.971	178.9532
68.233743	94.956	178.7780
68.728193	94.941	178.6042
69.226226	94.926	178.4315
69.727867	94.910	178.2597
70.233144	94.895	178.0882
70.742083	94.880	177.9160
71.254709	94.865	177.7425
71.771050	94.849	177.5679
72.291132	94.834	177.3934
72.814984	94.818	177.2199
73.342631	94.802	177.0486
73.874102	94.786	176.8798
74.409424	94.771	176.7139
74.948626	94.754	176.5513
75.491734	94.738	176.3925
76.038779	94.722	176.2379
76.589787	94.705	176.0876
77.144788	94.688	175.9413
77.703811	94.672	175.7982
78.266885	94.656	175.6565
78.834039	94.639	175.5144
79.405303	94.623	175.3700
79.980706	94.608	175.2224
80.560280	94.592	175.0708
81.144053	94.576	174.9152
81.732056	94.559	174.7557
82.324320	94.542	174.5930
82.920876	94.524	174.4285
83.521755	94.505	174.2642
84.126988	94.485	174.1032
84.736607	94.463	173.9485
85.350643	94.441	173.8024
85.969129	94.419	173.6656
86.592097	94.396	173.5377
87.219579	94.373	173.4172
87.851608	94.351	173.3024
88.488217	94.330	173.1914
89.129439	94.308	173.0832
89.775308	94.288	172.9777
90.425856	94.268	172.8763
91.081119	94.248	172.7806
91.741131	94.229	172.6914
92.405925	94.212	172.6082
93.075536	94.195	172.5287
93.750000	94.179	172.4498
94.429351	94.164	172.3688
95.113625	94.149	172.2845
95.802858	94.134	172.1965
96.497085	94.119	172.1045
97.196342	94.104	172.0087
97.900667	94.089	171.9089
98.610096	94.074	171.8053
99.324665	94.059	171.6978
100.044413	94.044	171.5872
100.769376	94.029	171.4760
101.499592	94.014	171.3690
102.235100	93.997	171.2726
102.975938	93.981	171.1916
103.722144	93.966	171.1259
104.473757	93.952	171.0692
105.230817	93.940	171.0118
105.993363	93.929	170.9470
106.761435	93.918	170.8726
107.535072	93.906	170.7889
108.314315	93.895	170.6976
109.099206	93.883	170.6006
109.889783	93.870	170.4995
110.686090	93.857	170.3947
111.488167	93.844	170.2858
112.296056	93.830	170.1715
113.109800	93.814	170.0510
113.929440	93.797	169.9247
114.755020	93.778	169.7941
115.586582	93.758	169.6619
116.424170	93.737	169.5312
117.267827	93.715	169.4055
118.117598	93.694	169.2896
118.973527	93.676	169.1891
119.835658	93.660	169.1077
120.704037	93.648	169.0414
121.578708	93.641	168.9793
122.459718	93.636	168.9111
123.347111	93.632	168.8319
124.240935	93.626	168.7408
125.141236	93.619	168.6385
126.048061	93.609	168.5253
126.961458	93.597	168.4014
127.881473	93.583	168.2675
128.808154	93.567	168.1254
129.741551	93.550	167.9771
130.681712	93.532	167.8252
131.628686	93.514	167.6716
132.582521	93.494	167.5180
133.543269	93.474	167.3658
134.510979	93.452	167.2159
135.485701	93.430	167.0696
136.467486	93.406	166.9276
137.456386	93.381	166.7906
138.452451	93.355	166.6594
139.455735	93.330	166.5343
140.466288	93.304	166.4149
141.484165	93.278	166.2999
142.509418	93.252	166.1868
143.542100	93.226	166.0730
144.582265	93.201	165.9577
145.629968	93.174	165.8414
146.685262	93.148	165.7256
147.748204	93.120	165.6115
148.818849	93.092	165.5012
149.897251	93.062	165.3972
150.983469	93.032	165.3023
152.077557	93.000	165.2187
153.179574	92.967	165.1476
154.289576	92.935	165.0887
155.407622	92.903	165.0395
156.533770	92.873	164.9954
157.668078	92.844	164.9509
158.810606	92.817	164.9012
159.961413	92.790	164.8435
161.120559	92.762	164.7774
162.288105	92.734	164.7042
163.464112	92.704	164.6263
164.648640	92.674	164.5466
165.841752	92.642	164.4683
167.043510	92.609	164.3947
168.253976	92.575	164.3288
169.473213	92.541	164.2723
170.701286	92.506	164.2253
171.938258	92.471	164.1863
173.184194	92.437	164.1526
174.439158	92.405	164.1219
175.703216	92.373	164.0927
176.976434	92.343	164.0649
178.258878	92.313	164.0388
179.550615	92.284	164.0138
180.851713	92.254	163.9888
182.162239	92.222	163.9622
183.482262	92.190	163.9334
184.811850	92.157	163.9029
186.151073	92.124	163.8718
187.500000	92.090	163.8419
188.858702	92.057	163.8152
190.227250	92.023	163.7936
191.605715	91.990	163.7784
192.994169	91.956	163.7711
194.392685	91.922	163.7730
195.801334	91.887	163.7849
197.220191	91.852	163.8083
198.649330	91.818	163.8444
200.088825	91.784	163.8947
201.538751	91.752	163.9591
202.999184	91.722	164.0350
204.470200	91.694	164.1174
205.951875	91.669	164.1999
207.444287	91.646	164.2760
208.947514	91.624	164.3415
210.461634	91.602	164.3944
211.986726	91.581	164.4360
213.522869	91.559	164.4698
215.070144	91.536	164.5013
216.628631	91.513	164.5344
218.198411	91.489	164.5706
219.779567	91.466	164.6082
221.372180	91.444	164.6429
222.976334	91.422	164.6706
224.592112	91.400	164.6888
226.219600	91.377	164.6979
227.858880	91.353	164.7001
229.510039	91.328	164.6981
231.173164	91.302	164.6938
232.848340	91.274	164.6887
234.535655	91.246	164.6835
236.235197	91.218	164.6780
237.947054	91.188	164.6724
239.671317	91.157	164.6672
241.408074	91.125	164.6641
243.157416	91.091	164.6656
244.919435	91.057	164.6745
246.694223	91.021	164.6937
248.481871	90.984	164.7260
250.282473	90.947	164.7742
252.096123	90.911	164.8398
253.922915	90.876	164.9216
255.762945	90.844	165.0137
257.616309	90.814	165.1066
259.483103	90.786	165.1902
261.363424	90.760	165.2593
263.257372	90.732	165.3149
265.165043	90.703	165.3635
267.086538	90.673	165.4134
269.021957	90.640	165.4715
270.971401	90.608	165.5417
272.934972	90.575	165.6246
274.912771	90.543	165.7181
276.904902	90.513	165.8195
278.911469	90.484	165.9266
280.932577	90.457	166.0374
282.968330	90.432	166.1488
285.018835	90.409	166.2557
287.084199	90.387	166.3507
289.164530	90.366	166.4272
291.259935	90.344	166.4832
293.370525	90.320	166.5236
295.496408	90.293	166.5588
297.637697	90.263	166.5991
299.794503	90.231	166.6513
301.966937	90.198	166.7175
304.155114	90.164	166.7963
306.359147	90.130	166.8845
308.579152	90.096	166.9781
310.815244	90.063	167.0741
313.067539	90.029	167.1708
315.336156	89.995	167.2691
317.621211	89.960	167.3729
319.922826	89.925	167.4865
322.241118	89.889	167.6126
324.576210	89.855	167.7505
326.928223	89.821	167.8969
329.297280	89.789	168.0482
331.683504	89.757	168.2010
334.087019	89.727	168.3525
336.507952	89.696	168.5004
338.946427	89.666	168.6439
341.402572	89.635	168.7841
343.876516	89.603	168.9241
346.368387	89.571	169.0665
348.878315	89.538	169.2131
351.406431	89.506	169.3644
353.952867	89.473	169.5204
356.517756	89.440	169.6805
359.101230	89.408	169.8442
361.703426	89.375	170.0111
364.324478	89.343	170.1808
366.964523	89.311	170.3534
369.623699	89.279	170.5292
372.302145	89.247	170.7083
375.000000	89.215	170.8906
377.717405	89.183	171.0759
380.454501	89.152	171.2639
383.211431	89.121	171.4545
385.988339	89.090	171.6482
388.785369	89.060	171.8456
391.602668	89.030	172.0472
394.440383	88.999	172.2529
397.298660	88.970	172.4619
400.177650	88.940	172.6734
403.077502	88.911	172.8859
405.998368	88.883	173.0979
408.940400	88.854	173.3087
411.903750	88.825	173.5193
414.888575	88.795	173.7331
417.895028	88.764	173.9540
420.923268	88.734	174.1851
423.973452	88.704	174.4274
427.045738	88.676	174.6791
430.140287	88.649	174.9359
433.257261	88.624	175.1928
436.396822	88.601	175.4464
439.559133	88.579	175.6962
442.744360	88.558	175.9427
445.952668	88.538	176.1843
449.184225	88.519	176.4167
452.439199	88.500	176.6346
455.717760	88.481	176.8347
459.020079	88.460	177.0205
462.346327	88.435	177.2022
465.696680	88.408	177.3914
469.071310	88.379	177.5956
472.470394	88.348	177.8164
475.894109	88.318	178.0513
479.342634	88.289	178.2947
482.816148	88.259	178.5408
486.314833	88.230	178.7872
489.838871	88.199	179.0383
493.388445	88.168	179.3018
496.963741	88.138	179.5819
500.564945	88.108	179.8755
504.192245	88.080	-179.8251
507.845830	88.054	-179.5266
511.525890	88.028	-179.2319
515.232618	88.003	-178.9405
518.966206	87.976	-178.6491
522.726849	87.950	-178.3533
526.514743	87.923	-178.0483
530.330086	87.896	-177.7322
534.173076	87.870	-177.4068
538.043915	87.845	-177.0765
541.942803	87.822	-176.7435
545.869944	87.799	-176.4073
549.825542	87.777	-176.0674
553.809805	87.756	-175.7257
557.822939	87.736	-175.3853
561.865154	87.716	-175.0482
565.936660	87.696	-174.7143
570.037671	87.676	-174.3806
574.168399	87.655	-174.0441
578.329060	87.634	-173.7024
582.519870	87.613	-173.3554
586.741049	87.592	-173.0029
590.992817	87.571	-172.6427
595.275394	87.550	-172.2725
599.589005	87.530	-171.8932
603.933874	87.511	-171.5091
608.310228	87.494	-171.1241
612.718295	87.476	-170.7391
617.158304	87.459	-170.3516
621.630488	87.441	-169.9557
626.135079	87.423	-169.5455
630.672311	87.406	-169.1187
635.242423	87.391	-168.6791
639.845651	87.379	-168.2330
644.482237	87.368	-167.7827
649.152421	87.359	-167.3279
653.856447	87.353	-166.8705
658.594560	87.350	-166.4174
663.367008	87.349	-165.9790
668.174039	87.350	-165.5632
673.015903	87.351	-165.1695
677.892854	87.350	-164.7898
682.805145	87.347	-164.4148
687.753032	87.341	-164.0376
692.736774	87.335	-163.6527
697.756631	87.327	-163.2560
702.812863	87.319	-162.8462
707.905735	87.312	-162.4257
713.035511	87.305	-161.9988
718.202461	87.300	-161.5686
723.406852	87.295	-161.1357
728.648956	87.290	-160.6987
733.929047	87.286	-160.2565
739.247399	87.283	-159.8088
744.604290	87.279	-159.3557
750.000000	87.277	-158.8968
755.434809	87.274	-158.4319
760.909001	87.273	-157.9608
766.422861	87.272	-157.4839
771.976677	87.272	-157.0019
777.570739	87.273	-156.5158
783.205337	87.274	-156.0259
788.880766	87.276	-155.5300
794.597321	87.279	-155.0238
800.355301	87.283	-154.5038
806.155005	87.289	-153.9699
811.996736	87.299	-153.4272
817.880799	87.312	-152.8838
823.807501	87.328	-152.3492
829.777150	87.347	-151.8319
835.790057	87.367	-151.3344
841.846536	87.386	-150.8508
847.946903	87.404	-150.3718
854.091476	87.421	-149.8904
860.280575	87.438	-149.4039
866.514523	87.455	-148.9105
872.793644	87.473	-148.4079
879.118267	87.492	-147.8970
885.488720	87.513	-147.3826
891.905336	87.536	-146.8687
898.368450	87.561	-146.3558
904.878398	87.586	-145.8418
911.435520	87.613	-145.3256
918.040157	87.643	-144.8090
924.692655	87.674	-144.2948
931.393359	87.708	-143.7865
938.142619	87.744	-143.2878
944.940787	87.781	-142.8003
951.788218	87.819	-142.3227
958.685268	87.857	-141.8522
965.632296	87.896	-141.3864
972.629666	87.936	-140.9231
979.677741	87.977	-140.4619
986.776890	88.019	-140.0031
993.927482	88.061	-139.5453
1001.129891	88.105	-139.0839
1008.384491	88.150	-138.6150
1015.691660	88.199	-138.1394
1023.051781	88.251	-137.6624
1030.465236	88.307	-137.1919
1037.932411	88.367	-136.7396
1045.453698	88.430	-136.3183
1053.029486	88.495	-135.9338
1060.660172	88.558	-135.5825
1068.346153	88.620	-135.2555
1076.087829	88.680	-134.9433
1083.885605	88.738	-134.6396
1091.739887	88.796	-134.3421
1099.651084	88.852	-134.0509
1107.619609	88.908	-133.7657
1115.645878	88.964	-133.4851
1123.730308	89.018	-133.2076
1131.873321	89.072	-132.9321
1140.075341	89.126	-132.6575
1148.336797	89.179	-132.3832
1156.658119	89.233	-132.1085
1165.039741	89.286	-131.8319
1173.482099	89.341	-131.5520
1181.985634	89.397	-131.2692
1190.550789	89.456	-130.9897
1199.178011	89.519	-130.7249
1207.867749	89.583	-130.4867
1216.620457	89.648	-130.2808
1225.436590	89.711	-130.1036
1234.316609	89.772	-129.9463
1243.260976	89.829	-129.7997
1252.270157	89.884	-129.6558
1261.344623	89.936	-129.5099
1270.484846	89.986	-129.3606
1279.691303	90.034	-129.2061
1288.964474	90.082	-129.0448
1298.304842	90.129	-128.8774
1307.712894	90.176	-128.7063
1317.189120	90.223	-128.5350
1326.734016	90.270	-128.3658
1336.348077	90.317	-128.1980
1346.031806	90.364	-128.0288
1355.785708	90.412	-127.8542
1365.610290	90.460	-127.6701
1375.506065	90.509	-127.4719
1385.473549	90.560	-127.2547
1395.513261	90.614	-127.0169
1405.625726	90.671	-126.7640
1415.811469	90.733	-126.5076
1426.071023	90.799	-126.2626
1436.404921	90.866	-126.0387
1446.813703	90.934	-125.8365
1457.297912	91.000	-125.6509
1467.858093	91.064	-125.4756
1478.494798	91.127	-125.3059
1489.208581	91.186	-125.1383
1500.000000	91.242	-124.9695
1510.869618	91.295	-124.7958
1521.818002	91.343	-124.6141
1532.845723	91.387	-124.4215
1543.953355	91.428	-124.2163
1555.141477	91.467	-123.9984
1566.410674	91.507	-123.7719
1577.761531	91.548	-123.5475
1589.194642	91.592	-123.3390
1600.710601	91.636	-123.1558
1612.310010	91.681	-122.9986
1623.993473	91.723	-122.8621
1635.761599	91.763	-122.7391
1647.615002	91.802	-122.6231
1659.554299	91.839	-122.5089
1671.580114	91.874	-122.3927
1683.693072	91.909	-122.2737
1695.893807	91.944	-122.1538
1708.182952	91.978	-122.0349
1720.561150	92.010	-121.9164
1733.029045	92.040	-121.7950
1745.587288	92.067	-121.6651
1758.236533	92.092	-121.5199
1770.977440	92.117	-121.3539
1783.810673	92.143	-121.1674
1796.736900	92.173	-120.9698
1809.756796	92.205	-120.7751
1822.871040	92.241	-120.5944
1836.080315	92.277	-120.4316
1849.385310	92.314	-120.2852
1862.786718	92.351	-120.1512
1876.285239	92.388	-120.0245
1889.881575	92.426	-119.8987
1903.576436	92.465	-119.7676
1917.370535	92.506	-119.6252
1931.264593	92.552	-119.4678
1945.259332	92.604	-119.2959
1959.355483	92.663	-119.1178
1973.553781	92.727	-118.9468
1987.854965	92.794	-118.7931
2002.259781	92.864	-118.6597
2016.768981	92.934	-118.5436
2031.383320	93.004	-118.4390
2046.103561	93.073	-118.3397
2060.930471	93.142	-118.2418
2075.864823	93.212	-118.1448
2090.907395	93.282	-118.0510
2106.058972	93.352	-117.9625
2121.320344	93.422	-117.8793
2136.692305	93.491	-117.7994
2152.175658	93.561	-117.7200
2167.771210	93.631	-117.6429
2183.479774	93.703	-117.5768
2199.302169	93.777	-117.5333
2215.239219	93.850	-117.5197
2231.291755	93.922	-117.5365
2247.460615	93.991	-117.5792
2263.746641	94.056	-117.6397
2280.150683	94.118	-117.7075
2296.673595	94.177	-117.7721
2313.316238	94.234	-117.8252
2330.079481	94.292	-117.8646
2346.964198	94.350	-117.8973
2363.971268	94.411	-117.9355
2381.101578	94.473	-117.9895
2398.356022	94.534	-118.0643
2415.735498	94.595	-118.1602
2433.240913	94.654	-118.2746
2450.873180	94.711	-118.4045
2468.633217	94.765	-118.5476
2486.521951	94.817	-118.7012
2504.540314	94.864	-118.8590
2522.689246	94.908	-119.0115
2540.969692	94.950	-119.1494
2559.382606	94.991	-119.2696
2577.928947	95.032	-119.3776
2596.609683	95.074	-119.4825
2615.425787	95.117	-119.5914
2634.378241	95.160	-119.7079
2653.468031	95.201	-119.8307
2672.696154	95.240	-119.9541
2692.063613	95.278	-120.0704
2711.571415	95.316	-120.1745
2731.220579	95.356	-120.2695
2751.012130	95.397	-120.3647
2770.947098	95.439	-120.4701
2791.026522	95.483	-120.5922
2811.251451	95.525	-120.7330
2831.622938	95.566	-120.8915
2852.142045	95.605	-121.0657
2872.809842	95.641	-121.2516
2893.627406	95.673	-121.4416
2914.595823	95.701	-121.6240
2935.716186	95.727	-121.7883
2956.989596	95.751	-121.9316
2978.417161	95.775	-122.0579
3000.000000	95.800	-122.1737
3021.739237	95.826	-122.2841
3043.636005	95.851	-122.3900
3065.691446	95.876	-122.4875
3087.906710	95.901	-122.5709
3110.282955	95.927	-122.6385
3132.821347	95.956	-122.6964
3155.523062	95.988	-122.7544
3178.389283	96.021	-122.8222
3201.421202	96.056	-122.9056
3224.620020	96.091	-123.0072
3247.986946	96.124	-123.1268
3271.523198	96.155	-123.2594
3295.230004	96.182	-123.3943
3319.108599	96.207	-123.5183
3343.160228	96.230	-123.6232
3367.386145	96.253	-123.7078
3391.787613	96.277	-123.7758
3416.365904	96.302	-123.8310
3441.122300	96.328	-123.8735
3466.058091	96.356	-123.8991
3491.174576	96.386	-123.9036
3516.473066	96.419	-123.8890
3541.954880	96.457	-123.8637
3567.621345	96.499	-123.8384
3593.473800	96.545	-123.8235
3619.513592	96.593	-123.8269
3645.742080	96.643	-123.8530
3672.160630	96.692	-123.8996
3698.770620	96.740	-123.9577
3725.573436	96.787	-124.0184
3752.570477	96.833	-124.0777
3779.763150	96.879	-124.1366
3807.152872	96.924	-124.1965
3834.741071	96.967	-124.2545
3862.529185	97.008	-124.3022
3890.518664	97.049	-124.3317
3918.710966	97.090	-124.3415
3947.107561	97.135	-124.3369
3975.709929	97.185	-124.3285
4004.519563	97.238	-124.3287
4033.537962	97.296	-124.3496
4062.766641	97.356	-124.3968
4092.207123	97.418	-124.4689
4121.860942	97.482	-124.5628
4151.729646	97.547	-124.6786
4181.814790	97.612	-124.8187
4212.117944	97.678	-124.9835
4242.640687	97.743	-125.1675
4273.384610	97.807	-125.3621
4304.351317	97.871	-125.5624
4335.542421	97.937	-125.7707
4366.959549	98.006	-125.9953
4398.604338	98.078	-126.2495
4430.478438	98.151	-126.5463
4462.583511	98.226	-126.8928
4494.921231	98.300	-127.2903
4527.493283	98.372	-127.7387
4560.301365	98.443	-128.2395
4593.347189	98.511	-128.7929
4626.632476	98.573	-129.3927
4660.158962	98.628	-130.0261
4693.928395	98.678	-130.6782
4727.942535	98.722	-131.3365
4762.203156	98.761	-131.9918
4796.712043	98.798	-132.6387
4831.470996	98.833	-133.2738
4866.481826	98.868	-133.8941
4901.746360	98.905	-134.5032
4937.266434	98.947	-135.1156
4973.043902	98.994	-135.7550
5009.080628	99.044	-136.4438
5045.378492	99.096	-137.1956
5081.939384	99.147	-138.0158
5118.765212	99.195	-138.9063
5155.857894	99.240	-139.8690
5193.219366	99.278	-140.9065
5230.851574	99.309	-142.0181
5268.756481	99.329	-143.1959
5306.936062	99.336	-144.4265
5345.392309	99.329	-145.6957
5384.127225	99.307	-146.9879
5423.142830	99.269	-148.2840
5462.441159	99.214	-149.5612
5502.024259	99.143	-150.7969
5541.894195	99.058	-151.9737
5582.053045	98.963	-153.0824
5622.502902	98.858	-154.1203
5663.245876	98.747	-155.0873
5704.284090	98.629	-155.9845
5745.619684	98.507	-156.8155
5787.254813	98.381	-157.5836
5829.191647	98.250	-158.2878
5871.432373	98.115	-158.9216
5913.979192	97.976	-159.4760
5956.834323	97.835	-159.9448
6000.000000	97.694	-160.3273
6043.478473	97.556	-160.6267
6087.272010	97.420	-160.8486
6131.382892	97.289	-161.0012
6175.813420	97.163	-161.0940
6220.565910	97.042	-161.1337
6265.642695	96.926	-161.1212
6311.046124	96.815	-161.0535
6356.778566	96.711	-160.9284
6402.842404	96.614	-160.7472
6449.240040	96.525	-160.5145
6495.973891	96.447	-160.2378
6543.046396	96.380	-159.9282
6590.460007	96.324	-159.5968
6638.217197	96.280	-159.2507
6686.320456	96.247	-158.8920
6734.772290	96.226	-158.5208
6783.575226	96.218	-158.1391
6832.731809	96.223	-157.7520
6882.244600	96.243	-157.3689
6932.116181	96.278	-157.0044
6982.349153	96.329	-156.6758
7032.946133	96.395	-156.3987
7083.909760	96.478	-156.1855
7135.242690	96.578	-156.0482
7186.947600	96.696	-156.0021
7239.027185	96.835	-156.0674
7291.484160	96.994	-156.2720
7344.321260	97.174	-156.6517
7397.541239	97.373	-157.2454
7451.146872	97.588	-158.0906
7505.140954	97.815	-159.2218
7559.526299	98.052	-160.6725
7614.305743	98.291	-162.4754
7669.482141	98.527	-164.6620
7725.058371	98.752	-167.2617
7781.037328	98.954	-170.2946
7837.421932	99.123	-173.7622
7894.215122	99.244	-177.6403
7951.419859	99.307	178.1223
8009.039125	99.300	173.6027
8067.075924	99.217	168.8989
8125.533282	99.052	164.1210
8184.414245	98.806	159.3825
8243.721885	98.478	154.7949
8303.459292	98.071	150.4617
8363.629581	97.594	146.4718
8424.235888	97.053	142.8954
8485.281374	96.460	139.7791
8546.769221	95.826	137.1424
8608.702634	95.164	134.9811
8671.084842	94.484	133.2750
8733.919097	93.796	131.9958
8797.208675	93.106	131.1138
8860.956876	92.421	130.5998
8925.167022	91.747	130.4217
8989.842461	91.089	130.5423
9054.986566	90.451	130.9220
9120.602731	89.834	131.5240
9186.694378	89.240	132.3191
9253.264952	88.669	133.2874
9320.317925	88.120	134.4135
9387.856790	87.595	135.6794
9455.885071	87.094	137.0646
9524.406312	86.618	138.5483
9593.424086	86.165	140.1154
9662.941992	85.735	141.7596
9732.963653	85.327	143.4781
9803.492719	84.942	145.2644
9874.532869	84.580	147.1066
9946.087805	84.240	148.9908
10018.161257	83.920	150.9084
10090.756983	83.619	152.8582
10163.878768	83.336	154.8412
10237.530423	83.072	156.8539
10311.715789	82.825	158.8878
10386.438732	82.594	160.9351
10461.703149	82.379	162.9958
10537.512962	82.178	165.0761
10613.872125	81.993	167.1810
10690.784618	81.822	169.3086
10768.254450	81.666	171.4523
10846.285661	81.525	173.6091
10924.882318	81.398	175.7823
11004.048518	81.286	177.9751
11083.788390	81.189	-179.8150
11164.106090	81.108	-177.5957
11245.005805	81.043	-175.3719
11326.491752	80.994	-173.1424
11408.568180	80.961	-170.9032
11491.239368	80.945	-168.6549
11574.509626	80.947	-166.4033
11658.383294	80.968	-164.1533
11742.864745	81.008	-161.9051
11827.958384	81.068	-159.6582
11913.668646	81.148	-157.4172
12000.000000	81.251	-155.1917
12086.956947	81.376	-152.9894
12174.544019	81.525	-150.8132
12262.765784	81.699	-148.6662
12351.626840	81.901	-146.5582
12441.131819	82.132	-144.5034
12531.285389	82.395	-142.5152
12622.092249	82.690	-140.6061
12713.557132	83.022	-138.7947
12805.684808	83.393	-137.1097
12898.480079	83.804	-135.5862
12991.947783	84.258	-134.2613
13086.092792	84.755	-133.1765
13180.920015	85.295	-132.3821
13276.434395	85.877	-131.9363
13372.640911	86.497	-131.9008
13469.544580	87.148	-132.3390
13567.150452	87.823	-133.3186
13665.463617	88.510	-134.9074
13764.489200	89.193	-137.1632
13864.232362	89.853	-140.1231
13964.698305	90.470	-143.7983
14065.892266	91.022	-148.1691
14167.819519	91.487	-153.1765
14270.485380	91.844	-158.7166
14373.895200	92.080	-164.6442
14478.054370	92.186	-170.7844
14582.968320	92.159	-176.9473
14688.642520	92.007	177.0542
14795.082478	91.745	171.3822
14902.293745	91.393	166.1560
15010.281908	90.975	161.4458
15119.052599	90.518	157.2744
15228.611486	90.045	153.6204
15338.964283	89.582	150.4247
15450.116741	89.145	147.6019
15562.074656	88.750	145.0523
15674.843864	88.401	142.6708
15788.430244	88.099	140.3551
15902.839718	87.839	138.0144
16018.078250	87.612	135.5759
16134.151848	87.407	132.9863
16251.066563	87.210	130.2124
16368.828491	87.011	127.2422
16487.443769	86.796	124.0831
16606.918584	86.555	120.7568
16727.259161	86.281	117.2956
16848.471777	85.965	113.7415
16970.562748	85.602	110.1426
17093.538442	85.187	106.5527
17217.405268	84.717	103.0365
17342.169684	84.189	99.6734
17467.838194	83.600	96.5628
17594.417350	82.952	93.8329
17721.913751	82.247	91.6458
17850.334044	81.504	90.1819
17979.684923	80.757	89.5867
18109.973131	80.060	89.8635
18241.205462	79.478	90.7516
18373.388756	79.059	91.7250
18506.529905	78.802	92.1946
18640.635849	78.656	91.7643
18775.713581	78.551	90.3237
18911.770141	78.423	87.9748
19048.812624	78.225	84.9167
19186.848172	77.934	81.3695
19325.883983	77.541	77.5471
19465.927305	77.059	73.6606
19606.985439	76.521	69.9366
19749.065738	75.989	66.6462
19892.175609	75.551	64.1243
20036.322514	75.301	62.7340
