* Measurement data measured by REW V5.31
* Source: EXCL: Microphone (USB Sound Device        ), MICROPHONE (Master Volume), L, volume: 0.250
* Format: 256k Log Swept Sine, 1 sweep at -4.0 dBFS with no timing reference
* Dated: Jul 17, 2024 12:59:57 AM
* REW Settings:
*  C-weighting compensation: Off
*  Target level: 75.0 dB
* Note: NiceHCK F1 Pro L
* Measurement: L NiceHCK F1 Pro
* Smoothing: 1/12 octave
* Frequency Step: 96 ppo
* Start Frequency: 0.36621094 Hz
*
* Freq(Hz) SPL(dB) Phase(degrees)
0.366211 78.639 -163.0412
0.368865 78.649 -163.0568
0.371538 78.664 -163.0798
0.374230 78.682 -163.1082
0.376942 78.703 -163.1402
0.379673 78.725 -163.1746
0.382424 78.749 -163.2104
0.385196 78.772 -163.2473
0.387987 78.797 -163.2848
0.390798 78.821 -163.3228
0.393630 78.846 -163.3613
0.396483 78.871 -163.4001
0.399356 78.896 -163.4393
0.402250 78.922 -163.4789
0.405165 78.947 -163.5188
0.408101 78.973 -163.5591
0.411058 78.999 -163.5998
0.414037 79.025 -163.6409
0.417037 79.051 -163.6824
0.420059 79.078 -163.7243
0.423103 79.105 -163.7667
0.426169 79.131 -163.8095
0.429257 79.159 -163.8528
0.432368 79.186 -163.8966
0.435501 79.213 -163.9408
0.438656 79.241 -163.9856
0.441835 79.269 -164.0309
0.445037 79.297 -164.0767
0.448262 79.325 -164.1231
0.451510 79.354 -164.1701
0.454782 79.382 -164.2176
0.458077 79.411 -164.2658
0.461397 79.440 -164.3146
0.464740 79.470 -164.3640
0.468108 79.499 -164.4141
0.471500 79.529 -164.4649
0.474917 79.559 -164.5164
0.478358 79.589 -164.5687
0.481825 79.620 -164.6217
0.485316 79.650 -164.6755
0.488833 79.681 -164.7300
0.492375 79.712 -164.7855
0.495943 79.744 -164.8417
0.499537 79.775 -164.8989
0.503157 79.807 -164.9569
0.506803 79.839 -165.0159
0.510475 79.871 -165.0759
0.514175 79.904 -165.1368
0.517900 79.936 -165.1988
0.521653 79.969 -165.2618
0.525434 80.002 -165.3259
0.529241 80.036 -165.3911
0.533076 80.069 -165.4575
0.536939 80.103 -165.5251
0.540830 80.137 -165.5938
0.544749 80.172 -165.6639
0.548696 80.206 -165.7352
0.552673 80.241 -165.8079
0.556677 80.276 -165.8820
0.560711 80.312 -165.9575
0.564774 80.347 -166.0344
0.568867 80.383 -166.1129
0.572989 80.420 -166.1929
0.577141 80.456 -166.2745
0.581324 80.493 -166.3577
0.585536 80.530 -166.4427
0.589779 80.567 -166.5294
0.594053 80.604 -166.6179
0.598358 80.642 -166.7082
0.602694 80.680 -166.8005
0.607061 80.719 -166.8947
0.611460 80.757 -166.9910
0.615891 80.796 -167.0893
0.620354 80.835 -167.1899
0.624849 80.875 -167.2926
0.629377 80.914 -167.3976
0.633938 80.954 -167.5050
0.638532 80.995 -167.6149
0.643159 81.035 -167.7272
0.647819 81.076 -167.8422
0.652514 81.117 -167.9598
0.657242 81.159 -168.0801
0.662005 81.201 -168.2034
0.666802 81.243 -168.3295
0.671634 81.285 -168.4587
0.676501 81.328 -168.5910
0.681403 81.371 -168.7265
0.686341 81.414 -168.8653
0.691314 81.458 -169.0076
0.696324 81.502 -169.1534
0.701370 81.546 -169.3029
0.706452 81.590 -169.4562
0.711571 81.634 -169.6134
0.716728 81.678 -169.7746
0.721921 81.722 -169.9398
0.727153 81.765 -170.1093
0.732422 81.807 -170.2831
0.737729 81.848 -170.4611
0.743075 81.888 -170.6434
0.748460 81.927 -170.8300
0.753883 81.965 -171.0208
0.759346 82.003 -171.2158
0.764849 82.040 -171.4149
0.770391 82.078 -171.6180
0.775974 82.115 -171.8252
0.781597 82.152 -172.0362
0.787261 82.189 -172.2512
0.792966 82.226 -172.4699
0.798712 82.263 -172.6924
0.804500 82.300 -172.9186
0.810329 82.337 -173.1484
0.816201 82.374 -173.3817
0.822116 82.411 -173.6185
0.828073 82.448 -173.8588
0.834074 82.484 -174.1023
0.840118 82.521 -174.3492
0.846206 82.557 -174.5993
0.852338 82.594 -174.8525
0.858514 82.630 -175.1088
0.864735 82.666 -175.3681
0.871001 82.702 -175.6304
0.877313 82.739 -175.8956
0.883670 82.774 -176.1636
0.890074 82.810 -176.4344
0.896524 82.846 -176.7079
0.903020 82.882 -176.9840
0.909564 82.917 -177.2628
0.916155 82.953 -177.5442
0.922794 82.988 -177.8280
0.929481 83.023 -178.1144
0.936216 83.058 -178.4031
0.943000 83.093 -178.6943
0.949834 83.128 -178.9877
0.956717 83.162 -179.2836
0.963649 83.197 -179.5817
0.970632 83.231 -179.8820
0.977666 83.265 179.8153
0.984750 83.300 179.5105
0.991886 83.333 179.2034
0.999074 83.367 178.8942
1.006314 83.401 178.5826
1.013606 83.434 178.2690
1.020951 83.468 177.9530
1.028349 83.501 177.6348
1.035801 83.534 177.3143
1.043307 83.566 176.9915
1.050867 83.599 176.6662
1.058482 83.631 176.3384
1.066152 83.664 176.0078
1.073878 83.696 175.6743
1.081660 83.728 175.3373
1.089498 83.759 174.9962
1.097393 83.791 174.6504
1.105345 83.822 174.2987
1.113355 83.852 173.9404
1.121423 83.883 173.5747
1.129549 83.913 173.2011
1.137734 83.942 172.8194
1.145979 83.972 172.4295
1.154283 84.000 172.0315
1.162647 84.029 171.6254
1.171072 84.057 171.2115
1.179558 84.085 170.7900
1.188106 84.112 170.3612
1.196715 84.139 169.9253
1.205387 84.165 169.4826
1.214122 84.191 169.0334
1.222920 84.216 168.5781
1.231782 84.241 168.1168
1.240708 84.266 167.6501
1.249699 84.290 167.1781
1.258754 84.314 166.7014
1.267876 84.337 166.2202
1.277063 84.360 165.7350
1.286318 84.383 165.2462
1.295639 84.405 164.7542
1.305027 84.426 164.2594
1.314484 84.448 163.7623
1.324009 84.468 163.2633
1.333604 84.489 162.7629
1.343268 84.508 162.2617
1.353002 84.528 161.7600
1.362806 84.547 161.2585
1.372681 84.565 160.7576
1.382628 84.583 160.2578
1.392647 84.601 159.7598
1.402739 84.618 159.2639
1.412904 84.635 158.7706
1.423142 84.651 158.2802
1.433455 84.667 157.7926
1.443843 84.683 157.3079
1.454305 84.698 156.8251
1.464844 84.712 156.3434
1.475459 84.726 155.8612
1.486150 84.739 155.3770
1.496920 84.752 154.8894
1.507767 84.763 154.3976
1.518693 84.774 153.9011
1.529698 84.785 153.3996
1.540783 84.794 152.8930
1.551948 84.803 152.3815
1.563194 84.810 151.8652
1.574521 84.818 151.3444
1.585931 84.824 150.8195
1.597423 84.830 150.2906
1.608999 84.834 149.7582
1.620658 84.838 149.2227
1.632402 84.842 148.6844
1.644232 84.844 148.1439
1.656146 84.846 147.6017
1.668147 84.847 147.0582
1.680235 84.848 146.5139
1.692411 84.848 145.9695
1.704675 84.847 145.4256
1.717028 84.845 144.8828
1.729470 84.843 144.3417
1.742003 84.840 143.8030
1.754626 84.836 143.2673
1.767341 84.832 142.7353
1.780147 84.827 142.2075
1.793047 84.822 141.6841
1.806040 84.816 141.1653
1.819128 84.809 140.6506
1.832310 84.801 140.1390
1.845587 84.793 139.6295
1.858961 84.783 139.1205
1.872432 84.772 138.6110
1.886001 84.760 138.1002
1.899667 84.747 137.5877
1.913433 84.733 137.0733
1.927299 84.717 136.5571
1.941265 84.701 136.0393
1.955332 84.683 135.5203
1.969501 84.665 135.0005
1.983773 84.645 134.4805
1.998148 84.625 133.9608
2.012627 84.604 133.4423
2.027212 84.583 132.9256
2.041902 84.560 132.4117
2.056698 84.538 131.9015
2.071602 84.515 131.3960
2.086614 84.491 130.8964
2.101734 84.467 130.4039
2.116964 84.444 129.9197
2.132304 84.420 129.4451
2.147756 84.396 128.9813
2.163320 84.372 128.5294
2.178996 84.347 128.0904
2.194786 84.323 127.6647
2.210690 84.298 127.2525
2.226710 84.272 126.8536
2.242845 84.245 126.4677
2.259098 84.218 126.0941
2.275468 84.189 125.7327
2.291957 84.160 125.3829
2.308566 84.130 125.0446
2.325295 84.100 124.7173
2.342145 84.069 124.4009
2.359117 84.038 124.0952
2.376212 84.008 123.8002
2.393431 83.978 123.5155
2.410775 83.949 123.2413
2.428244 83.921 122.9775
2.445840 83.894 122.7241
2.463564 83.869 122.4812
2.481416 83.846 122.2492
2.499397 83.825 122.0286
2.517509 83.806 121.8201
2.535752 83.790 121.6252
2.554127 83.776 121.4455
2.572635 83.765 121.2832
2.591277 83.756 121.1404
2.610055 83.749 121.0185
2.628968 83.744 120.9181
2.648019 83.741 120.8388
2.667208 83.740 120.7793
2.686535 83.742 120.7380
2.706003 83.745 120.7125
2.725612 83.751 120.7005
2.745363 83.759 120.6990
2.765257 83.771 120.7054
2.785295 83.785 120.7165
2.805478 83.802 120.7294
2.825808 83.823 120.7412
2.846285 83.847 120.7493
2.866910 83.876 120.7516
2.887685 83.908 120.7470
2.908611 83.945 120.7355
2.929688 83.987 120.7185
2.950917 84.033 120.6982
2.972301 84.085 120.6769
2.993839 84.141 120.6562
3.015534 84.203 120.6362
3.037386 84.269 120.6158
3.059396 84.339 120.5932
3.081565 84.414 120.5659
3.103896 84.492 120.5309
3.126388 84.574 120.4852
3.149043 84.658 120.4255
3.171862 84.745 120.3489
3.194847 84.834 120.2524
3.217998 84.924 120.1336
3.241317 85.017 119.9905
3.264805 85.111 119.8222
3.288463 85.207 119.6287
3.312293 85.304 119.4110
3.336295 85.405 119.1709
3.360471 85.507 118.9103
3.384822 85.612 118.6305
3.409350 85.720 118.3326
3.434056 85.829 118.0172
3.458940 85.940 117.6843
3.484005 86.053 117.3340
3.509252 86.166 116.9658
3.534681 86.279 116.5793
3.560295 86.392 116.1739
3.586094 86.504 115.7486
3.612081 86.615 115.3027
3.638255 86.725 114.8351
3.664620 86.833 114.3451
3.691175 86.940 113.8323
3.717923 87.046 113.2971
3.744864 87.152 112.7406
3.772001 87.256 112.1647
3.799335 87.359 111.5717
3.826866 87.461 110.9641
3.854597 87.562 110.3444
3.882529 87.661 109.7151
3.910664 87.759 109.0780
3.939002 87.855 108.4348
3.967546 87.948 107.7860
3.996296 88.039 107.1316
4.025255 88.128 106.4705
4.054423 88.214 105.8011
4.083804 88.297 105.1223
4.113396 88.378 104.4337
4.143204 88.457 103.7361
4.173227 88.533 103.0317
4.203468 88.607 102.3231
4.233928 88.679 101.6134
4.264609 88.748 100.9058
4.295512 88.815 100.2031
4.326639 88.880 99.5074
4.357992 88.943 98.8198
4.389572 89.003 98.1403
4.421380 89.061 97.4679
4.453419 89.116 96.8011
4.485691 89.169 96.1393
4.518196 89.220 95.4823
4.550936 89.268 94.8313
4.583914 89.315 94.1882
4.617131 89.359 93.5554
4.650589 89.403 92.9352
4.684289 89.445 92.3300
4.718233 89.486 91.7418
4.752424 89.526 91.1716
4.786862 89.565 90.6196
4.821549 89.603 90.0853
4.856488 89.640 89.5678
4.891680 89.676 89.0664
4.927127 89.712 88.5805
4.962831 89.747 88.1098
4.998794 89.783 87.6543
5.035017 89.819 87.2145
5.071503 89.856 86.7908
5.108253 89.895 86.3839
5.145270 89.934 85.9943
5.182555 89.975 85.6223
5.220110 90.017 85.2673
5.257937 90.060 84.9276
5.296038 90.105 84.6013
5.334415 90.151 84.2859
5.373071 90.200 83.9789
5.412006 90.250 83.6783
5.451224 90.302 83.3823
5.490725 90.357 83.0905
5.530514 90.415 82.8024
5.570590 90.474 82.5181
5.610957 90.537 82.2365
5.651616 90.601 81.9562
5.692570 90.667 81.6747
5.733821 90.735 81.3893
5.775370 90.805 81.0977
5.817221 90.876 80.7977
5.859375 90.948 80.4880
5.901834 91.021 80.1683
5.944602 91.096 79.8385
5.987679 91.171 79.4989
6.031068 91.248 79.1493
6.074771 91.324 78.7896
6.118792 91.401 78.4192
6.163131 91.476 78.0374
6.207792 91.551 77.6437
6.252776 91.626 77.2379
6.298086 91.699 76.8200
6.343725 91.771 76.3911
6.389694 91.841 75.9525
6.435996 91.910 75.5060
6.482634 91.977 75.0532
6.529610 92.043 74.5955
6.576926 92.106 74.1339
6.624585 92.167 73.6686
6.672590 92.225 73.2004
6.720942 92.281 72.7302
6.769645 92.335 72.2595
6.818700 92.387 71.7904
6.868111 92.437 71.3252
6.917881 92.484 70.8656
6.968010 92.529 70.4128
7.018504 92.573 69.9673
7.069362 92.614 69.5297
7.120590 92.654 69.1003
7.172189 92.693 68.6800
7.224161 92.730 68.2697
7.276511 92.766 67.8702
7.329239 92.802 67.4824
7.382350 92.837 67.1063
7.435845 92.871 66.7417
7.489729 92.906 66.3877
7.544002 92.940 66.0435
7.598669 92.975 65.7080
7.653732 93.010 65.3804
7.709194 93.046 65.0601
7.765058 93.082 64.7462
7.821327 93.120 64.4377
7.878004 93.158 64.1331
7.935091 93.197 63.8303
7.992592 93.237 63.5277
8.050510 93.278 63.2238
8.108847 93.319 62.9173
8.167607 93.361 62.6075
8.226793 93.404 62.2934
8.286408 93.447 61.9742
8.346454 93.491 61.6487
8.406936 93.534 61.3162
8.467856 93.576 60.9761
8.529218 93.619 60.6284
8.591024 93.660 60.2732
8.653278 93.701 59.9112
8.715983 93.741 59.5429
8.779143 93.780 59.1688
8.842760 93.817 58.7895
8.906839 93.853 58.4056
8.971381 93.888 58.0184
9.036392 93.921 57.6289
9.101873 93.952 57.2387
9.167829 93.982 56.8488
9.234263 94.010 56.4600
9.301178 94.037 56.0731
9.368578 94.063 55.6889
9.436467 94.088 55.3083
9.504847 94.112 54.9319
9.573723 94.134 54.5602
9.643099 94.156 54.1934
9.712976 94.176 53.8312
9.783361 94.195 53.4733
9.854255 94.212 53.1195
9.925663 94.226 52.7691
9.997588 94.239 52.4217
10.070035 94.249 52.0765
10.143007 94.258 51.7324
10.216507 94.266 51.3885
10.290540 94.273 51.0439
10.365109 94.279 50.6980
10.440219 94.284 50.3500
10.515873 94.289 49.9994
10.592076 94.293 49.6455
10.668830 94.297 49.2881
10.746141 94.301 48.9270
10.824012 94.305 48.5624
10.902447 94.308 48.1945
10.981451 94.311 47.8238
11.061027 94.314 47.4506
11.141180 94.316 47.0755
11.221913 94.317 46.6992
11.303232 94.318 46.3224
11.385140 94.318 45.9459
11.467641 94.318 45.5700
11.550741 94.317 45.1954
11.634442 94.317 44.8223
11.718750 94.317 44.4512
11.803669 94.316 44.0822
11.889203 94.317 43.7152
11.975357 94.318 43.3500
12.062136 94.319 42.9865
12.149543 94.321 42.6241
12.237583 94.323 42.2627
12.326262 94.326 41.9018
12.415583 94.329 41.5410
12.505552 94.333 41.1800
12.596172 94.336 40.8186
12.687449 94.340 40.4567
12.779387 94.343 40.0945
12.871992 94.346 39.7320
12.965268 94.349 39.3696
13.059220 94.352 39.0077
13.153852 94.355 38.6469
13.249170 94.357 38.2876
13.345179 94.360 37.9306
13.441884 94.363 37.5762
13.539289 94.366 37.2249
13.637401 94.368 36.8770
13.736223 94.371 36.5327
13.835761 94.375 36.1920
13.936021 94.378 35.8546
14.037007 94.381 35.5204
14.138725 94.384 35.1888
14.241180 94.388 34.8594
14.344377 94.392 34.5316
14.448323 94.395 34.2049
14.553021 94.399 33.8788
14.658478 94.402 33.5529
14.764700 94.406 33.2271
14.871691 94.409 32.9012
14.979457 94.412 32.5753
15.088005 94.415 32.2498
15.197339 94.417 31.9250
15.307465 94.419 31.6014
15.418389 94.420 31.2795
15.530117 94.421 30.9597
15.642655 94.421 30.6425
15.756008 94.420 30.3282
15.870182 94.419 30.0169
15.985184 94.418 29.7086
16.101019 94.416 29.4031
16.217694 94.414 29.1002
16.335214 94.411 28.7994
16.453586 94.409 28.5001
16.572815 94.407 28.2020
16.692909 94.405 27.9044
16.813872 94.402 27.6069
16.935713 94.400 27.3093
17.058436 94.398 27.0114
17.182048 94.396 26.7129
17.306556 94.394 26.4140
17.431967 94.392 26.1146
17.558286 94.389 25.8149
17.685521 94.386 25.5149
17.813677 94.382 25.2145
17.942762 94.378 24.9139
18.072783 94.374 24.6129
18.203746 94.370 24.3113
18.335658 94.366 24.0089
18.468526 94.361 23.7058
18.602356 94.356 23.4017
18.737156 94.352 23.0968
18.872934 94.347 22.7911
19.009695 94.343 22.4848
19.147447 94.338 22.1783
19.286197 94.333 21.8719
19.425953 94.329 21.5662
19.566721 94.324 21.2611
19.708510 94.319 20.9571
19.851326 94.315 20.6542
19.995177 94.310 20.3523
20.140070 94.306 20.0512
20.286013 94.302 19.7507
20.433014 94.298 19.4504
20.581080 94.294 19.1500
20.730219 94.291 18.8495
20.880439 94.287 18.5487
21.031747 94.284 18.2480
21.184152 94.281 17.9477
21.337661 94.278 17.6483
21.492282 94.276 17.3503
21.648024 94.273 17.0543
21.804895 94.270 16.7607
21.962902 94.268 16.4698
22.122054 94.265 16.1815
22.282360 94.263 15.8958
22.443827 94.261 15.6124
22.606464 94.258 15.3308
22.770280 94.256 15.0507
22.935283 94.253 14.7719
23.101481 94.251 14.4941
23.268884 94.248 14.2175
23.437500 94.244 13.9421
23.607338 94.240 13.6683
23.778406 94.236 13.3962
23.950714 94.231 13.1260
24.124271 94.225 12.8579
24.299086 94.219 12.5919
24.475167 94.212 12.3276
24.652524 94.205 12.0651
24.831166 94.198 11.8036
25.011103 94.190 11.5432
25.192344 94.182 11.2834
25.374898 94.173 11.0242
25.558775 94.165 10.7651
25.743984 94.155 10.5064
25.930536 94.146 10.2477
26.118439 94.136 9.9891
26.307704 94.126 9.7302
26.498341 94.116 9.4711
26.690359 94.105 9.2114
26.883768 94.095 8.9510
27.078579 94.084 8.6902
27.274801 94.073 8.4290
27.472446 94.061 8.1674
27.671522 94.050 7.9056
27.872042 94.038 7.6442
28.074014 94.026 7.3831
28.277450 94.014 7.1224
28.482360 94.003 6.8623
28.688755 93.991 6.6028
28.896645 93.979 6.3439
29.106042 93.968 6.0854
29.316957 93.957 5.8276
29.529400 93.946 5.5706
29.743382 93.935 5.3140
29.958915 93.924 5.0581
30.176009 93.914 4.8027
30.394677 93.904 4.5477
30.614929 93.894 4.2932
30.836778 93.884 4.0391
31.060234 93.874 3.7858
31.285309 93.864 3.5335
31.512015 93.854 3.2828
31.740364 93.843 3.0340
31.970368 93.832 2.7874
32.202039 93.820 2.5431
32.435388 93.809 2.3008
32.670428 93.797 2.0602
32.907171 93.785 1.8208
33.145630 93.772 1.5824
33.385817 93.760 1.3446
33.627745 93.747 1.1073
33.871425 93.734 0.8705
34.116871 93.720 0.6341
34.364096 93.706 0.3981
34.613113 93.692 0.1624
34.863934 93.678 -0.0732
35.116572 93.663 -0.3090
35.371041 93.648 -0.5446
35.627354 93.632 -0.7801
35.885525 93.617 -1.0151
36.145566 93.601 -1.2494
36.407492 93.584 -1.4828
36.671316 93.568 -1.7152
36.937051 93.552 -1.9470
37.204712 93.536 -2.1783
37.474313 93.520 -2.4094
37.745867 93.504 -2.6406
38.019389 93.488 -2.8717
38.294893 93.472 -3.1022
38.572394 93.456 -3.3316
38.851905 93.439 -3.5592
39.133442 93.423 -3.7846
39.417019 93.406 -4.0074
39.702651 93.390 -4.2279
39.990353 93.373 -4.4464
40.280140 93.357 -4.6635
40.572026 93.340 -4.8798
40.866028 93.323 -5.0956
41.162160 93.306 -5.3110
41.460438 93.288 -5.5256
41.760877 93.270 -5.7387
42.063494 93.252 -5.9499
42.368303 93.233 -6.1589
42.675322 93.214 -6.3660
42.984565 93.195 -6.5717
43.296048 93.176 -6.7769
43.609789 93.156 -6.9825
43.925804 93.137 -7.1896
44.244108 93.117 -7.3981
44.564719 93.097 -7.6082
44.887654 93.076 -7.8187
45.212928 93.055 -8.0289
45.540560 93.034 -8.2372
45.870565 93.012 -8.4429
46.202962 92.990 -8.6455
46.537768 92.968 -8.8452
46.875000 92.946 -9.0426
47.214676 92.924 -9.2380
47.556813 92.902 -9.4318
47.901429 92.880 -9.6234
48.248542 92.859 -9.8124
48.598171 92.837 -9.9982
48.950334 92.815 -10.1810
49.305048 92.794 -10.3615
49.662333 92.773 -10.5408
50.022206 92.752 -10.7197
50.384688 92.731 -10.8990
50.749796 92.710 -11.0789
51.117550 92.688 -11.2589
51.487969 92.666 -11.4385
51.861072 92.644 -11.6172
52.236879 92.622 -11.7943
52.615409 92.599 -11.9693
52.996681 92.577 -12.1415
53.380717 92.554 -12.3105
53.767536 92.531 -12.4765
54.157158 92.509 -12.6400
54.549603 92.488 -12.8019
54.944892 92.466 -12.9634
55.343045 92.446 -13.1254
55.744084 92.425 -13.2888
56.148028 92.405 -13.4541
56.554900 92.385 -13.6218
56.964720 92.364 -13.7921
57.377510 92.343 -13.9651
57.793291 92.322 -14.1400
58.212085 92.299 -14.3160
58.633914 92.277 -14.4924
59.058799 92.253 -14.6685
59.486764 92.229 -14.8444
59.917829 92.204 -15.0201
60.352019 92.179 -15.1958
60.789354 92.153 -15.3709
61.229859 92.126 -15.5448
61.673556 92.098 -15.7163
62.120468 92.070 -15.8849
62.570618 92.042 -16.0497
63.024031 92.013 -16.2109
63.480729 91.985 -16.3686
63.940736 91.956 -16.5233
64.404077 91.928 -16.6754
64.870776 91.899 -16.8251
65.340856 91.870 -16.9716
65.814343 91.841 -17.1140
66.291261 91.811 -17.2521
66.771635 91.782 -17.3870
67.255489 91.752 -17.5207
67.742850 91.722 -17.6545
68.233743 91.691 -17.7886
68.728193 91.660 -17.9225
69.226226 91.629 -18.0564
69.727867 91.597 -18.1921
70.233144 91.565 -18.3329
70.742083 91.534 -18.4812
71.254709 91.501 -18.6382
71.771050 91.468 -18.8024
72.291132 91.433 -18.9695
72.814984 91.397 -19.1341
73.342631 91.360 -19.2905
73.874102 91.323 -19.4325
74.409424 91.284 -19.5529
74.948626 91.247 -19.6440
75.491734 91.212 -19.7029
76.038779 91.181 -19.7360
76.589787 91.155 -19.7586
77.144788 91.133 -19.7880
77.703811 91.112 -19.8344
78.266885 91.090 -19.8981
78.834039 91.066 -19.9727
79.405303 91.038 -20.0513
79.980706 91.008 -20.1294
80.560280 90.974 -20.2050
81.144053 90.938 -20.2762
81.732056 90.901 -20.3417
82.324320 90.865 -20.4026
82.920876 90.830 -20.4642
83.521755 90.796 -20.5338
84.126988 90.765 -20.6156
84.736607 90.735 -20.7084
85.350643 90.705 -20.8076
85.969129 90.676 -20.9097
86.592097 90.647 -21.0137
87.219579 90.617 -21.1180
87.851608 90.586 -21.2198
88.488217 90.553 -21.3156
89.129439 90.519 -21.4041
89.775308 90.484 -21.4869
90.425856 90.448 -21.5680
91.081119 90.412 -21.6505
91.741131 90.376 -21.7361
92.405925 90.340 -21.8257
93.075536 90.304 -21.9180
93.750000 90.267 -22.0083
94.429351 90.229 -22.0884
95.113625 90.191 -22.1497
95.802858 90.154 -22.1873
96.497085 90.117 -22.2016
97.196342 90.082 -22.1975
97.900667 90.048 -22.1827
98.610096 90.015 -22.1654
99.324665 89.981 -22.1509
100.044413 89.945 -22.1406
100.769376 89.908 -22.1320
101.499592 89.870 -22.1218
102.235100 89.829 -22.1073
102.975938 89.787 -22.0854
103.722144 89.744 -22.0525
104.473757 89.699 -22.0031
105.230817 89.652 -21.9320
105.993363 89.604 -21.8361
106.761435 89.556 -21.7146
107.535072 89.510 -21.5682
108.314315 89.467 -21.3984
109.099206 89.429 -21.2071
109.889783 89.400 -20.9982
110.686090 89.381 -20.7780
111.488167 89.374 -20.5551
112.296056 89.377 -20.3383
113.109800 89.390 -20.1361
113.929440 89.409 -19.9559
114.755020 89.429 -19.8040
115.586582 89.445 -19.6857
116.424170 89.454 -19.5977
117.267827 89.454 -19.5238
118.117598 89.448 -19.4528
118.973527 89.443 -19.4047
119.835658 89.443 -19.4362
120.704037 89.444 -19.5992
121.578708 89.441 -19.8903
122.459718 89.429 -20.2530
123.347111 89.408 -20.6237
124.240935 89.381 -20.9583
125.141236 89.351 -21.2340
126.048061 89.318 -21.4451
126.961458 89.284 -21.5991
127.881473 89.248 -21.7118
128.808154 89.211 -21.8004
129.741551 89.173 -21.8785
130.681712 89.135 -21.9548
131.628686 89.096 -22.0325
132.582521 89.059 -22.1102
133.543269 89.022 -22.1837
134.510979 88.986 -22.2482
135.485701 88.949 -22.2997
136.467486 88.912 -22.3360
137.456386 88.874 -22.3584
138.452451 88.834 -22.3698
139.455735 88.794 -22.3735
140.466288 88.754 -22.3723
141.484165 88.714 -22.3677
142.509418 88.676 -22.3601
143.542100 88.638 -22.3489
144.582265 88.600 -22.3322
145.629968 88.562 -22.3081
146.685262 88.524 -22.2762
147.748204 88.484 -22.2369
148.818849 88.443 -22.1905
149.897251 88.400 -22.1366
150.983469 88.357 -22.0742
152.077557 88.314 -22.0021
153.179574 88.271 -21.9182
154.289576 88.229 -21.8209
155.407622 88.189 -21.7112
156.533770 88.152 -21.5927
157.668078 88.118 -21.4711
158.810606 88.087 -21.3518
159.961413 88.057 -21.2393
161.120559 88.029 -21.1365
162.288105 88.001 -21.0461
163.464112 87.973 -20.9696
164.648640 87.945 -20.9071
165.841752 87.915 -20.8563
167.043510 87.884 -20.8127
168.253976 87.852 -20.7700
169.473213 87.819 -20.7227
170.701286 87.785 -20.6675
171.938258 87.751 -20.6040
173.184194 87.717 -20.5344
174.439158 87.683 -20.4611
175.703216 87.650 -20.3862
176.976434 87.617 -20.3107
178.258878 87.584 -20.2344
179.550615 87.550 -20.1576
180.851713 87.516 -20.0807
182.162239 87.482 -20.0037
183.482262 87.448 -19.9257
184.811850 87.414 -19.8461
186.151073 87.381 -19.7644
187.500000 87.347 -19.6802
188.858702 87.313 -19.5930
190.227250 87.280 -19.5027
191.605715 87.246 -19.4087
192.994169 87.212 -19.3105
194.392685 87.179 -19.2073
195.801334 87.145 -19.0983
197.220191 87.111 -18.9823
198.649330 87.078 -18.8585
200.088825 87.045 -18.7264
201.538751 87.013 -18.5865
202.999184 86.982 -18.4408
204.470200 86.952 -18.2928
205.951875 86.923 -18.1461
207.444287 86.894 -18.0033
208.947514 86.866 -17.8646
210.461634 86.836 -17.7283
211.986726 86.805 -17.5911
213.522869 86.772 -17.4484
215.070144 86.738 -17.2954
216.628631 86.704 -17.1285
218.198411 86.670 -16.9476
219.779567 86.638 -16.7563
221.372180 86.608 -16.5614
222.976334 86.581 -16.3700
224.592112 86.555 -16.1868
226.219600 86.530 -16.0134
227.858880 86.505 -15.8491
229.510039 86.480 -15.6915
231.173164 86.455 -15.5381
232.848340 86.429 -15.3866
234.535655 86.402 -15.2357
236.235197 86.374 -15.0850
237.947054 86.346 -14.9346
239.671317 86.318 -14.7844
241.408074 86.289 -14.6333
243.157416 86.259 -14.4794
244.919435 86.228 -14.3202
246.694223 86.196 -14.1527
248.481871 86.163 -13.9740
250.282473 86.131 -13.7811
252.096123 86.099 -13.5722
253.922915 86.069 -13.3483
255.762945 86.042 -13.1146
257.616309 86.018 -12.8809
259.483103 85.996 -12.6570
261.363424 85.976 -12.4490
263.257372 85.954 -12.2559
265.165043 85.932 -12.0718
267.086538 85.908 -11.8887
269.021957 85.883 -11.6991
270.971401 85.858 -11.4983
272.934972 85.834 -11.2849
274.912771 85.810 -11.0602
276.904902 85.788 -10.8268
278.911469 85.767 -10.5876
280.932577 85.748 -10.3457
282.968330 85.731 -10.1052
285.018835 85.717 -9.8718
287.084199 85.704 -9.6523
289.164530 85.692 -9.4526
291.259935 85.680 -9.2740
293.370525 85.665 -9.1108
295.496408 85.648 -8.9530
297.637697 85.628 -8.7911
299.794503 85.606 -8.6191
301.966937 85.582 -8.4351
304.155114 85.559 -8.2404
306.359147 85.535 -8.0378
308.579152 85.512 -7.8305
310.815244 85.489 -7.6216
313.067539 85.466 -7.4124
315.336156 85.442 -7.2023
317.621211 85.417 -6.9880
319.922826 85.392 -6.7653
322.241118 85.367 -6.5315
324.576210 85.343 -6.2874
326.928223 85.321 -6.0355
329.297280 85.300 -5.7795
331.683504 85.280 -5.5222
334.087019 85.261 -5.2667
336.507952 85.242 -5.0150
338.946427 85.224 -4.7677
341.402572 85.204 -4.5231
343.876516 85.185 -4.2784
346.368387 85.164 -4.0312
348.878315 85.144 -3.7800
351.406431 85.124 -3.5247
353.952867 85.104 -3.2655
356.517756 85.085 -3.0034
359.101230 85.065 -2.7391
361.703426 85.046 -2.4729
364.324478 85.027 -2.2051
366.964523 85.008 -1.9354
369.623699 84.989 -1.6639
372.302145 84.970 -1.3902
375.000000 84.952 -1.1144
377.717405 84.934 -0.8364
380.454501 84.917 -0.5562
383.211431 84.899 -0.2736
385.988339 84.883 0.0112
388.785369 84.867 0.2981
391.602668 84.851 0.5872
394.440383 84.836 0.8787
397.298660 84.822 1.1725
400.177650 84.808 1.4675
403.077502 84.794 1.7623
405.998368 84.781 2.0558
408.940400 84.767 2.3477
411.903750 84.754 2.6392
414.888575 84.739 2.9331
417.895028 84.725 3.2327
420.923268 84.710 3.5406
423.973452 84.697 3.8580
427.045738 84.684 4.1840
430.140287 84.674 4.5147
433.257261 84.665 4.8457
436.396822 84.658 5.1737
439.559133 84.652 5.4980
442.744360 84.647 5.8186
445.952668 84.644 6.1332
449.184225 84.642 6.4370
452.439199 84.640 6.7239
455.717760 84.638 6.9909
459.020079 84.633 7.2415
462.346327 84.626 7.4860
465.696680 84.615 7.7365
469.071310 84.603 8.0012
472.470394 84.589 8.2824
475.894109 84.576 8.5776
479.342634 84.564 8.8811
482.816148 84.552 9.1870
486.314833 84.540 9.4931
489.838871 84.528 9.8037
493.388445 84.515 10.1267
496.963741 84.502 10.4664
500.564945 84.491 10.8190
504.192245 84.482 11.1756
507.845830 84.474 11.5283
511.525890 84.467 11.8738
515.232618 84.460 12.2133
518.966206 84.452 12.5508
522.726849 84.444 12.8918
526.514743 84.435 13.2410
530.330086 84.427 13.6002
534.173076 84.420 13.9669
538.043915 84.414 14.3369
541.942803 84.410 14.7084
545.869944 84.406 15.0823
549.825542 84.404 15.4595
553.809805 84.402 15.8376
557.822939 84.401 16.2131
561.865154 84.401 16.5835
565.936660 84.401 16.9490
570.037671 84.400 17.3130
574.168399 84.399 17.6799
578.329060 84.397 18.0522
582.519870 84.396 18.4299
586.741049 84.395 18.8129
590.992817 84.393 19.2025
595.275394 84.392 19.6003
599.589005 84.392 20.0054
603.933874 84.393 20.4137
608.310228 84.395 20.8219
612.718295 84.398 21.2289
617.158304 84.401 21.6373
621.630488 84.403 22.0528
626.135079 84.406 22.4815
630.672311 84.410 22.9252
635.242423 84.416 23.3794
639.845651 84.424 23.8376
644.482237 84.434 24.2977
649.152421 84.446 24.7603
653.856447 84.460 25.2238
658.594560 84.478 25.6813
663.367008 84.498 26.1226
668.174039 84.520 26.5400
673.015903 84.541 26.9344
677.892854 84.561 27.3137
682.805145 84.579 27.6871
687.753032 84.594 28.0622
692.736774 84.609 28.4449
697.756631 84.622 28.8397
702.812863 84.635 29.2480
707.905735 84.649 29.6666
713.035511 84.663 30.0906
718.202461 84.679 30.5157
723.406852 84.695 30.9411
728.648956 84.712 31.3681
733.929047 84.729 31.7984
739.247399 84.747 32.2329
744.604290 84.766 32.6721
750.000000 84.785 33.1164
755.434809 84.805 33.5655
760.909001 84.826 34.0193
766.422861 84.848 34.4778
771.976677 84.871 34.9404
777.570739 84.895 35.4060
783.205337 84.920 35.8738
788.880766 84.946 36.3442
794.597321 84.973 36.8196
800.355301 85.001 37.3023
806.155005 85.033 37.7909
811.996736 85.067 38.2795
817.880799 85.106 38.7595
823.807501 85.147 39.2214
829.777150 85.189 39.6576
835.790057 85.232 40.0663
841.846536 85.273 40.4547
847.946903 85.312 40.8339
854.091476 85.350 41.2119
860.280575 85.385 41.5931
866.514523 85.420 41.9807
872.793644 85.454 42.3780
879.118267 85.489 42.7848
885.488720 85.524 43.1964
891.905336 85.560 43.6092
898.368450 85.596 44.0232
904.878398 85.633 44.4410
911.435520 85.671 44.8639
918.040157 85.711 45.2901
924.692655 85.752 45.7167
931.393359 85.795 46.1400
938.142619 85.840 46.5562
944.940787 85.885 46.9640
951.788218 85.931 47.3649
958.685268 85.977 47.7624
965.632296 86.024 48.1598
972.629666 86.070 48.5598
979.677741 86.117 48.9630
986.776890 86.164 49.3689
993.927482 86.212 49.7785
1001.129891 86.260 50.1957
1008.384491 86.310 50.6240
1015.691660 86.362 51.0627
1023.051781 86.417 51.5075
1030.465236 86.476 51.9520
1037.932411 86.538 52.3859
1045.453698 86.603 52.7984
1053.029486 86.669 53.1856
1060.660172 86.734 53.5521
1068.346153 86.796 53.9080
1076.087829 86.857 54.2644
1083.885605 86.917 54.6300
1091.739887 86.976 55.0092
1099.651084 87.036 55.4041
1107.619609 87.097 55.8170
1115.645878 87.161 56.2491
1123.730308 87.227 56.7002
1131.873321 87.298 57.1677
1140.075341 87.375 57.6461
1148.336797 87.458 58.1270
1156.658119 87.548 58.5998
1165.039741 87.645 59.0537
1173.482099 87.748 59.4787
1181.985634 87.857 59.8649
1190.550789 87.972 60.2009
1199.178011 88.090 60.4750
1207.867749 88.209 60.6800
1216.620457 88.325 60.8178
1225.436590 88.436 60.9017
1234.316609 88.541 60.9496
1243.260976 88.639 60.9786
1252.270157 88.732 61.0027
1261.344623 88.819 61.0307
1270.484846 88.903 61.0669
1279.691303 88.985 61.1141
1288.964474 89.065 61.1743
1298.304842 89.144 61.2466
1307.712894 89.223 61.3274
1317.189120 89.303 61.4121
1326.734016 89.383 61.4973
1336.348077 89.465 61.5823
1346.031806 89.546 61.6688
1355.785708 89.630 61.7596
1365.610290 89.714 61.8575
1375.506065 89.801 61.9662
1385.473549 89.891 62.0898
1395.513261 89.984 62.2288
1405.625726 90.082 62.3772
1415.811469 90.185 62.5228
1426.071023 90.292 62.6504
1436.404921 90.402 62.7503
1446.813703 90.512 62.8217
1457.297912 90.621 62.8700
1467.858093 90.730 62.9014
1478.494798 90.836 62.9203
1489.208581 90.941 62.9307
1500.000000 91.043 62.9356
1510.869618 91.142 62.9380
1521.818002 91.238 62.9397
1532.845723 91.332 62.9417
1543.953355 91.424 62.9437
1555.141477 91.515 62.9436
1566.410674 91.608 62.9346
1577.761531 91.704 62.9034
1589.194642 91.803 62.8338
1600.710601 91.902 62.7154
1612.310010 92.001 62.5468
1623.993473 92.096 62.3338
1635.761599 92.189 62.0850
1647.615002 92.278 61.8088
1659.554299 92.363 61.5131
1671.580114 92.445 61.2042
1683.693072 92.526 60.8852
1695.893807 92.605 60.5556
1708.182952 92.682 60.2128
1720.561150 92.758 59.8546
1733.029045 92.832 59.4792
1745.587288 92.903 59.0856
1758.236533 92.971 58.6729
1770.977440 93.038 58.2396
1783.810673 93.103 57.7800
1796.736900 93.167 57.2843
1809.756796 93.227 56.7428
1822.871040 93.281 56.1528
1836.080315 93.327 55.5223
1849.385310 93.363 54.8662
1862.786718 93.388 54.2020
1876.285239 93.404 53.5477
1889.881575 93.411 52.9213
1903.576436 93.412 52.3403
1917.370535 93.409 51.8220
1931.264593 93.406 51.3813
1945.259332 93.405 51.0279
1959.355483 93.412 50.7607
1973.553781 93.427 50.5672
1987.854965 93.455 50.4286
2002.259781 93.494 50.3233
2016.768981 93.547 50.2263
2031.383320 93.612 50.1104
2046.103561 93.689 49.9480
2060.930471 93.774 49.7151
2075.864823 93.864 49.3933
2090.907395 93.955 48.9723
2106.058972 94.044 48.4528
2121.320344 94.126 47.8461
2136.692305 94.198 47.1715
2152.175658 94.260 46.4519
2167.771210 94.312 45.7075
2183.479774 94.354 44.9504
2199.302169 94.388 44.1880
2215.239219 94.415 43.4276
2231.291755 94.434 42.6784
2247.460615 94.448 41.9487
2263.746641 94.458 41.2441
2280.150683 94.466 40.5663
2296.673595 94.475 39.9115
2313.316238 94.486 39.2692
2330.079481 94.502 38.6213
2346.964198 94.521 37.9417
2363.971268 94.544 37.2029
2381.101578 94.564 36.3856
2398.356022 94.580 35.4825
2415.735498 94.584 34.4988
2433.240913 94.576 33.4491
2450.873180 94.550 32.3531
2468.633217 94.507 31.2336
2486.521951 94.444 30.1153
2504.540314 94.360 29.0266
2522.689246 94.257 27.9994
2540.969692 94.135 27.0654
2559.382606 93.998 26.2507
2577.928947 93.849 25.5723
2596.609683 93.691 25.0415
2615.425787 93.530 24.6672
2634.378241 93.367 24.4562
2653.468031 93.208 24.4113
2672.696154 93.059 24.5283
2692.063613 92.924 24.7929
2711.571415 92.810 25.1751
2731.220579 92.721 25.6267
2751.012130 92.659 26.0874
2770.947098 92.620 26.4982
2791.026522 92.601 26.8129
2811.251451 92.594 27.0037
2831.622938 92.593 27.0615
2852.142045 92.591 26.9929
2872.809842 92.583 26.8167
2893.627406 92.564 26.5618
2914.595823 92.533 26.2640
2935.716186 92.489 25.9569
2956.989596 92.434 25.6645
2978.417161 92.371 25.3993
3000.000000 92.302 25.1669
3021.739237 92.227 24.9705
3043.636005 92.146 24.8145
3065.691446 92.062 24.7063
3087.906710 91.975 24.6539
3110.282955 91.888 24.6603
3132.821347 91.803 24.7197
3155.523062 91.721 24.8206
3178.389283 91.642 24.9508
3201.421202 91.567 25.1006
3224.620020 91.495 25.2627
3247.986946 91.424 25.4321
3271.523198 91.354 25.6083
3295.230004 91.284 25.7972
3319.108599 91.213 26.0085
3343.160228 91.143 26.2480
3367.386145 91.074 26.5156
3391.787613 91.007 26.8074
3416.365904 90.943 27.1210
3441.122300 90.880 27.4589
3466.058091 90.819 27.8290
3491.174576 90.762 28.2385
3516.473066 90.710 28.6868
3541.954880 90.665 29.1642
3567.621345 90.627 29.6563
3593.473800 90.596 30.1481
3619.513592 90.571 30.6267
3645.742080 90.550 31.0844
3672.160630 90.530 31.5226
3698.770620 90.510 31.9523
3725.573436 90.489 32.3864
3752.570477 90.469 32.8324
3779.763150 90.450 33.2908
3807.152872 90.432 33.7590
3834.741071 90.416 34.2359
3862.529185 90.400 34.7234
3890.518664 90.388 35.2209
3918.710966 90.378 35.7213
3947.107561 90.372 36.2123
3975.709929 90.369 36.6822
4004.519563 90.366 37.1233
4033.537962 90.361 37.5362
4062.766641 90.351 37.9356
4092.207123 90.335 38.3496
4121.860942 90.313 38.8106
4151.729646 90.289 39.3438
4181.814790 90.265 39.9613
4212.117944 90.248 40.6620
4242.640687 90.240 41.4361
4273.384610 90.245 42.2650
4304.351317 90.265 43.1215
4335.542421 90.301 43.9726
4366.959549 90.353 44.7859
4398.604338 90.417 45.5334
4430.478438 90.492 46.1956
4462.583511 90.574 46.7649
4494.921231 90.659 47.2434
4527.493283 90.747 47.6337
4560.301365 90.835 47.9347
4593.347189 90.921 48.1443
4626.632476 91.003 48.2653
4660.158962 91.077 48.3062
4693.928395 91.141 48.2776
4727.942535 91.194 48.1903
4762.203156 91.233 48.0574
4796.712043 91.255 47.8977
4831.470996 91.256 47.7437
4866.481826 91.234 47.6488
4901.746360 91.190 47.6859
4937.266434 91.129 47.9376
4973.043902 91.062 48.4815
5009.080628 91.006 49.3693
5045.378492 90.981 50.5973
5081.939384 91.007 52.0819
5118.765212 91.095 53.6663
5155.857894 91.244 55.1659
5193.219366 91.441 56.4260
5230.851574 91.670 57.3595
5268.756481 91.912 57.9484
5306.936062 92.153 58.2198
5345.392309 92.384 58.2194
5384.127225 92.598 57.9968
5423.142830 92.791 57.6039
5462.441159 92.963 57.0914
5502.024259 93.113 56.5052
5541.894195 93.244 55.8813
5582.053045 93.361 55.2413
5622.502902 93.466 54.5937
5663.245876 93.562 53.9374
5704.284090 93.651 53.2654
5745.619684 93.731 52.5691
5787.254813 93.801 51.8454
5829.191647 93.860 51.1043
5871.432373 93.905 50.3661
5913.979192 93.939 49.6536
5956.834323 93.964 48.9830
6000.000000 93.982 48.3611
6043.478473 93.995 47.7882
6087.272010 94.006 47.2614
6131.382892 94.014 46.7747
6175.813420 94.022 46.3200
6220.565910 94.027 45.8932
6265.642695 94.030 45.4988
6311.046124 94.028 45.1522
6356.778566 94.024 44.8759
6402.842404 94.019 44.6924
6449.240040 94.021 44.6169
6495.973891 94.034 44.6468
6543.046396 94.065 44.7549
6590.460007 94.119 44.8934
6638.217197 94.194 45.0094
6686.320456 94.287 45.0616
6734.772290 94.395 45.0281
6783.575226 94.513 44.9044
6832.731809 94.638 44.6962
6882.244600 94.769 44.4099
6932.116181 94.906 44.0460
6982.349153 95.048 43.5980
7032.946133 95.197 43.0562
7083.909760 95.352 42.4088
7135.242690 95.513 41.6416
7186.947600 95.680 40.7364
7239.027185 95.852 39.6732
7291.484160 96.025 38.4321
7344.321260 96.195 36.9968
7397.541239 96.357 35.3633
7451.146872 96.506 33.5463
7505.140954 96.639 31.5775
7559.526299 96.757 29.4943
7614.305743 96.866 27.3204
7669.482141 96.972 25.0465
7725.058371 97.079 22.6196
7781.037328 97.185 19.9596
7837.421932 97.278 16.9951
7894.215122 97.342 13.6977
7951.419859 97.360 10.0962
8009.039125 97.319 6.2707
8067.075924 97.209 2.3336
8125.533282 97.030 -1.5935
8184.414245 96.783 -5.3973
8243.721885 96.473 -8.9814
8303.459292 96.109 -12.2684
8363.629581 95.698 -15.2008
8424.235888 95.252 -17.7402
8485.281374 94.783 -19.8704
8546.769221 94.302 -21.6010
8608.702634 93.820 -22.9650
8671.084842 93.347 -24.0095
8733.919097 92.889 -24.7854
8797.208675 92.449 -25.3390
8860.956876 92.029 -25.7089
8925.167022 91.629 -25.9293
8989.842461 91.252 -26.0327
9054.986566 90.895 -26.0470
9120.602731 90.557 -25.9924
9186.694378 90.238 -25.8805
9253.264952 89.935 -25.7179
9320.317925 89.651 -25.5147
9387.856790 89.384 -25.2899
9455.885071 89.135 -25.0645
9524.406312 88.900 -24.8480
9593.424086 88.677 -24.6277
9662.941992 88.465 -24.3741
9732.963653 88.271 -24.0673
9803.492719 88.102 -23.7249
9874.532869 87.966 -23.4104
9946.087805 87.864 -23.2151
10018.161257 87.789 -23.2242
10090.756983 87.730 -23.4927
10163.878768 87.676 -24.0396
10237.530423 87.614 -24.8551
10311.715789 87.531 -25.9071
10386.438732 87.419 -27.1447
10461.703149 87.272 -28.5022
10537.512962 87.087 -29.9093
10613.872125 86.864 -31.3055
10690.784618 86.609 -32.6480
10768.254450 86.323 -33.9118
10846.285661 86.010 -35.0811
10924.882318 85.672 -36.1420
11004.048518 85.310 -37.0800
11083.788390 84.926 -37.8800
11164.106090 84.521 -38.5256
11245.005805 84.097 -38.9968
11326.491752 83.657 -39.2734
11408.568180 83.206 -39.3466
11491.239368 82.748 -39.2280
11574.509626 82.287 -38.9476
11658.383294 81.820 -38.5303
11742.864745 81.341 -37.9672
11827.958384 80.843 -37.1964
11913.668646 80.320 -36.1009
12000.000000 79.775 -34.5251
12086.956947 79.222 -32.3108
12174.544019 78.688 -29.3522
12262.765784 78.206 -25.6575
12351.626840 77.812 -21.3821
12441.131819 77.530 -16.7968
12531.285389 77.367 -12.2015
12622.092249 77.314 -7.8401
12713.557132 77.352 -3.8612
12805.684808 77.459 -0.3228
12898.480079 77.614 2.7858
12991.947783 77.801 5.5183
13086.092792 78.011 7.9458
13180.920015 78.239 10.1305
13276.434395 78.485 12.1128
13372.640911 78.750 13.9076
13469.544580 79.036 15.5081
13567.150452 79.341 16.8916
13665.463617 79.661 18.0353
13764.489200 79.993 18.9344
13864.232362 80.332 19.6121
13964.698305 80.679 20.1113
14065.892266 81.042 20.4773
14167.819519 81.431 20.7388
14270.485380 81.861 20.8872
14373.895200 82.346 20.8575
14478.054370 82.894 20.5239
14582.968320 83.502 19.7268
14688.642520 84.154 18.3142
14795.082478 84.829 16.1749
14902.293745 85.504 13.2535
15010.281908 86.158 9.5488
15119.052599 86.774 5.0961
15228.611486 87.340 -0.0557
15338.964283 87.847 -5.8613
15450.116741 88.285 -12.2830
15562.074656 88.639 -19.2832
15674.843864 88.893 -26.8127
15788.430244 89.025 -34.7938
15902.839718 89.016 -43.1064
16018.078250 88.849 -51.5848
16134.151848 88.517 -60.0303
16251.066563 88.020 -68.2377
16368.828491 87.368 -76.0222
16487.443769 86.580 -83.2444
16606.918584 85.678 -89.8252
16727.259161 84.688 -95.7455
16848.471777 83.632 -101.0312
16970.562748 82.529 -105.7338
17093.538442 81.389 -109.8999
17217.405268 80.213 -113.5386
17342.169684 78.999 -116.5981
17467.838194 77.745 -118.9698
17594.417350 76.451 -120.5226
17721.913751 75.133 -121.1697
17850.334044 73.815 -120.9413
17979.684923 72.528 -120.0135
18109.973131 71.295 -118.6625
18241.205462 70.125 -117.1666
18373.388756 69.011 -115.7134
18506.529905 67.926 -114.3539
18640.635849 66.842 -113.0138
18775.713581 65.730 -111.5322
18911.770141 64.570 -109.6955
19048.812624 63.350 -107.2634
19186.848172 62.072 -103.9895
19325.883983 60.745 -99.6444
19465.927305 59.398 -94.0704
19606.985439 58.082 -87.3233
19749.065738 56.887 -79.9517
19892.175609 55.946 -73.2751
20036.322514 55.418 -69.1898
