* Measurement data measured by REW V5.31
* Source: EXCL: Microphone (2- USB Sound Device        ), MICROPHONE (Master Volume), L, volume: 0.560
* Format: 256k Log Swept Sine, 1 sweep at -5.0 dBFS with no timing reference
* Dated: Jul 5, 2024 12:51:12 AM
* REW Settings:
*  C-weighting compensation: Off
*  Target level: 75.0 dB
* Note: QCY Melobuds L
* Measurement: L QCY Melobuds L
* Smoothing: 1/12 octave
* Frequency Step: 96 ppo
* Start Frequency: 0.36621094 Hz
*
* Freq(Hz) SPL(dB) Phase(degrees)
0.366211 82.512 156.0107
0.368865 82.506 155.9859
0.371538 82.498 155.9486
0.374230 82.487 155.9018
0.376942 82.475 155.8478
0.379673 82.462 155.7885
0.382424 82.449 155.7249
0.385196 82.435 155.6579
0.387987 82.421 155.5878
0.390798 82.407 155.5148
0.393630 82.392 155.4391
0.396483 82.378 155.3606
0.399356 82.363 155.2794
0.402250 82.349 155.1955
0.405165 82.334 155.1089
0.408101 82.319 155.0194
0.411058 82.304 154.9272
0.414037 82.289 154.8322
0.417037 82.273 154.7343
0.420059 82.258 154.6335
0.423103 82.243 154.5298
0.426169 82.227 154.4233
0.429257 82.211 154.3137
0.432368 82.195 154.2012
0.435501 82.180 154.0857
0.438656 82.164 153.9671
0.441835 82.147 153.8455
0.445037 82.131 153.7208
0.448262 82.115 153.5930
0.451510 82.098 153.4621
0.454782 82.082 153.3281
0.458077 82.065 153.1908
0.461397 82.048 153.0504
0.464740 82.031 152.9068
0.468108 82.014 152.7600
0.471500 81.997 152.6099
0.474917 81.979 152.4565
0.478358 81.962 152.2999
0.481825 81.944 152.1400
0.485316 81.926 151.9768
0.488833 81.909 151.8103
0.492375 81.891 151.6404
0.495943 81.872 151.4673
0.499537 81.854 151.2907
0.503157 81.836 151.1109
0.506803 81.817 150.9276
0.510475 81.799 150.7411
0.514175 81.780 150.5511
0.517900 81.761 150.3579
0.521653 81.742 150.1612
0.525434 81.722 149.9613
0.529241 81.703 149.7580
0.533076 81.684 149.5514
0.536939 81.664 149.3414
0.540830 81.644 149.1283
0.544749 81.624 148.9118
0.548696 81.604 148.6921
0.552673 81.584 148.4691
0.556677 81.564 148.2430
0.560711 81.543 148.0137
0.564774 81.523 147.7813
0.568867 81.502 147.5459
0.572989 81.481 147.3074
0.577141 81.460 147.0659
0.581324 81.438 146.8215
0.585536 81.417 146.5742
0.589779 81.395 146.3241
0.594053 81.374 146.0713
0.598358 81.352 145.8158
0.602694 81.330 145.5577
0.607061 81.308 145.2972
0.611460 81.285 145.0342
0.615891 81.263 144.7689
0.620354 81.240 144.5014
0.624849 81.217 144.2318
0.629377 81.194 143.9603
0.633938 81.171 143.6868
0.638532 81.148 143.4117
0.643159 81.124 143.1350
0.647819 81.101 142.8568
0.652514 81.077 142.5774
0.657242 81.053 142.2968
0.662005 81.028 142.0153
0.666802 81.004 141.7331
0.671634 80.979 141.4503
0.676501 80.955 141.1671
0.681403 80.930 140.8838
0.686341 80.905 140.6005
0.691314 80.879 140.3176
0.696324 80.854 140.0351
0.701370 80.828 139.7533
0.706452 80.802 139.4724
0.711571 80.775 139.1925
0.716728 80.747 138.9135
0.721921 80.719 138.6352
0.727153 80.689 138.3570
0.732422 80.657 138.0782
0.737729 80.623 137.7977
0.743075 80.587 137.5143
0.748460 80.549 137.2271
0.753883 80.510 136.9353
0.759346 80.470 136.6384
0.764849 80.429 136.3360
0.770391 80.388 136.0278
0.775974 80.346 135.7137
0.781597 80.303 135.3935
0.787261 80.260 135.0672
0.792966 80.217 134.7348
0.798712 80.172 134.3960
0.804500 80.128 134.0509
0.810329 80.082 133.6995
0.816201 80.036 133.3416
0.822116 79.990 132.9773
0.828073 79.942 132.6065
0.834074 79.894 132.2292
0.840118 79.845 131.8454
0.846206 79.796 131.4551
0.852338 79.745 131.0582
0.858514 79.694 130.6548
0.864735 79.642 130.2449
0.871001 79.589 129.8285
0.877313 79.535 129.4057
0.883670 79.480 128.9766
0.890074 79.424 128.5411
0.896524 79.367 128.0994
0.903020 79.309 127.6516
0.909564 79.250 127.1978
0.916155 79.190 126.7382
0.922794 79.128 126.2729
0.929481 79.066 125.8021
0.936216 79.001 125.3259
0.943000 78.936 124.8447
0.949834 78.869 124.3587
0.956717 78.801 123.8682
0.963649 78.731 123.3734
0.970632 78.659 122.8748
0.977666 78.586 122.3728
0.984750 78.512 121.8676
0.991886 78.435 121.3599
0.999074 78.357 120.8501
1.006314 78.277 120.3388
1.013606 78.195 119.8265
1.020951 78.111 119.3139
1.028349 78.025 118.8017
1.035801 77.937 118.2906
1.043307 77.847 117.7814
1.050867 77.754 117.2750
1.058482 77.660 116.7720
1.066152 77.563 116.2735
1.073878 77.464 115.7800
1.081660 77.364 115.2923
1.089498 77.262 114.8106
1.097393 77.161 114.3349
1.105345 77.059 113.8649
1.113355 76.960 113.3998
1.121423 76.863 112.9391
1.129549 76.769 112.4819
1.137734 76.677 112.0277
1.145979 76.589 111.5760
1.154283 76.504 111.1263
1.162647 76.421 110.6783
1.171072 76.339 110.2316
1.179558 76.259 109.7858
1.188106 76.180 109.3406
1.196715 76.101 108.8956
1.205387 76.022 108.4505
1.214122 75.942 108.0049
1.222920 75.859 107.5584
1.231782 75.774 107.1106
1.240708 75.686 106.6611
1.249699 75.594 106.2096
1.258754 75.497 105.7555
1.267876 75.394 105.2984
1.277063 75.285 104.8379
1.286318 75.168 104.3736
1.295639 75.043 103.9049
1.305027 74.909 103.4313
1.314484 74.764 102.9525
1.324009 74.608 102.4678
1.333604 74.439 101.9769
1.343268 74.257 101.4793
1.353002 74.061 100.9743
1.362806 73.849 100.4618
1.372681 73.620 99.9412
1.382628 73.373 99.4121
1.392647 73.106 98.8744
1.402739 72.819 98.3279
1.412904 72.510 97.7726
1.423142 72.176 97.2089
1.433455 71.817 96.6374
1.443843 71.429 96.0592
1.454305 71.009 95.4762
1.464844 70.553 94.8905
1.475459 70.056 94.3049
1.486150 69.515 93.7221
1.496920 68.924 93.1442
1.507767 68.283 92.5729
1.518693 67.590 92.0092
1.529698 66.846 91.4540
1.540783 66.053 90.9077
1.551948 65.213 90.3708
1.563194 64.328 89.8436
1.574521 63.402 89.3265
1.585931 62.439 88.8198
1.597423 61.442 88.3242
1.608999 60.415 87.8402
1.620658 59.363 87.3687
1.632402 58.292 86.9106
1.644232 57.205 86.4675
1.656146 56.109 86.0410
1.668147 55.010 85.6333
1.680235 53.916 85.2476
1.692411 52.833 84.8878
1.704675 51.769 84.5595
1.717028 50.734 84.2703
1.729470 49.739 84.0312
1.742003 48.795 83.8586
1.754626 47.914 83.7774
1.767341 47.111 83.8283
1.780147 46.403 84.0809
1.793047 45.807 84.6636
1.806040 45.341 85.8348
1.819128 45.022 88.1825
1.832310 44.864 93.3154
1.845587 44.875 107.1376
1.858961 45.057 154.9997
1.872432 45.404 -149.0293
1.886001 45.905 -132.2813
1.899667 46.546 -126.5088
1.913433 47.309 -124.0964
1.927299 48.179 -123.0806
1.941265 49.136 -122.7608
1.955332 50.165 -122.8283
1.969501 51.250 -123.1265
1.983773 52.375 -123.5676
1.998148 53.527 -124.0988
2.012627 54.692 -124.6867
2.027212 55.857 -125.3089
2.041902 57.011 -125.9501
2.056698 58.142 -126.5997
2.071602 59.240 -127.2501
2.086614 60.295 -127.8960
2.101734 61.297 -128.5338
2.116964 62.238 -129.1619
2.132304 63.110 -129.7805
2.147756 63.909 -130.3918
2.163320 64.630 -131.0013
2.178996 65.274 -131.6175
2.194786 65.842 -132.2522
2.210690 66.341 -132.9190
2.226710 66.778 -133.6302
2.242845 67.158 -134.3936
2.259098 67.488 -135.2124
2.275468 67.771 -136.0850
2.291957 68.012 -137.0074
2.308566 68.213 -137.9734
2.325295 68.377 -138.9762
2.342145 68.508 -140.0084
2.359117 68.608 -141.0628
2.376212 68.681 -142.1321
2.393431 68.730 -143.2092
2.410775 68.759 -144.2874
2.428244 68.772 -145.3600
2.445840 68.771 -146.4212
2.463564 68.763 -147.4655
2.481416 68.749 -148.4886
2.499397 68.735 -149.4880
2.517509 68.723 -150.4636
2.535752 68.715 -151.4191
2.554127 68.711 -152.3623
2.572635 68.710 -153.3054
2.591277 68.709 -154.2627
2.610055 68.704 -155.2473
2.628968 68.694 -156.2689
2.648019 68.676 -157.3332
2.667208 68.648 -158.4424
2.686535 68.610 -159.5959
2.706003 68.560 -160.7913
2.725612 68.497 -162.0242
2.745363 68.423 -163.2891
2.765257 68.334 -164.5791
2.785295 68.233 -165.8865
2.805478 68.117 -167.2026
2.825808 67.986 -168.5180
2.846285 67.841 -169.8235
2.866910 67.679 -171.1109
2.887685 67.502 -172.3744
2.908611 67.307 -173.6126
2.929688 67.096 -174.8299
2.950917 66.866 -176.0366
2.972301 66.617 -177.2466
2.993839 66.349 -178.4744
3.015534 66.062 -179.7327
3.037386 65.757 178.9684
3.059396 65.432 177.6208
3.081565 65.089 176.2184
3.103896 64.728 174.7569
3.126388 64.349 173.2339
3.149043 63.954 171.6482
3.171862 63.541 170.0010
3.194847 63.112 168.2949
3.217998 62.666 166.5337
3.241317 62.200 164.7212
3.264805 61.714 162.8585
3.288463 61.200 160.9395
3.312293 60.654 158.9458
3.336295 60.070 156.8420
3.360471 59.442 154.5720
3.384822 58.770 152.0535
3.409350 58.060 149.1661
3.434056 57.318 145.7272
3.458940 56.556 141.4459
3.484005 55.792 135.8324
3.509252 55.045 128.0187
3.534681 54.340 116.4438
3.560295 53.708 98.6799
3.586094 53.186 73.5217
3.612081 52.812 46.7049
3.638255 52.626 26.1163
3.664620 52.655 12.3001
3.691175 52.908 2.7934
3.717923 53.371 -4.2217
3.744864 54.011 -9.7406
3.772001 54.784 -14.2901
3.799335 55.645 -18.1590
3.826866 56.552 -21.5146
3.854597 57.469 -24.4616
3.882529 58.367 -27.0711
3.910664 59.221 -29.3964
3.939002 60.012 -31.4820
3.967546 60.727 -33.3695
3.996296 61.357 -35.1010
4.025255 61.902 -36.7204
4.054423 62.365 -38.2702
4.083804 62.755 -39.7850
4.113396 63.079 -41.2855
4.143204 63.345 -42.7778
4.173227 63.561 -44.2565
4.203468 63.734 -45.7084
4.233928 63.868 -47.1161
4.264609 63.970 -48.4612
4.295512 64.045 -49.7272
4.326639 64.097 -50.9018
4.357992 64.128 -51.9801
4.389572 64.139 -52.9656
4.421380 64.129 -53.8694
4.453419 64.097 -54.7054
4.485691 64.041 -55.4832
4.518196 63.960 -56.2043
4.550936 63.856 -56.8619
4.583914 63.729 -57.4406
4.617131 63.583 -57.9187
4.650589 63.418 -58.2690
4.684289 63.236 -58.4612
4.718233 63.039 -58.4643
4.752424 62.823 -58.2487
4.786862 62.589 -57.7883
4.821549 62.335 -57.0604
4.856488 62.062 -56.0443
4.891680 61.775 -54.7205
4.927127 61.485 -53.0713
4.962831 61.203 -51.0830
4.998794 60.944 -48.7490
5.035017 60.725 -46.0737
5.071503 60.561 -43.0745
5.108253 60.467 -39.7837
5.145270 60.449 -36.2493
5.182555 60.509 -32.5376
5.220110 60.643 -28.7379
5.257937 60.842 -24.9585
5.296038 61.094 -21.3138
5.334415 61.386 -17.9079
5.373071 61.709 -14.8218
5.412006 62.052 -12.1066
5.451224 62.410 -9.7827
5.490725 62.779 -7.8446
5.530514 63.158 -6.2675
5.570590 63.546 -5.0158
5.610957 63.940 -4.0510
5.651616 64.334 -3.3354
5.692570 64.724 -2.8351
5.733821 65.101 -2.5212
5.775370 65.460 -2.3706
5.817221 65.795 -2.3656
5.859375 66.105 -2.4929
5.901834 66.388 -2.7412
5.944602 66.645 -3.0974
5.987679 66.877 -3.5444
6.031068 67.086 -4.0618
6.074771 67.273 -4.6282
6.118792 67.440 -5.2240
6.163131 67.586 -5.8343
6.207792 67.713 -6.4499
6.252776 67.820 -7.0674
6.298086 67.907 -7.6857
6.343725 67.976 -8.3010
6.389694 68.026 -8.9053
6.435996 68.060 -9.4856
6.482634 68.079 -10.0269
6.529610 68.085 -10.5145
6.576926 68.078 -10.9368
6.624585 68.059 -11.2869
6.672590 68.029 -11.5620
6.720942 67.989 -11.7610
6.769645 67.941 -11.8829
6.818700 67.889 -11.9252
6.868111 67.835 -11.8845
6.917881 67.782 -11.7567
6.968010 67.733 -11.5387
7.018504 67.688 -11.2305
7.069362 67.649 -10.8371
7.120590 67.618 -10.3694
7.172189 67.596 -9.8431
7.224161 67.587 -9.2764
7.276511 67.591 -8.6868
7.329239 67.612 -8.0896
7.382350 67.649 -7.4974
7.435845 67.703 -6.9236
7.489729 67.771 -6.3842
7.544002 67.852 -5.8975
7.598669 67.944 -5.4822
7.653732 68.045 -5.1536
7.709194 68.155 -4.9221
7.765058 68.270 -4.7922
7.821327 68.390 -4.7642
7.878004 68.513 -4.8368
7.935091 68.636 -5.0079
7.992592 68.757 -5.2756
8.050510 68.873 -5.6376
8.108847 68.984 -6.0903
8.167607 69.088 -6.6274
8.226793 69.186 -7.2396
8.286408 69.276 -7.9159
8.346454 69.358 -8.6451
8.406936 69.431 -9.4183
8.467856 69.496 -10.2283
8.529218 69.552 -11.0691
8.591024 69.600 -11.9329
8.653278 69.641 -12.8102
8.715983 69.676 -13.6911
8.779143 69.705 -14.5669
8.842760 69.730 -15.4314
8.906839 69.752 -16.2807
8.971381 69.771 -17.1118
9.036392 69.790 -17.9214
9.101873 69.810 -18.7061
9.167829 69.833 -19.4633
9.234263 69.859 -20.1923
9.301178 69.890 -20.8949
9.368578 69.926 -21.5745
9.436467 69.970 -22.2357
9.504847 70.022 -22.8827
9.573723 70.083 -23.5194
9.643099 70.153 -24.1501
9.712976 70.231 -24.7798
9.783361 70.318 -25.4144
9.854255 70.414 -26.0595
9.925663 70.517 -26.7188
9.997588 70.628 -27.3948
10.070035 70.744 -28.0886
10.143007 70.866 -28.8008
10.216507 70.992 -29.5315
10.290540 71.122 -30.2799
10.365109 71.253 -31.0438
10.440219 71.387 -31.8197
10.515873 71.521 -32.6032
10.592076 71.656 -33.3898
10.668830 71.790 -34.1753
10.746141 71.925 -34.9557
10.824012 72.058 -35.7264
10.902447 72.191 -36.4829
10.981451 72.324 -37.2212
11.061027 72.456 -37.9384
11.141180 72.588 -38.6322
11.221913 72.720 -39.3013
11.303232 72.852 -39.9446
11.385140 72.985 -40.5617
11.467641 73.119 -41.1533
11.550741 73.254 -41.7204
11.634442 73.389 -42.2650
11.718750 73.526 -42.7891
11.803669 73.663 -43.2946
11.889203 73.801 -43.7835
11.975357 73.938 -44.2578
12.062136 74.076 -44.7194
12.149543 74.213 -45.1696
12.237583 74.349 -45.6092
12.326262 74.484 -46.0385
12.415583 74.617 -46.4575
12.505552 74.748 -46.8660
12.596172 74.876 -47.2634
12.687449 75.003 -47.6488
12.779387 75.126 -48.0215
12.871992 75.248 -48.3807
12.965268 75.367 -48.7261
13.059220 75.484 -49.0578
13.153852 75.599 -49.3762
13.249170 75.712 -49.6822
13.345179 75.824 -49.9772
13.441884 75.934 -50.2633
13.539289 76.044 -50.5429
13.637401 76.152 -50.8185
13.736223 76.259 -51.0926
13.835761 76.365 -51.3678
13.936021 76.470 -51.6468
14.037007 76.572 -51.9313
14.138725 76.673 -52.2228
14.241180 76.772 -52.5222
14.344377 76.868 -52.8300
14.448323 76.961 -53.1458
14.553021 77.051 -53.4689
14.658478 77.137 -53.7982
14.764700 77.221 -54.1324
14.871691 77.302 -54.4701
14.979457 77.380 -54.8102
15.088005 77.456 -55.1517
15.197339 77.530 -55.4942
15.307465 77.602 -55.8378
15.418389 77.673 -56.1832
15.530117 77.744 -56.5313
15.642655 77.814 -56.8840
15.756008 77.884 -57.2433
15.870182 77.954 -57.6110
15.985184 78.025 -57.9894
16.101019 78.096 -58.3803
16.217694 78.167 -58.7850
16.335214 78.238 -59.2044
16.453586 78.310 -59.6389
16.572815 78.381 -60.0880
16.692909 78.452 -60.5509
16.813872 78.522 -61.0262
16.935713 78.593 -61.5123
17.058436 78.663 -62.0074
17.182048 78.734 -62.5098
17.306556 78.805 -63.0180
17.431967 78.877 -63.5307
17.558286 78.950 -64.0471
17.685521 79.024 -64.5666
17.813677 79.099 -65.0891
17.942762 79.176 -65.6144
18.072783 79.255 -66.1428
18.203746 79.335 -66.6742
18.335658 79.417 -67.2085
18.468526 79.501 -67.7451
18.602356 79.585 -68.2833
18.737156 79.671 -68.8220
18.872934 79.757 -69.3597
19.009695 79.844 -69.8950
19.147447 79.932 -70.4260
19.286197 80.020 -70.9512
19.425953 80.109 -71.4693
19.566721 80.198 -71.9790
19.708510 80.288 -72.4795
19.851326 80.378 -72.9704
19.995177 80.469 -73.4516
20.140070 80.561 -73.9233
20.286013 80.653 -74.3859
20.433014 80.745 -74.8401
20.581080 80.838 -75.2866
20.730219 80.930 -75.7265
20.880439 81.023 -76.1606
21.031747 81.116 -76.5901
21.184152 81.208 -77.0161
21.337661 81.300 -77.4397
21.492282 81.391 -77.8619
21.648024 81.481 -78.2836
21.804895 81.570 -78.7056
21.962902 81.657 -79.1281
22.122054 81.742 -79.5514
22.282360 81.826 -79.9750
22.443827 81.907 -80.3985
22.606464 81.987 -80.8212
22.770280 82.064 -81.2425
22.935283 82.140 -81.6620
23.101481 82.215 -82.0795
23.268884 82.288 -82.4955
23.437500 82.360 -82.9109
23.607338 82.432 -83.3272
23.778406 82.503 -83.7461
23.950714 82.574 -84.1693
24.124271 82.645 -84.5985
24.299086 82.716 -85.0349
24.475167 82.787 -85.4791
24.652524 82.857 -85.9312
24.831166 82.928 -86.3910
25.011103 82.998 -86.8577
25.192344 83.068 -87.3307
25.374898 83.139 -87.8097
25.558775 83.210 -88.2947
25.743984 83.282 -88.7860
25.930536 83.355 -89.2846
26.118439 83.430 -89.7914
26.307704 83.505 -90.3073
26.498341 83.581 -90.8326
26.690359 83.657 -91.3672
26.883768 83.734 -91.9100
27.078579 83.811 -92.4591
27.274801 83.887 -93.0123
27.472446 83.963 -93.5671
27.671522 84.039 -94.1211
27.872042 84.114 -94.6723
28.074014 84.190 -95.2196
28.277450 84.266 -95.7623
28.482360 84.342 -96.3008
28.688755 84.418 -96.8360
28.896645 84.495 -97.3691
29.106042 84.573 -97.9017
29.316957 84.650 -98.4352
29.529400 84.728 -98.9710
29.743382 84.805 -99.5102
29.958915 84.881 -100.0538
30.176009 84.957 -100.6022
30.394677 85.032 -101.1558
30.614929 85.106 -101.7148
30.836778 85.178 -102.2792
31.060234 85.249 -102.8488
31.285309 85.318 -103.4237
31.512015 85.386 -104.0039
31.740364 85.453 -104.5896
31.970368 85.519 -105.1812
32.202039 85.583 -105.7791
32.435388 85.647 -106.3838
32.670428 85.709 -106.9957
32.907171 85.770 -107.6147
33.145630 85.830 -108.2405
33.385817 85.889 -108.8723
33.627745 85.947 -109.5087
33.871425 86.003 -110.1480
34.116871 86.060 -110.7888
34.364096 86.115 -111.4294
34.613113 86.171 -112.0693
34.863934 86.228 -112.7088
35.116572 86.285 -113.3495
35.371041 86.343 -113.9938
35.627354 86.402 -114.6449
35.885525 86.462 -115.3059
36.145566 86.521 -115.9787
36.407492 86.580 -116.6636
36.671316 86.637 -117.3587
36.937051 86.692 -118.0600
37.204712 86.744 -118.7625
37.474313 86.793 -119.4610
37.745867 86.840 -120.1514
38.019389 86.885 -120.8316
38.294893 86.930 -121.5021
38.572394 86.974 -122.1652
38.851905 87.018 -122.8248
39.133442 87.062 -123.4848
39.417019 87.105 -124.1479
39.702651 87.147 -124.8157
39.990353 87.188 -125.4879
40.280140 87.227 -126.1634
40.572026 87.264 -126.8405
40.866028 87.299 -127.5181
41.162160 87.334 -128.1956
41.460438 87.367 -128.8733
41.760877 87.400 -129.5520
42.063494 87.432 -130.2325
42.368303 87.463 -130.9155
42.675322 87.493 -131.6013
42.984565 87.523 -132.2900
43.296048 87.551 -132.9809
43.609789 87.579 -133.6733
43.925804 87.606 -134.3660
44.244108 87.631 -135.0576
44.564719 87.656 -135.7469
44.887654 87.680 -136.4333
45.212928 87.703 -137.1176
45.540560 87.727 -137.8018
45.870565 87.750 -138.4890
46.202962 87.773 -139.1827
46.537768 87.795 -139.8851
46.875000 87.815 -140.5967
47.214676 87.832 -141.3154
47.556813 87.846 -142.0366
47.901429 87.857 -142.7546
48.248542 87.864 -143.4634
48.598171 87.868 -144.1584
48.950334 87.871 -144.8371
49.305048 87.873 -145.5001
49.662333 87.876 -146.1509
50.022206 87.879 -146.7950
50.384688 87.884 -147.4387
50.749796 87.888 -148.0868
51.117550 87.892 -148.7414
51.487969 87.895 -149.4012
51.861072 87.896 -150.0624
52.236879 87.895 -150.7201
52.615409 87.892 -151.3696
52.996681 87.888 -152.0082
53.380717 87.883 -152.6355
53.767536 87.879 -153.2528
54.157158 87.875 -153.8632
54.549603 87.872 -154.4699
54.944892 87.868 -155.0759
55.343045 87.864 -155.6826
55.744084 87.860 -156.2900
56.148028 87.855 -156.8972
56.554900 87.848 -157.5035
56.964720 87.841 -158.1092
57.377510 87.832 -158.7151
57.793291 87.822 -159.3210
58.212085 87.810 -159.9250
58.633914 87.796 -160.5238
59.058799 87.781 -161.1147
59.486764 87.765 -161.6975
59.917829 87.749 -162.2747
60.352019 87.734 -162.8506
60.789354 87.718 -163.4286
61.229859 87.702 -164.0108
61.673556 87.686 -164.5976
62.120468 87.669 -165.1886
62.570618 87.651 -165.7817
63.024031 87.631 -166.3732
63.480729 87.610 -166.9576
63.940736 87.589 -167.5300
64.404077 87.567 -168.0888
64.870776 87.547 -168.6363
65.340856 87.527 -169.1770
65.814343 87.508 -169.7142
66.291261 87.488 -170.2487
66.771635 87.467 -170.7784
67.255489 87.446 -171.3012
67.742850 87.423 -171.8160
68.233743 87.399 -172.3233
68.728193 87.374 -172.8250
69.226226 87.348 -173.3239
69.727867 87.321 -173.8229
70.233144 87.293 -174.3236
70.742083 87.263 -174.8266
71.254709 87.232 -175.3315
71.771050 87.200 -175.8382
72.291132 87.168 -176.3472
72.814984 87.135 -176.8585
73.342631 87.101 -177.3717
73.874102 87.068 -177.8855
74.409424 87.035 -178.3997
74.948626 87.002 -178.9145
75.491734 86.969 -179.4292
76.038779 86.935 -179.9402
76.589787 86.901 179.5582
77.144788 86.866 179.0706
77.703811 86.831 178.5982
78.266885 86.797 178.1385
78.834039 86.764 177.6880
79.405303 86.731 177.2431
79.980706 86.699 176.8000
80.560280 86.667 176.3546
81.144053 86.634 175.9030
81.732056 86.601 175.4442
82.324320 86.566 174.9800
82.920876 86.528 174.5145
83.521755 86.489 174.0524
84.126988 86.447 173.5987
84.736607 86.403 173.1572
85.350643 86.359 172.7304
85.969129 86.313 172.3193
86.592097 86.268 171.9228
87.219579 86.224 171.5378
87.851608 86.181 171.1582
88.488217 86.139 170.7775
89.129439 86.097 170.3911
89.775308 86.054 169.9985
90.425856 86.011 169.6020
91.081119 85.967 169.2037
91.741131 85.923 168.8052
92.405925 85.877 168.4086
93.075536 85.832 168.0162
93.750000 85.785 167.6296
94.429351 85.739 167.2481
95.113625 85.693 166.8696
95.802858 85.645 166.4919
96.497085 85.597 166.1142
97.196342 85.547 165.7367
97.900667 85.495 165.3604
98.610096 85.442 164.9869
99.324665 85.388 164.6175
100.044413 85.334 164.2520
100.769376 85.280 163.8891
101.499592 85.227 163.5273
102.235100 85.175 163.1673
102.975938 85.122 162.8112
103.722144 85.070 162.4628
104.473757 85.016 162.1266
105.230817 84.962 161.8054
105.993363 84.906 161.4975
106.761435 84.850 161.1982
107.535072 84.791 160.9016
108.314315 84.732 160.6033
109.099206 84.671 160.2999
109.889783 84.608 159.9909
110.686090 84.545 159.6790
111.488167 84.481 159.3688
112.296056 84.419 159.0633
113.109800 84.358 158.7618
113.929440 84.298 158.4598
114.755020 84.239 158.1514
115.586582 84.179 157.8331
116.424170 84.116 157.5052
117.267827 84.048 157.1725
118.117598 83.977 156.8424
118.973527 83.903 156.5231
119.835658 83.830 156.2193
120.704037 83.760 155.9276
121.578708 83.693 155.6404
122.459718 83.631 155.3535
123.347111 83.570 155.0682
124.240935 83.510 154.7878
125.141236 83.447 154.5176
126.048061 83.381 154.2654
126.961458 83.309 154.0387
127.881473 83.233 153.8424
128.808154 83.156 153.6754
129.741551 83.079 153.5284
130.681712 83.004 153.3873
131.628686 82.931 153.2386
132.582521 82.858 153.0769
133.543269 82.784 152.9079
134.510979 82.707 152.7430
135.485701 82.627 152.5899
136.467486 82.545 152.4478
137.456386 82.460 152.3105
138.452451 82.374 152.1727
139.455735 82.287 152.0325
140.466288 82.198 151.8934
141.484165 82.109 151.7622
142.509418 82.020 151.6447
143.542100 81.930 151.5439
144.582265 81.841 151.4603
145.629968 81.752 151.3929
146.685262 81.664 151.3400
147.748204 81.580 151.2972
148.818849 81.499 151.2581
149.897251 81.423 151.2189
150.983469 81.349 151.1826
152.077557 81.276 151.1571
153.179574 81.201 151.1509
154.289576 81.121 151.1689
155.407622 81.037 151.2087
156.533770 80.948 151.2628
157.668078 80.854 151.3244
158.810606 80.758 151.3907
159.961413 80.661 151.4618
161.120559 80.566 151.5386
162.288105 80.474 151.6231
163.464112 80.384 151.7178
164.648640 80.298 151.8227
165.841752 80.215 151.9344
167.043510 80.136 152.0496
168.253976 80.057 152.1701
169.473213 79.980 152.3038
170.701286 79.901 152.4604
171.938258 79.822 152.6443
173.184194 79.741 152.8511
174.439158 79.659 153.0674
175.703216 79.577 153.2776
176.976434 79.496 153.4698
178.258878 79.416 153.6401
179.550615 79.337 153.7946
180.851713 79.259 153.9484
182.162239 79.181 154.1173
183.482262 79.102 154.3096
184.811850 79.021 154.5260
186.151073 78.938 154.7646
187.500000 78.854 155.0250
188.858702 78.771 155.3074
190.227250 78.689 155.6110
191.605715 78.611 155.9337
192.994169 78.535 156.2719
194.392685 78.461 156.6198
195.801334 78.390 156.9710
197.220191 78.320 157.3195
198.649330 78.252 157.6641
200.088825 78.184 158.0094
201.538751 78.116 158.3644
202.999184 78.046 158.7411
204.470200 77.975 159.1552
205.951875 77.902 159.6206
207.444287 77.830 160.1411
208.947514 77.760 160.7087
210.461634 77.692 161.3111
211.986726 77.626 161.9346
213.522869 77.564 162.5669
215.070144 77.507 163.2000
216.628631 77.454 163.8286
218.198411 77.406 164.4464
219.779567 77.363 165.0426
221.372180 77.325 165.6022
222.976334 77.290 166.1118
224.592112 77.260 166.5703
226.219600 77.236 166.9992
227.858880 77.218 167.4456
229.510039 77.207 167.9684
231.173164 77.208 168.5969
232.848340 77.221 169.2995
234.535655 77.242 170.0120
236.235197 77.266 170.6819
237.947054 77.289 171.2851
239.671317 77.309 171.8182
241.408074 77.324 172.2881
243.157416 77.334 172.7066
244.919435 77.341 173.0895
246.694223 77.342 173.4519
248.481871 77.340 173.8036
250.282473 77.335 174.1475
252.096123 77.328 174.4834
253.922915 77.322 174.8117
255.762945 77.318 175.1360
257.616309 77.316 175.4624
259.483103 77.316 175.7974
261.363424 77.318 176.1448
263.257372 77.321 176.5047
265.165043 77.325 176.8727
267.086538 77.331 177.2419
269.021957 77.339 177.6046
270.971401 77.349 177.9546
272.934972 77.361 178.2866
274.912771 77.373 178.5985
276.904902 77.387 178.8923
278.911469 77.400 179.1727
280.932577 77.415 179.4445
282.968330 77.430 179.7110
285.018835 77.447 179.9741
287.084199 77.463 -179.7642
289.164530 77.480 -179.5027
291.259935 77.496 -179.2404
293.370525 77.511 -178.9761
295.496408 77.524 -178.7105
297.637697 77.537 -178.4480
299.794503 77.549 -178.1956
301.966937 77.563 -177.9593
304.155114 77.578 -177.7383
306.359147 77.594 -177.5245
308.579152 77.611 -177.3086
310.815244 77.627 -177.0872
313.067539 77.641 -176.8625
315.336156 77.653 -176.6386
317.621211 77.664 -176.4197
319.922826 77.674 -176.2114
322.241118 77.683 -176.0195
324.576210 77.693 -175.8450
326.928223 77.704 -175.6826
329.297280 77.715 -175.5233
331.683504 77.727 -175.3620
334.087019 77.739 -175.1998
336.507952 77.751 -175.0411
338.946427 77.763 -174.8897
341.402572 77.774 -174.7478
343.876516 77.786 -174.6160
346.368387 77.799 -174.4928
348.878315 77.813 -174.3761
351.406431 77.828 -174.2638
353.952867 77.844 -174.1541
356.517756 77.862 -174.0448
359.101230 77.879 -173.9346
361.703426 77.895 -173.8223
364.324478 77.908 -173.7051
366.964523 77.918 -173.5811
369.623699 77.925 -173.4526
372.302145 77.932 -173.3266
375.000000 77.937 -173.2107
377.717405 77.941 -173.1067
380.454501 77.944 -173.0089
383.211431 77.947 -172.9071
385.988339 77.951 -172.7917
388.785369 77.955 -172.6590
391.602668 77.960 -172.5128
394.440383 77.967 -172.3624
397.298660 77.976 -172.2183
400.177650 77.984 -172.0879
403.077502 77.991 -171.9731
405.998368 77.996 -171.8691
408.940400 77.998 -171.7679
411.903750 77.997 -171.6616
414.888575 77.993 -171.5441
417.895028 77.987 -171.4163
420.923268 77.980 -171.2873
423.973452 77.974 -171.1703
427.045738 77.969 -171.0727
430.140287 77.967 -170.9891
433.257261 77.967 -170.9034
436.396822 77.970 -170.7985
439.559133 77.972 -170.6635
442.744360 77.973 -170.4976
445.952668 77.971 -170.3109
449.184225 77.966 -170.1213
452.439199 77.958 -169.9456
455.717760 77.950 -169.7912
459.020079 77.944 -169.6560
462.346327 77.940 -169.5345
465.696680 77.937 -169.4213
469.071310 77.936 -169.3096
472.470394 77.935 -169.1927
475.894109 77.935 -169.0666
479.342634 77.936 -168.9317
482.816148 77.937 -168.7896
486.314833 77.939 -168.6420
489.838871 77.941 -168.4904
493.388445 77.941 -168.3349
496.963741 77.939 -168.1742
500.564945 77.934 -168.0069
504.192245 77.928 -167.8316
507.845830 77.921 -167.6479
511.525890 77.914 -167.4575
515.232618 77.907 -167.2670
518.966206 77.901 -167.0856
522.726849 77.895 -166.9216
526.514743 77.890 -166.7778
530.330086 77.887 -166.6508
534.173076 77.886 -166.5330
538.043915 77.887 -166.4169
541.942803 77.889 -166.2972
545.869944 77.893 -166.1716
549.825542 77.895 -166.0402
553.809805 77.896 -165.9033
557.822939 77.895 -165.7581
561.865154 77.893 -165.6010
565.936660 77.888 -165.4297
570.037671 77.883 -165.2451
574.168399 77.877 -165.0507
578.329060 77.871 -164.8527
582.519870 77.867 -164.6575
586.741049 77.866 -164.4677
590.992817 77.867 -164.2812
595.275394 77.870 -164.0938
599.589005 77.875 -163.9014
603.933874 77.881 -163.7028
608.310228 77.885 -163.4995
612.718295 77.888 -163.2932
617.158304 77.887 -163.0859
621.630488 77.883 -162.8804
626.135079 77.877 -162.6802
630.672311 77.871 -162.4884
635.242423 77.867 -162.3049
639.845651 77.864 -162.1250
644.482237 77.863 -161.9402
649.152421 77.864 -161.7434
653.856447 77.867 -161.5313
658.594560 77.870 -161.3021
663.367008 77.875 -161.0525
668.174039 77.880 -160.7808
673.015903 77.885 -160.4939
677.892854 77.890 -160.2095
682.805145 77.892 -159.9485
687.753032 77.893 -159.7234
692.736774 77.894 -159.5293
697.756631 77.894 -159.3467
702.812863 77.894 -159.1550
707.905735 77.896 -158.9443
713.035511 77.898 -158.7192
718.202461 77.901 -158.4916
723.406852 77.902 -158.2673
728.648956 77.903 -158.0429
733.929047 77.904 -157.8138
739.247399 77.905 -157.5845
744.604290 77.909 -157.3660
750.000000 77.913 -157.1643
755.434809 77.918 -156.9728
760.909001 77.922 -156.7755
766.422861 77.925 -156.5579
771.976677 77.929 -156.3130
777.570739 77.935 -156.0411
783.205337 77.944 -155.7489
788.880766 77.957 -155.4482
794.597321 77.974 -155.1504
800.355301 77.993 -154.8598
806.155005 78.014 -154.5720
811.996736 78.034 -154.2809
817.880799 78.054 -153.9854
823.807501 78.072 -153.6922
829.777150 78.090 -153.4113
835.790057 78.109 -153.1497
841.846536 78.129 -152.9062
847.946903 78.148 -152.6718
854.091476 78.167 -152.4359
860.280575 78.184 -152.1912
866.514523 78.201 -151.9353
872.793644 78.217 -151.6697
879.118267 78.234 -151.3987
885.488720 78.252 -151.1274
891.905336 78.272 -150.8609
898.368450 78.294 -150.6041
904.878398 78.318 -150.3612
911.435520 78.344 -150.1325
918.040157 78.371 -149.9118
924.692655 78.399 -149.6898
931.393359 78.427 -149.4598
938.142619 78.456 -149.2230
944.940787 78.484 -148.9854
951.788218 78.512 -148.7543
958.685268 78.538 -148.5354
965.632296 78.565 -148.3326
972.629666 78.594 -148.1478
979.677741 78.625 -147.9773
986.776890 78.659 -147.8111
993.927482 78.695 -147.6401
1001.129891 78.732 -147.4601
1008.384491 78.770 -147.2732
1015.691660 78.809 -147.0866
1023.051781 78.849 -146.9096
1030.465236 78.890 -146.7476
1037.932411 78.931 -146.6000
1045.453698 78.970 -146.4637
1053.029486 79.008 -146.3332
1060.660172 79.044 -146.2013
1068.346153 79.079 -146.0628
1076.087829 79.116 -145.9165
1083.885605 79.154 -145.7656
1091.739887 79.194 -145.6173
1099.651084 79.236 -145.4819
1107.619609 79.277 -145.3689
1115.645878 79.318 -145.2834
1123.730308 79.358 -145.2233
1131.873321 79.397 -145.1795
1140.075341 79.435 -145.1404
1148.336797 79.471 -145.0971
1156.658119 79.505 -145.0463
1165.039741 79.537 -144.9908
1173.482099 79.568 -144.9357
1181.985634 79.599 -144.8843
1190.550789 79.629 -144.8353
1199.178011 79.659 -144.7827
1207.867749 79.688 -144.7221
1216.620457 79.717 -144.6551
1225.436590 79.745 -144.5891
1234.316609 79.774 -144.5306
1243.260976 79.803 -144.4833
1252.270157 79.833 -144.4485
1261.344623 79.862 -144.4261
1270.484846 79.892 -144.4142
1279.691303 79.923 -144.4087
1288.964474 79.953 -144.4048
1298.304842 79.983 -144.3989
1307.712894 80.011 -144.3894
1317.189120 80.038 -144.3775
1326.734016 80.064 -144.3661
1336.348077 80.088 -144.3575
1346.031806 80.112 -144.3522
1355.785708 80.134 -144.3482
1365.610290 80.156 -144.3414
1375.506065 80.176 -144.3275
1385.473549 80.197 -144.3050
1395.513261 80.218 -144.2775
1405.625726 80.241 -144.2519
1415.811469 80.265 -144.2352
1426.071023 80.289 -144.2299
1436.404921 80.313 -144.2313
1446.813703 80.335 -144.2298
1457.297912 80.357 -144.2168
1467.858093 80.379 -144.1895
1478.494798 80.401 -144.1527
1489.208581 80.424 -144.1154
1500.000000 80.447 -144.0864
1510.869618 80.468 -144.0693
1521.818002 80.488 -144.0601
1532.845723 80.508 -144.0503
1543.953355 80.530 -144.0335
1555.141477 80.553 -144.0096
1566.410674 80.578 -143.9859
1577.761531 80.603 -143.9720
1589.194642 80.627 -143.9731
1600.710601 80.649 -143.9859
1612.310010 80.670 -144.0041
1623.993473 80.691 -144.0260
1635.761599 80.711 -144.0542
1647.615002 80.729 -144.0873
1659.554299 80.745 -144.1161
1671.580114 80.759 -144.1290
1683.693072 80.773 -144.1194
1695.893807 80.787 -144.0918
1708.182952 80.802 -144.0589
1720.561150 80.818 -144.0323
1733.029045 80.836 -144.0149
1745.587288 80.856 -144.0020
1758.236533 80.878 -143.9863
1770.977440 80.902 -143.9629
1783.810673 80.928 -143.9308
1796.736900 80.954 -143.8927
1809.756796 80.979 -143.8517
1822.871040 81.003 -143.8105
1836.080315 81.026 -143.7717
1849.385310 81.050 -143.7351
1862.786718 81.074 -143.6974
1876.285239 81.098 -143.6530
1889.881575 81.122 -143.5946
1903.576436 81.147 -143.5156
1917.370535 81.172 -143.4132
1931.264593 81.197 -143.2892
1945.259332 81.225 -143.1477
1959.355483 81.256 -142.9945
1973.553781 81.294 -142.8386
1987.854965 81.341 -142.6941
2002.259781 81.398 -142.5791
2016.768981 81.464 -142.5118
2031.383320 81.536 -142.5054
2046.103561 81.612 -142.5632
2060.930471 81.690 -142.6800
2075.864823 81.766 -142.8449
2090.907395 81.840 -143.0490
2106.058972 81.909 -143.2864
2121.320344 81.974 -143.5483
2136.692305 82.032 -143.8191
2152.175658 82.082 -144.0839
2167.771210 82.124 -144.3357
2183.479774 82.158 -144.5750
2199.302169 82.188 -144.8062
2215.239219 82.215 -145.0351
2231.291755 82.242 -145.2644
2247.460615 82.271 -145.4905
2263.746641 82.304 -145.7082
2280.150683 82.344 -145.9186
2296.673595 82.389 -146.1323
2313.316238 82.438 -146.3666
2330.079481 82.490 -146.6412
2346.964198 82.542 -146.9700
2363.971268 82.595 -147.3553
2381.101578 82.644 -147.7882
2398.356022 82.687 -148.2578
2415.735498 82.724 -148.7553
2433.240913 82.755 -149.2723
2450.873180 82.780 -149.7989
2468.633217 82.800 -150.3243
2486.521951 82.816 -150.8403
2504.540314 82.826 -151.3428
2522.689246 82.832 -151.8321
2540.969692 82.832 -152.3104
2559.382606 82.827 -152.7780
2577.928947 82.819 -153.2328
2596.609683 82.807 -153.6723
2615.425787 82.793 -154.0941
2634.378241 82.777 -154.4943
2653.468031 82.759 -154.8680
2672.696154 82.739 -155.2115
2692.063613 82.719 -155.5246
2711.571415 82.700 -155.8106
2731.220579 82.682 -156.0762
2751.012130 82.666 -156.3290
2770.947098 82.652 -156.5740
2791.026522 82.642 -156.8147
2811.251451 82.636 -157.0574
2831.622938 82.635 -157.3111
2852.142045 82.637 -157.5883
2872.809842 82.641 -157.9028
2893.627406 82.646 -158.2634
2914.595823 82.648 -158.6666
2935.716186 82.647 -159.0992
2956.989596 82.641 -159.5441
2978.417161 82.628 -159.9867
3000.000000 82.610 -160.4172
3021.739237 82.590 -160.8302
3043.636005 82.567 -161.2240
3065.691446 82.542 -161.5976
3087.906710 82.516 -161.9509
3110.282955 82.489 -162.2853
3132.821347 82.463 -162.6075
3155.523062 82.439 -162.9290
3178.389283 82.419 -163.2581
3201.421202 82.401 -163.5967
3224.620020 82.385 -163.9465
3247.986946 82.372 -164.3103
3271.523198 82.359 -164.6894
3295.230004 82.347 -165.0843
3319.108599 82.333 -165.4964
3343.160228 82.315 -165.9285
3367.386145 82.292 -166.3813
3391.787613 82.263 -166.8510
3416.365904 82.227 -167.3279
3441.122300 82.185 -167.7973
3466.058091 82.138 -168.2445
3491.174576 82.087 -168.6592
3516.473066 82.034 -169.0354
3541.954880 81.980 -169.3716
3567.621345 81.926 -169.6727
3593.473800 81.872 -169.9489
3619.513592 81.821 -170.2106
3645.742080 81.772 -170.4649
3672.160630 81.726 -170.7165
3698.770620 81.683 -170.9686
3725.573436 81.641 -171.2223
3752.570477 81.599 -171.4767
3779.763150 81.556 -171.7314
3807.152872 81.511 -171.9863
3834.741071 81.463 -172.2394
3862.529185 81.413 -172.4891
3890.518664 81.363 -172.7359
3918.710966 81.315 -172.9813
3947.107561 81.267 -173.2267
3975.709929 81.219 -173.4717
4004.519563 81.169 -173.7157
4033.537962 81.117 -173.9580
4062.766641 81.062 -174.1946
4092.207123 81.008 -174.4181
4121.860942 80.956 -174.6206
4151.729646 80.908 -174.7974
4181.814790 80.864 -174.9476
4212.117944 80.827 -175.0729
4242.640687 80.794 -175.1791
4273.384610 80.767 -175.2771
4304.351317 80.742 -175.3802
4335.542421 80.720 -175.5009
4366.959549 80.701 -175.6489
4398.604338 80.685 -175.8313
4430.478438 80.673 -176.0541
4462.583511 80.665 -176.3233
4494.921231 80.662 -176.6458
4527.493283 80.660 -177.0292
4560.301365 80.659 -177.4790
4593.347189 80.656 -177.9959
4626.632476 80.647 -178.5773
4660.158962 80.630 -179.2187
4693.928395 80.605 -179.9147
4727.942535 80.569 179.3402
4762.203156 80.522 178.5509
4796.712043 80.466 177.7231
4831.470996 80.400 176.8644
4866.481826 80.322 175.9856
4901.746360 80.232 175.0987
4937.266434 80.128 174.2159
4973.043902 80.007 173.3506
5009.080628 79.870 172.5187
5045.378492 79.717 171.7390
5081.939384 79.549 171.0302
5118.765212 79.368 170.4078
5155.857894 79.177 169.8810
5193.219366 78.978 169.4530
5230.851574 78.774 169.1255
5268.756481 78.566 168.9003
5306.936062 78.354 168.7796
5345.392309 78.139 168.7631
5384.127225 77.923 168.8466
5423.142830 77.707 169.0233
5462.441159 77.493 169.2871
5502.024259 77.283 169.6368
5541.894195 77.077 170.0728
5582.053045 76.878 170.5917
5622.502902 76.687 171.1860
5663.245876 76.506 171.8482
5704.284090 76.335 172.5727
5745.619684 76.175 173.3546
5787.254813 76.025 174.1891
5829.191647 75.887 175.0712
5871.432373 75.760 175.9956
5913.979192 75.644 176.9575
5956.834323 75.537 177.9514
6000.000000 75.439 178.9730
6043.478473 75.350 -179.9819
6087.272010 75.272 -178.9178
6131.382892 75.202 -177.8383
6175.813420 75.142 -176.7456
6220.565910 75.091 -175.6412
6265.642695 75.049 -174.5277
6311.046124 75.018 -173.4095
6356.778566 74.998 -172.2904
6402.842404 74.987 -171.1725
6449.240040 74.985 -170.0569
6495.973891 74.995 -168.9449
6543.046396 75.015 -167.8376
6590.460007 75.047 -166.7357
6638.217197 75.090 -165.6395
6686.320456 75.146 -164.5485
6734.772290 75.217 -163.4630
6783.575226 75.304 -162.3871
6832.731809 75.410 -161.3291
6882.244600 75.535 -160.2964
6932.116181 75.680 -159.2944
6982.349153 75.844 -158.3292
7032.946133 76.030 -157.4122
7083.909760 76.239 -156.5573
7135.242690 76.471 -155.7803
7186.947600 76.729 -155.1015
7239.027185 77.014 -154.5472
7291.484160 77.327 -154.1490
7344.321260 77.672 -153.9444
7397.541239 78.050 -153.9764
7451.146872 78.461 -154.2938
7505.140954 78.903 -154.9494
7559.526299 79.371 -155.9999
7614.305743 79.856 -157.5035
7669.482141 80.347 -159.5170
7725.058371 80.830 -162.0903
7781.037328 81.288 -165.2545
7837.421932 81.701 -169.0140
7894.215122 82.049 -173.3431
7951.419859 82.310 -178.1828
8009.039125 82.464 176.5632
8067.075924 82.496 171.0277
8125.533282 82.396 165.3721
8184.414245 82.163 159.7712
8243.721885 81.800 154.3964
8303.459292 81.320 149.3979
8363.629581 80.738 144.8939
8424.235888 80.073 140.9651
8485.281374 79.347 137.6542
8546.769221 78.580 134.9709
8608.702634 77.791 132.9002
8671.084842 76.996 131.4083
8733.919097 76.208 130.4471
8797.208675 75.439 129.9578
8860.956876 74.695 129.8787
8925.167022 73.983 130.1523
8989.842461 73.303 130.7278
9054.986566 72.656 131.5627
9120.602731 72.044 132.6202
9186.694378 71.464 133.8664
9253.264952 70.916 135.2701
9320.317925 70.397 136.8054
9387.856790 69.905 138.4537
9455.885071 69.440 140.2018
9524.406312 69.001 142.0400
9593.424086 68.589 143.9612
9662.941992 68.202 145.9587
9732.963653 67.840 148.0240
9803.492719 67.501 150.1442
9874.532869 67.182 152.3004
9946.087805 66.875 154.4667
10018.161257 66.572 156.6109
10090.756983 66.256 158.6948
10163.878768 65.902 160.6753
10237.530423 65.474 162.5093
10311.715789 64.919 164.1599
10386.438732 64.171 165.6001
10461.703149 63.164 166.8144
10537.512962 61.855 167.8047
10613.872125 60.241 168.6069
10690.784618 58.352 169.2863
10768.254450 56.230 169.9190
10846.285661 53.913 170.5773
10924.882318 51.439 171.3181
11004.048518 48.841 172.2136
11083.788390 46.152 173.4948
11164.106090 43.414 175.7047
11245.005805 40.685 179.3951
11326.491752 38.053 -176.3858
11408.568180 35.650 -175.5635
11491.239368 33.637 179.1902
11574.509626 32.139 171.4078
11658.383294 31.164 165.2702
11742.864745 30.613 160.4359
11827.958384 30.358 154.9365
11913.668646 30.292 148.6584
12000.000000 30.329 143.9548
12086.956947 30.409 143.6453
12174.544019 30.493 150.3705
12262.765784 30.565 167.1360
12351.626840 30.624 -167.4072
12441.131819 30.677 -141.5582
12531.285389 30.735 -118.1449
12622.092249 30.803 -97.4164
12713.557132 30.873 -81.9951
12805.684808 30.931 -71.0961
12898.480079 30.972 -61.7976
12991.947783 31.001 -52.1469
13086.092792 31.029 -41.5525
13180.920015 31.058 -30.7039
13276.434395 31.087 -20.1508
13372.640911 31.112 -10.4454
13469.544580 31.132 -5.9494
13567.150452 31.148 -10.4563
13665.463617 31.156 -27.1238
13764.489200 31.148 -60.3100
13864.232362 31.121 -94.7323
13964.698305 31.078 -115.0043
14065.892266 31.035 -128.8161
14167.819519 31.005 -143.2065
14270.485380 30.995 -162.1688
14373.895200 31.001 174.3023
14478.054370 31.014 154.5791
14582.968320 31.034 148.9114
14688.642520 31.072 160.7519
14795.082478 31.134 -176.4365
14902.293745 31.207 -158.2952
15010.281908 31.271 -148.9389
15119.052599 31.314 -145.9545
15228.611486 31.333 -148.6217
15338.964283 31.333 -158.1775
15450.116741 31.334 -175.7062
15562.074656 31.355 161.2153
15674.843864 31.415 133.9645
15788.430244 31.517 97.8702
15902.839718 31.644 64.5209
16018.078250 31.769 46.8914
16134.151848 31.870 40.1902
16251.066563 31.943 39.5786
16368.828491 32.000 42.3981
16487.443769 32.061 45.5425
16606.918584 32.141 45.6461
16727.259161 32.239 42.5954
16848.471777 32.345 38.0008
16970.562748 32.444 33.8578
17093.538442 32.534 33.7833
17217.405268 32.619 42.4867
17342.169684 32.694 58.7379
17467.838194 32.753 72.3950
17594.417350 32.793 77.4148
17721.913751 32.824 73.7685
17850.334044 32.857 61.6107
17979.684923 32.906 41.1093
18109.973131 32.980 17.6957
18241.205462 33.078 0.8575
18373.388756 33.192 -7.1188
18506.529905 33.319 -8.8449
18640.635849 33.468 -7.2669
18775.713581 33.661 -4.4377
18911.770141 33.928 -1.5911
19048.812624 34.296 0.5656
19186.848172 34.788 1.6388
19325.883983 35.399 1.0183
19465.927305 36.089 -1.4579
19606.985439 36.792 -3.8973
19749.065738 37.430 -3.3986
19892.175609 37.924 1.3186
20036.322514 38.193 7.6075
