* Measurement data measured by REW V5.30.5
* Source: Input device not selected, no input selected, L, volume: no control
* Format: 256k Log Swept Sine, 1 sweep at -16.0 dBFS with no timing reference
* Dated: Feb 9, 2024 12:15:26 AM
* REW Settings:
*  C-weighting compensation: Off
*  Target level: 75.0 dB
* Note: QKZ x HBB Hades L
* Measurement: L Feb 9
* Smoothing: 1/12 octave
* Frequency Step: 96 ppo
* Start Frequency: 0.36621094 Hz
*
* Freq(Hz) SPL(dB) Phase(degrees)
0.366211 69.574 74.6830
0.368865 69.598 74.5642
0.371538 69.634 74.3878
0.374230 69.679 74.1692
0.376942 69.729 73.9216
0.379673 69.783 73.6546
0.382424 69.838 73.3745
0.385196 69.896 73.0853
0.387987 69.954 72.7893
0.390798 70.013 72.4878
0.393630 70.072 72.1816
0.396483 70.132 71.8711
0.399356 70.193 71.5565
0.402250 70.254 71.2380
0.405165 70.315 70.9158
0.408101 70.377 70.5899
0.411058 70.439 70.2605
0.414037 70.502 69.9276
0.417037 70.565 69.5914
0.420059 70.629 69.2518
0.423103 70.693 68.9091
0.426169 70.758 68.5634
0.429257 70.823 68.2146
0.432367 70.888 67.8630
0.435501 70.954 67.5086
0.438656 71.021 67.1515
0.441835 71.088 66.7918
0.445037 71.155 66.4296
0.448262 71.223 66.0650
0.451510 71.292 65.6981
0.454782 71.360 65.3290
0.458077 71.430 64.9579
0.461397 71.500 64.5847
0.464740 71.570 64.2097
0.468108 71.641 63.8328
0.471500 71.713 63.4542
0.474917 71.785 63.0739
0.478358 71.857 62.6922
0.481825 71.930 62.3089
0.485316 72.004 61.9243
0.488833 72.078 61.5384
0.492375 72.153 61.1512
0.495943 72.228 60.7629
0.499537 72.303 60.3736
0.503157 72.380 59.9832
0.506803 72.457 59.5919
0.510475 72.534 59.1998
0.514174 72.612 58.8068
0.517900 72.690 58.4130
0.521653 72.769 58.0185
0.525433 72.849 57.6234
0.529241 72.929 57.2276
0.533076 73.010 56.8312
0.536939 73.092 56.4343
0.540830 73.174 56.0368
0.544749 73.256 55.6389
0.548696 73.339 55.2404
0.552673 73.423 54.8415
0.556677 73.507 54.4421
0.560711 73.593 54.0423
0.564774 73.678 53.6421
0.568867 73.764 53.2414
0.572989 73.851 52.8402
0.577141 73.939 52.4386
0.581324 74.027 52.0365
0.585536 74.116 51.6339
0.589779 74.205 51.2308
0.594053 74.295 50.8271
0.598358 74.386 50.4228
0.602694 74.477 50.0179
0.607061 74.569 49.6124
0.611460 74.662 49.2061
0.615891 74.755 48.7990
0.620354 74.849 48.3911
0.624849 74.944 47.9824
0.629377 75.040 47.5726
0.633938 75.136 47.1619
0.638532 75.233 46.7500
0.643159 75.330 46.3370
0.647819 75.428 45.9226
0.652514 75.527 45.5070
0.657242 75.627 45.0898
0.662005 75.727 44.6712
0.666802 75.828 44.2508
0.671634 75.930 43.8287
0.676501 76.033 43.4048
0.681403 76.136 42.9788
0.686341 76.240 42.5508
0.691314 76.345 42.1205
0.696324 76.450 41.6879
0.701369 76.556 41.2529
0.706452 76.663 40.8153
0.711571 76.770 40.3751
0.716727 76.877 39.9324
0.721921 76.983 39.4871
0.727153 77.088 39.0396
0.732422 77.192 38.5903
0.737729 77.295 38.1395
0.743075 77.396 37.6879
0.748460 77.495 37.2360
0.753883 77.594 36.7842
0.759346 77.693 36.3328
0.764849 77.792 35.8820
0.770391 77.890 35.4321
0.775974 77.989 34.9832
0.781597 78.087 34.5354
0.787261 78.186 34.0887
0.792965 78.285 33.6434
0.798712 78.384 33.1993
0.804499 78.484 32.7567
0.810329 78.583 32.3155
0.816201 78.683 31.8757
0.822116 78.782 31.4374
0.828073 78.882 31.0007
0.834073 78.982 30.5654
0.840118 79.083 30.1316
0.846205 79.183 29.6993
0.852337 79.284 29.2684
0.858514 79.385 28.8390
0.864735 79.486 28.4110
0.871001 79.587 27.9843
0.877313 79.688 27.5590
0.883670 79.790 27.1348
0.890074 79.891 26.7119
0.896523 79.993 26.2900
0.903020 80.095 25.8692
0.909564 80.198 25.4492
0.916155 80.300 25.0301
0.922793 80.403 24.6118
0.929480 80.506 24.1940
0.936216 80.609 23.7768
0.943000 80.712 23.3599
0.949833 80.815 22.9433
0.956716 80.919 22.5268
0.963649 81.023 22.1103
0.970632 81.127 21.6936
0.977666 81.232 21.2766
0.984750 81.336 20.8592
0.991886 81.441 20.4411
0.999074 81.546 20.0223
1.006313 81.652 19.6024
1.013605 81.757 19.1815
1.020950 81.863 18.7592
1.028349 81.970 18.3353
1.035801 82.076 17.9098
1.043306 82.183 17.4824
1.050867 82.290 17.0529
1.058482 82.398 16.6211
1.066152 82.505 16.1868
1.073878 82.614 15.7499
1.081659 82.722 15.3103
1.089498 82.831 14.8679
1.097393 82.939 14.4228
1.105345 83.049 13.9751
1.113355 83.158 13.5251
1.121422 83.267 13.0729
1.129549 83.376 12.6189
1.137734 83.485 12.1632
1.145978 83.594 11.7060
1.154283 83.704 11.2475
1.162647 83.813 10.7878
1.171072 83.922 10.3272
1.179558 84.031 9.8657
1.188106 84.140 9.4034
1.196715 84.249 8.9406
1.205387 84.358 8.4772
1.214122 84.467 8.0135
1.222920 84.575 7.5494
1.231781 84.684 7.0852
1.240708 84.793 6.6208
1.249698 84.902 6.1564
1.258754 85.011 5.6920
1.267875 85.120 5.2277
1.277063 85.229 4.7635
1.286317 85.338 4.2996
1.295638 85.447 3.8359
1.305027 85.556 3.3725
1.314484 85.665 2.9094
1.324009 85.774 2.4467
1.333603 85.883 1.9843
1.343267 85.992 1.5224
1.353001 86.102 1.0607
1.362805 86.211 0.5995
1.372681 86.321 0.1387
1.382628 86.430 -0.3218
1.392647 86.540 -0.7820
1.402739 86.650 -1.2418
1.412904 86.761 -1.7014
1.423142 86.871 -2.1608
1.433455 86.982 -2.6199
1.443842 87.093 -3.0788
1.454305 87.203 -3.5377
1.464843 87.314 -3.9964
1.475458 87.425 -4.4550
1.486150 87.536 -4.9134
1.496919 87.647 -5.3717
1.507766 87.758 -5.8299
1.518692 87.868 -6.2879
1.529697 87.979 -6.7458
1.540782 88.089 -7.2036
1.551947 88.199 -7.6613
1.563193 88.308 -8.1191
1.574521 88.418 -8.5769
1.585931 88.527 -9.0349
1.597423 88.637 -9.4931
1.608998 88.746 -9.9516
1.620658 88.854 -10.4105
1.632402 88.963 -10.8700
1.644231 89.072 -11.3302
1.656146 89.180 -11.7911
1.668147 89.288 -12.2529
1.680235 89.397 -12.7158
1.692410 89.505 -13.1799
1.704674 89.613 -13.6454
1.717027 89.721 -14.1124
1.729469 89.829 -14.5812
1.742002 89.936 -15.0518
1.754625 90.044 -15.5246
1.767340 90.152 -15.9997
1.780147 90.260 -16.4772
1.793046 90.367 -16.9576
1.806040 90.475 -17.4408
1.819127 90.583 -17.9273
1.832309 90.690 -18.4170
1.845587 90.798 -18.9102
1.858961 90.905 -19.4067
1.872431 91.012 -19.9066
1.886000 91.118 -20.4097
1.899666 91.224 -20.9156
1.913432 91.330 -21.4242
1.927298 91.435 -21.9351
1.941264 91.540 -22.4480
1.955331 91.645 -22.9628
1.969500 91.749 -23.4792
1.983772 91.853 -23.9968
1.998147 91.957 -24.5156
2.012626 92.060 -25.0352
2.027211 92.163 -25.5555
2.041901 92.266 -26.0764
2.056697 92.369 -26.5976
2.071601 92.471 -27.1191
2.086613 92.573 -27.6408
2.101733 92.674 -28.1626
2.116963 92.776 -28.6845
2.132303 92.877 -29.2066
2.147755 92.978 -29.7289
2.163318 93.079 -30.2517
2.178995 93.180 -30.7753
2.194785 93.280 -31.3002
2.210689 93.380 -31.8270
2.226709 93.479 -32.3562
2.242844 93.578 -32.8879
2.259097 93.677 -33.4224
2.275467 93.775 -33.9595
2.291956 93.872 -34.4990
2.308565 93.969 -35.0405
2.325294 94.065 -35.5838
2.342144 94.161 -36.1284
2.359116 94.257 -36.6741
2.376211 94.351 -37.2204
2.393430 94.446 -37.7670
2.410774 94.540 -38.3136
2.428243 94.633 -38.8598
2.445839 94.726 -39.4055
2.463562 94.819 -39.9503
2.481415 94.911 -40.4942
2.499396 95.003 -41.0371
2.517508 95.094 -41.5791
2.535750 95.185 -42.1204
2.554126 95.276 -42.6615
2.572634 95.366 -43.2032
2.591276 95.456 -43.7460
2.610054 95.544 -44.2906
2.628967 95.633 -44.8371
2.648018 95.720 -45.3856
2.667206 95.807 -45.9360
2.686534 95.893 -46.4878
2.706002 95.979 -47.0408
2.725610 96.064 -47.5943
2.745361 96.148 -48.1480
2.765255 96.232 -48.7014
2.785294 96.315 -49.2539
2.805477 96.397 -49.8052
2.825807 96.479 -50.3549
2.846284 96.561 -50.9026
2.866909 96.642 -51.4483
2.887684 96.723 -51.9918
2.908609 96.803 -52.5336
2.929686 96.882 -53.0742
2.950916 96.961 -53.6142
2.972299 97.039 -54.1543
2.993838 97.117 -54.6950
3.015532 97.193 -55.2365
3.037384 97.269 -55.7786
3.059394 97.345 -56.3210
3.081564 97.419 -56.8633
3.103894 97.493 -57.4050
3.126386 97.566 -57.9455
3.149041 97.639 -58.4843
3.171861 97.711 -59.0207
3.194845 97.783 -59.5544
3.217996 97.854 -60.0848
3.241315 97.925 -60.6117
3.264803 97.995 -61.1351
3.288461 98.065 -61.6552
3.312291 98.134 -62.1725
3.336293 98.202 -62.6876
3.360469 98.270 -63.2009
3.384820 98.338 -63.7127
3.409348 98.404 -64.2232
3.434054 98.470 -64.7321
3.458938 98.536 -65.2393
3.484003 98.600 -65.7443
3.509250 98.665 -66.2469
3.534679 98.729 -66.7467
3.560293 98.792 -67.2432
3.586092 98.856 -67.7362
3.612079 98.919 -68.2254
3.638253 98.981 -68.7108
3.664618 99.043 -69.1926
3.691173 99.105 -69.6709
3.717921 99.167 -70.1461
3.744862 99.228 -70.6185
3.771999 99.289 -71.0883
3.799332 99.349 -71.5555
3.826864 99.409 -72.0200
3.854595 99.468 -72.4819
3.882527 99.528 -72.9409
3.910661 99.587 -73.3969
3.938999 99.646 -73.8497
3.967543 99.704 -74.2992
3.996294 99.763 -74.7453
4.025252 99.822 -75.1879
4.054421 99.880 -75.6270
4.083801 99.939 -76.0630
4.113394 99.997 -76.4958
4.143201 100.055 -76.9257
4.173225 100.113 -77.3530
4.203466 100.171 -77.7777
4.233926 100.229 -78.2002
4.264606 100.287 -78.6206
4.295509 100.344 -79.0390
4.326636 100.402 -79.4556
4.357989 100.460 -79.8704
4.389569 100.518 -80.2833
4.421378 100.575 -80.6946
4.453417 100.633 -81.1041
4.485688 100.691 -81.5119
4.518193 100.749 -81.9182
4.550934 100.807 -82.3232
4.583912 100.865 -82.7270
4.617129 100.923 -83.1301
4.650587 100.981 -83.5325
4.684287 101.038 -83.9346
4.718231 101.096 -84.3365
4.752421 101.154 -84.7383
4.786859 101.212 -85.1402
4.821547 101.270 -85.5421
4.856485 101.327 -85.9440
4.891677 101.385 -86.3460
4.927125 101.442 -86.7482
4.962829 101.500 -87.1507
4.998791 101.557 -87.5535
5.035015 101.614 -87.9569
5.071500 101.671 -88.3609
5.108251 101.727 -88.7658
5.145267 101.784 -89.1717
5.182552 101.840 -89.5786
5.220107 101.895 -89.9865
5.257934 101.951 -90.3954
5.296035 102.006 -90.8051
5.334412 102.061 -91.2154
5.373067 102.115 -91.6263
5.412003 102.169 -92.0375
5.451221 102.222 -92.4493
5.490722 102.275 -92.8614
5.530510 102.327 -93.2742
5.570587 102.379 -93.6875
5.610953 102.430 -94.1013
5.651613 102.481 -94.5154
5.692567 102.531 -94.9294
5.733818 102.580 -95.3430
5.775367 102.629 -95.7558
5.817218 102.677 -96.1677
5.859372 102.725 -96.5784
5.901831 102.771 -96.9881
5.944598 102.817 -97.3968
5.987675 102.863 -97.8042
6.031065 102.908 -98.2103
6.074768 102.952 -98.6145
6.118788 102.995 -99.0165
6.163127 103.038 -99.4159
6.207788 103.080 -99.8126
6.252772 103.122 -100.2062
6.298082 103.163 -100.5970
6.343721 103.204 -100.9847
6.389690 103.244 -101.3693
6.435992 103.283 -101.7506
6.482630 103.322 -102.1283
6.529606 103.361 -102.5021
6.576922 103.399 -102.8719
6.624581 103.437 -103.2375
6.672585 103.475 -103.5990
6.720938 103.513 -103.9564
6.769640 103.550 -104.3098
6.818696 103.587 -104.6592
6.868107 103.624 -105.0047
6.917876 103.661 -105.3463
6.968006 103.698 -105.6839
7.018499 103.735 -106.0178
7.069358 103.773 -106.3479
7.120586 103.810 -106.6747
7.172184 103.848 -106.9985
7.224157 103.886 -107.3196
7.276506 103.924 -107.6384
7.329235 103.963 -107.9551
7.382345 104.002 -108.2700
7.435841 104.041 -108.5834
7.489724 104.081 -108.8956
7.543997 104.121 -109.2074
7.598664 104.162 -109.5192
7.653728 104.203 -109.8317
7.709189 104.244 -110.1453
7.765053 104.286 -110.4602
7.821322 104.329 -110.7769
7.877998 104.372 -111.0959
7.935086 104.415 -111.4176
7.992587 104.458 -111.7427
8.050504 104.502 -112.0716
8.108841 104.545 -112.4047
8.167601 104.589 -112.7421
8.226787 104.633 -113.0842
8.286402 104.677 -113.4310
8.346449 104.721 -113.7828
8.406931 104.764 -114.1398
8.467851 104.807 -114.5021
8.529212 104.850 -114.8696
8.591018 104.892 -115.2421
8.653272 104.934 -115.6194
8.715977 104.975 -116.0010
8.779137 105.014 -116.3867
8.842754 105.053 -116.7761
8.906833 105.092 -117.1689
8.971375 105.129 -117.5642
9.036386 105.164 -117.9614
9.101867 105.199 -118.3597
9.167823 105.233 -118.7581
9.234257 105.265 -119.1562
9.301172 105.296 -119.5532
9.368572 105.326 -119.9481
9.436460 105.355 -120.3400
9.504841 105.383 -120.7279
9.573717 105.410 -121.1112
9.643092 105.436 -121.4892
9.712970 105.461 -121.8613
9.783354 105.486 -122.2269
9.854248 105.510 -122.5856
9.925656 105.534 -122.9368
9.997581 105.557 -123.2806
10.070028 105.581 -123.6169
10.143000 105.605 -123.9459
10.216500 105.629 -124.2681
10.290533 105.653 -124.5837
10.365103 105.678 -124.8934
10.440212 105.704 -125.1980
10.515866 105.731 -125.4984
10.592069 105.758 -125.7958
10.668823 105.787 -126.0912
10.746134 105.816 -126.3856
10.824005 105.847 -126.6801
10.902440 105.878 -126.9758
10.981443 105.910 -127.2740
11.061020 105.943 -127.5753
11.141172 105.976 -127.8806
11.221906 106.009 -128.1903
11.303225 106.043 -128.5047
11.385133 106.076 -128.8242
11.467634 106.110 -129.1485
11.550734 106.142 -129.4772
11.634435 106.175 -129.8098
11.718742 106.206 -130.1455
11.803661 106.237 -130.4833
11.889195 106.266 -130.8222
11.975349 106.295 -131.1609
12.062128 106.322 -131.4982
12.149535 106.349 -131.8327
12.237576 106.374 -132.1635
12.326254 106.399 -132.4896
12.415575 106.423 -132.8099
12.505544 106.446 -133.1238
12.596164 106.470 -133.4310
12.687441 106.493 -133.7315
12.779379 106.516 -134.0255
12.871984 106.539 -134.3134
12.965260 106.563 -134.5960
13.059211 106.587 -134.8743
13.153843 106.611 -135.1495
13.249161 106.637 -135.4230
13.345170 106.662 -135.6959
13.441875 106.689 -135.9694
13.539280 106.715 -136.2448
13.637391 106.742 -136.5229
13.736214 106.769 -136.8042
13.835752 106.795 -137.0890
13.936011 106.821 -137.3772
14.036998 106.847 -137.6685
14.138716 106.871 -137.9620
14.241171 106.894 -138.2566
14.344368 106.916 -138.5513
14.448313 106.937 -138.8447
14.553011 106.957 -139.1354
14.658468 106.976 -139.4223
14.764689 106.994 -139.7045
14.871680 107.011 -139.9812
14.979446 107.028 -140.2523
15.087994 107.045 -140.5180
15.197328 107.062 -140.7789
15.307454 107.079 -141.0362
15.418378 107.096 -141.2913
15.530106 107.114 -141.5460
15.642643 107.133 -141.8020
15.755996 107.151 -142.0611
15.870171 107.170 -142.3248
15.985172 107.188 -142.5941
16.101007 107.207 -142.8698
16.217682 107.224 -143.1516
16.335201 107.240 -143.4389
16.453573 107.254 -143.7301
16.572803 107.267 -144.0231
16.692898 107.278 -144.3154
16.813862 107.288 -144.6042
16.935701 107.295 -144.8865
17.058424 107.302 -145.1597
17.182035 107.307 -145.4215
17.306543 107.312 -145.6705
17.431953 107.318 -145.9059
17.558273 107.324 -146.1285
17.685509 107.332 -146.3396
17.813665 107.342 -146.5420
17.942751 107.355 -146.7393
18.072771 107.370 -146.9359
18.203733 107.389 -147.1364
18.335646 107.411 -147.3456
18.468513 107.435 -147.5679
18.602345 107.462 -147.8068
18.737144 107.490 -148.0653
18.872921 107.518 -148.3449
19.009682 107.547 -148.6458
19.147434 107.576 -148.9674
19.286184 107.603 -149.3076
19.425940 107.628 -149.6637
19.566708 107.651 -150.0320
19.708496 107.672 -150.4088
19.851313 107.691 -150.7898
19.995163 107.707 -151.1712
20.140057 107.721 -151.5493
20.285999 107.733 -151.9208
20.433001 107.744 -152.2828
20.581066 107.753 -152.6333
20.730206 107.762 -152.9707
20.880424 107.771 -153.2940
21.031733 107.780 -153.6028
21.184137 107.789 -153.8976
21.337646 107.800 -154.1792
21.492268 107.813 -154.4494
21.648010 107.827 -154.7102
21.804880 107.844 -154.9645
21.962887 107.862 -155.2155
22.122040 107.883 -155.4666
22.282345 107.906 -155.7211
22.443811 107.930 -155.9821
22.606449 107.956 -156.2520
22.770266 107.982 -156.5321
22.935268 108.007 -156.8226
23.101467 108.032 -157.1223
23.268869 108.055 -157.4289
23.437485 108.076 -157.7387
23.607323 108.094 -158.0474
23.778391 108.111 -158.3503
23.950699 108.125 -158.6430
24.124256 108.137 -158.9217
24.299070 108.149 -159.1840
24.475151 108.160 -159.4292
24.652508 108.172 -159.6582
24.831150 108.185 -159.8740
25.011087 108.199 -160.0809
25.192327 108.216 -160.2842
25.374882 108.234 -160.4896
25.558758 108.254 -160.7020
25.743967 108.275 -160.9255
25.930519 108.295 -161.1619
26.118422 108.315 -161.4115
26.307686 108.333 -161.6721
26.498322 108.349 -161.9404
26.690340 108.362 -162.2118
26.883749 108.373 -162.4819
27.078560 108.383 -162.7473
27.274782 108.391 -163.0062
27.472427 108.399 -163.2590
27.671503 108.407 -163.5081
27.872023 108.415 -163.7574
28.073996 108.424 -164.0115
28.277431 108.433 -164.2740
28.482342 108.441 -164.5471
28.688736 108.448 -164.8299
28.896626 108.452 -165.1191
29.106022 108.454 -165.4088
29.316936 108.453 -165.6926
29.529379 108.450 -165.9644
29.743361 108.446 -166.2206
29.958893 108.443 -166.4607
30.175987 108.441 -166.6878
30.394655 108.441 -166.9080
30.614908 108.444 -167.1284
30.836756 108.449 -167.3555
31.060211 108.455 -167.5934
31.285286 108.461 -167.8429
31.511992 108.466 -168.1015
31.740341 108.471 -168.3651
31.970345 108.475 -168.6289
32.202015 108.478 -168.8901
32.435364 108.482 -169.1478
32.670403 108.486 -169.4036
32.907146 108.492 -169.6605
33.145607 108.498 -169.9209
33.385796 108.505 -170.1858
33.627724 108.511 -170.4543
33.871403 108.518 -170.7244
34.116848 108.525 -170.9948
34.364071 108.532 -171.2659
34.613087 108.541 -171.5407
34.863907 108.550 -171.8235
35.116547 108.560 -172.1182
35.371017 108.568 -172.4250
35.627331 108.575 -172.7395
35.885502 108.578 -173.0526
36.145542 108.578 -173.3530
36.407467 108.576 -173.6319
36.671291 108.575 -173.8862
36.937027 108.576 -174.1208
37.204689 108.581 -174.3470
37.474289 108.589 -174.5781
37.745842 108.598 -174.8240
38.019363 108.606 -175.0863
38.294868 108.611 -175.3575
38.572369 108.612 -175.6240
38.851879 108.610 -175.8713
39.133415 108.607 -176.0900
39.416992 108.605 -176.2796
39.702625 108.607 -176.4493
39.990326 108.613 -176.6138
40.280113 108.623 -176.7896
40.571999 108.636 -176.9897
40.866001 108.649 -177.2211
41.162132 108.661 -177.4845
41.460411 108.670 -177.7751
41.760849 108.674 -178.0831
42.063465 108.673 -178.3954
42.368275 108.668 -178.6979
42.675293 108.660 -178.9799
42.984535 108.652 -179.2391
43.296021 108.647 -179.4851
43.609760 108.648 -179.7385
43.925774 108.652 179.9761
44.244080 108.658 179.6417
44.564690 108.659 179.2587
44.887623 108.652 178.8481
45.212898 108.635 178.4451
45.540531 108.611 178.0840
45.870537 108.585 177.7840
46.202934 108.564 177.5399
46.537739 108.550 177.3250
46.874969 108.545 177.1053
47.214645 108.545 176.8553
47.556782 108.546 176.5694
47.901398 108.544 176.2589
48.248512 108.539 175.9413
48.598141 108.532 175.6288
48.950302 108.523 175.3222
49.305016 108.514 175.0148
49.662300 108.503 174.7026
50.022175 108.488 174.3912
50.384655 108.469 174.0963
50.749763 108.446 173.8360
51.117516 108.424 173.6192
51.487934 108.406 173.4391
51.861038 108.394 173.2744
52.236843 108.390 173.0985
52.615372 108.390 172.8913
52.996643 108.392 172.6461
53.380680 108.392 172.3699
53.767498 108.390 172.0767
54.157120 108.385 171.7798
54.549564 108.379 171.4875
54.944855 108.373 171.2021
55.343006 108.365 170.9235
55.744045 108.358 170.6521
56.147991 108.350 170.3900
56.554863 108.341 170.1394
56.964684 108.333 169.9013
57.377472 108.324 169.6740
57.793251 108.317 169.4535
58.212044 108.310 169.2351
58.633873 108.304 169.0133
59.058758 108.298 168.7822
59.486721 108.292 168.5358
59.917786 108.285 168.2691
60.351974 108.277 167.9797
60.789310 108.266 167.6693
61.229816 108.252 167.3436
61.673512 108.235 167.0097
62.120422 108.216 166.6735
62.570572 108.196 166.3381
63.023983 108.176 166.0053
63.480682 108.154 165.6794
63.940689 108.132 165.3703
64.404030 108.110 165.0914
64.870728 108.090 164.8530
65.340805 108.073 164.6554
65.814293 108.062 164.4901
66.291214 108.056 164.3467
66.771591 108.055 164.2188
67.255447 108.060 164.0984
67.742805 108.070 163.9658
68.233696 108.085 163.7885
68.728142 108.098 163.5391
69.226173 108.102 163.2178
69.727814 108.091 162.8577
70.233093 108.064 162.5065
70.742035 108.027 162.1979
71.254662 107.985 161.9379
71.771004 107.943 161.7126
72.291084 107.903 161.5036
72.814934 107.866 161.2971
73.342583 107.832 161.0830
73.874054 107.803 160.8531
74.409378 107.776 160.6026
74.948578 107.751 160.3329
75.491684 107.727 160.0516
76.038727 107.703 159.7703
76.589737 107.680 159.5005
77.144737 107.659 159.2478
77.703758 107.640 159.0085
78.266830 107.624 158.7733
78.833984 107.610 158.5327
79.405251 107.597 158.2820
79.980652 107.583 158.0182
80.560226 107.567 157.7394
81.143997 107.548 157.4468
81.732002 107.526 157.1468
82.324265 107.500 156.8477
82.920822 107.472 156.5525
83.521698 107.442 156.2580
84.126930 107.411 155.9592
84.736549 107.378 155.6546
85.350586 107.343 155.3463
85.969070 107.305 155.0393
86.592041 107.264 154.7429
87.219521 107.219 154.4676
87.851547 107.174 154.2193
88.488159 107.130 153.9961
89.129379 107.087 153.7938
89.775246 107.046 153.6091
90.425797 107.009 153.4374
91.081062 106.975 153.2695
91.741074 106.946 153.0971
92.405869 106.919 152.9175
93.075478 106.893 152.7324
93.749939 106.867 152.5464
94.429291 106.840 152.3700
95.113564 106.810 152.2210
95.802795 106.780 152.1142
96.497025 106.750 152.0493
97.196281 106.724 152.0098
97.900604 106.700 151.9725
98.610031 106.675 151.9170
99.324600 106.648 151.8329
100.044350 106.616 151.7242
100.769310 106.578 151.6071
101.499527 106.537 151.5015
102.235031 106.497 151.4191
102.975868 106.466 151.3497
103.722076 106.447 151.2559
104.473686 106.441 151.0901
105.230743 106.440 150.8314
105.993286 106.438 150.5002
106.761360 106.431 150.1373
107.534996 106.420 149.7748
108.314240 106.405 149.4284
109.099129 106.386 149.1020
109.889709 106.364 148.7916
110.686012 106.338 148.4891
111.488091 106.308 148.1886
112.295982 106.274 147.8913
113.109726 106.236 147.6052
113.929367 106.196 147.3385
114.754944 106.156 147.0954
115.586502 106.118 146.8758
116.424088 106.084 146.6769
117.267746 106.052 146.4928
118.117516 106.023 146.3145
118.973442 105.993 146.1343
119.835571 105.961 145.9497
120.703949 105.925 145.7664
121.578621 105.883 145.5919
122.459633 105.839 145.4269
123.347023 105.792 145.2671
124.240845 105.744 145.1077
125.141144 105.696 144.9439
126.047966 105.650 144.7700
126.961365 105.606 144.5819
127.881378 105.565 144.3792
128.808060 105.526 144.1670
129.741455 105.488 143.9595
130.681610 105.451 143.7739
131.628586 105.414 143.6213
132.582428 105.376 143.5055
133.543182 105.336 143.4266
134.510895 105.293 143.3795
135.485611 105.247 143.3482
136.467392 105.199 143.3050
137.456284 105.151 143.2118
138.452347 105.103 143.0352
139.455627 105.053 142.7682
140.466187 105.001 142.4369
141.484070 104.949 142.0875
142.509323 104.899 141.7638
143.542007 104.855 141.4908
144.582169 104.817 141.2696
145.629868 104.784 141.0866
146.685165 104.752 140.9264
147.748108 104.718 140.7765
148.818756 104.679 140.6273
149.897156 104.637 140.4735
150.983368 104.590 140.3162
152.077454 104.541 140.1632
153.179474 104.490 140.0239
154.289474 104.439 139.9034
155.407516 104.388 139.8001
156.533661 104.338 139.7063
157.667969 104.288 139.6108
158.810501 104.238 139.5047
159.961304 104.189 139.3847
161.120453 104.139 139.2552
162.287994 104.089 139.1259
163.464005 104.039 139.0076
164.648529 103.989 138.9064
165.841644 103.940 138.8198
167.043396 103.892 138.7382
168.253860 103.843 138.6525
169.473099 103.792 138.5637
170.701172 103.738 138.4835
171.938141 103.683 138.4245
173.184082 103.628 138.3875
174.439041 103.575 138.3644
175.703094 103.523 138.3499
176.976318 103.472 138.3427
178.258759 103.423 138.3439
179.550491 103.377 138.3562
180.851593 103.332 138.3829
182.162125 103.289 138.4284
183.482147 103.248 138.4965
184.811737 103.209 138.5878
186.150955 103.172 138.6970
187.499878 103.137 138.8119
188.858582 103.105 138.9183
190.227127 103.078 139.0046
191.605591 103.055 139.0638
192.994049 103.038 139.0916
194.392563 103.026 139.0853
195.801208 103.019 139.0461
197.220062 103.014 138.9773
198.649200 103.010 138.8774
200.088699 103.005 138.7419
201.538620 102.998 138.5669
202.999054 102.988 138.3520
204.470062 102.974 138.1016
205.951736 102.957 137.8262
207.444153 102.935 137.5399
208.947372 102.909 137.2565
210.461487 102.877 136.9857
211.986572 102.838 136.7318
213.522720 102.791 136.4974
215.069992 102.737 136.2858
216.628479 102.679 136.0988
218.198257 102.619 135.9333
219.779419 102.561 135.7834
221.372025 102.506 135.6428
222.976181 102.453 135.5057
224.591965 102.402 135.3683
226.219452 102.351 135.2301
227.858734 102.300 135.0931
229.509888 102.247 134.9604
231.173004 102.194 134.8340
232.848175 102.140 134.7142
234.535492 102.085 134.6002
236.235031 102.031 134.4911
237.946884 101.977 134.3859
239.671143 101.923 134.2840
241.407898 101.868 134.1864
243.157242 101.812 134.0945
244.919266 101.756 134.0102
246.694046 101.698 133.9362
248.481689 101.640 133.8754
250.282288 101.582 133.8297
252.095932 101.524 133.7997
253.922729 101.467 133.7843
255.762756 101.413 133.7781
257.616119 101.362 133.7719
259.482910 101.312 133.7557
261.363220 101.264 133.7234
263.257172 101.215 133.6755
265.164856 101.164 133.6181
267.086365 101.112 133.5604
269.021790 101.058 133.5106
270.971222 101.004 133.4744
272.934784 100.950 133.4539
274.912567 100.896 133.4465
276.904694 100.845 133.4475
278.911255 100.794 133.4528
280.932373 100.745 133.4596
282.968140 100.697 133.4650
285.018646 100.651 133.4644
287.084015 100.606 133.4517
289.164337 100.561 133.4220
291.259735 100.515 133.3747
293.370331 100.467 133.3140
295.496216 100.416 133.2482
297.637512 100.363 133.1858
299.794312 100.307 133.1332
301.966736 100.249 133.0928
304.154907 100.192 133.0636
306.358948 100.134 133.0427
308.578949 100.077 133.0261
310.815033 100.020 133.0111
313.067322 99.963 132.9962
315.335938 99.906 132.9823
317.621002 99.848 132.9724
319.922607 99.789 132.9712
322.240906 99.730 132.9815
324.575989 99.671 133.0024
326.928009 99.613 133.0309
329.297058 99.556 133.0639
331.683289 99.500 133.0991
334.086792 99.445 133.1346
336.507721 99.390 133.1689
338.946198 99.336 133.2010
341.402344 99.282 133.2300
343.876282 99.228 133.2572
346.368164 99.172 133.2852
348.878082 99.116 133.3166
351.406189 99.060 133.3525
353.952637 99.003 133.3931
356.517517 98.947 133.4383
359.100983 98.892 133.4890
361.703186 98.836 133.5461
364.324249 98.781 133.6102
366.964294 98.725 133.6796
369.623474 98.670 133.7520
372.301910 98.615 133.8258
374.999756 98.560 133.9001
377.717163 98.505 133.9740
380.454254 98.450 134.0470
383.211182 98.395 134.1198
385.988098 98.339 134.1938
388.785126 98.283 134.2698
391.602417 98.226 134.3483
394.440125 98.170 134.4295
397.298401 98.115 134.5137
400.177399 98.060 134.6011
403.077240 98.005 134.6926
405.998108 97.951 134.7895
408.940125 97.897 134.8920
411.903473 97.842 134.9993
414.888306 97.786 135.1108
417.894745 97.729 135.2274
420.922974 97.673 135.3508
423.973145 97.616 135.4822
427.045441 97.561 135.6210
430.139984 97.507 135.7641
433.256958 97.455 135.9062
436.396515 97.404 136.0425
439.558838 97.355 136.1713
442.744049 97.307 136.2932
445.952362 97.260 136.4086
449.183929 97.213 136.5153
452.438904 97.167 136.6079
455.717468 97.120 136.6826
459.019775 97.070 136.7423
462.346008 97.018 136.7980
465.696350 96.962 136.8633
469.070984 96.904 136.9467
472.470062 96.845 137.0490
475.893768 96.785 137.1653
479.342285 96.726 137.2882
482.815796 96.667 137.4118
486.314484 96.607 137.5355
489.838531 96.546 137.6653
493.388092 96.483 137.8098
496.963379 96.420 137.9735
500.564575 96.358 138.1521
504.191864 96.298 138.3366
507.845459 96.238 138.5185
511.525513 96.179 138.6939
515.232239 96.120 138.8650
518.965820 96.060 139.0378
522.726440 96.001 139.2189
526.514343 95.941 139.4134
530.329712 95.882 139.6218
534.172729 95.824 139.8397
538.043579 95.767 140.0602
541.942444 95.711 140.2800
545.869568 95.655 140.5007
549.825134 95.600 140.7257
553.809387 95.545 140.9555
557.822510 95.491 141.1876
561.864746 95.436 141.4193
565.936279 95.381 141.6503
570.037292 95.325 141.8825
574.168030 95.268 142.1180
578.328674 95.211 142.3578
582.519470 95.154 142.6027
586.740662 95.097 142.8544
590.992432 95.039 143.1164
595.275024 94.982 143.3906
599.588623 94.925 143.6747
603.933472 94.869 143.9630
608.309814 94.813 144.2513
612.717896 94.758 144.5386
617.157898 94.701 144.8274
621.630066 94.644 145.1245
626.134644 94.587 145.4380
630.671875 94.530 145.7722
635.242004 94.475 146.1246
639.845215 94.423 146.4884
644.481812 94.373 146.8590
649.151978 94.325 147.2334
653.856018 94.281 147.6069
658.594116 94.239 147.9722
663.366577 94.200 148.3207
668.173584 94.163 148.6464
673.015442 94.125 148.9516
677.892395 94.086 149.2456
682.804688 94.043 149.5379
687.752563 93.998 149.8354
692.736328 93.951 150.1440
697.756165 93.902 150.4687
702.812378 93.852 150.8112
707.905273 93.802 151.1684
713.035034 93.753 151.5353
718.201965 93.705 151.9079
723.406372 93.658 152.2855
728.648499 93.611 152.6691
733.928589 93.565 153.0598
739.246948 93.520 153.4576
744.603821 93.475 153.8614
749.999512 93.431 154.2694
755.434326 93.388 154.6804
760.908508 93.346 155.0944
766.422363 93.305 155.5134
771.976196 93.265 155.9407
777.570251 93.225 156.3785
783.204834 93.185 156.8267
788.880249 93.146 157.2841
794.596802 93.108 157.7508
800.354797 93.071 158.2280
806.154480 93.037 158.7139
811.996216 93.006 159.2033
817.880249 92.979 159.6884
823.806946 92.955 160.1606
829.776611 92.933 160.6123
835.789490 92.911 161.0414
841.845947 92.887 161.4551
847.946289 92.861 161.8641
854.090881 92.832 162.2745
860.279968 92.802 162.6877
866.513916 92.771 163.1052
872.793030 92.739 163.5308
879.117676 92.706 163.9664
885.488098 92.674 164.4097
891.904724 92.643 164.8585
898.367859 92.612 165.3142
904.877808 92.580 165.7807
911.434937 92.549 166.2604
918.039551 92.518 166.7517
924.692017 92.489 167.2516
931.392700 92.460 167.7558
938.141968 92.431 168.2593
944.940125 92.403 168.7594
951.787537 92.374 169.2576
958.684570 92.345 169.7590
965.631592 92.315 170.2700
972.628967 92.284 170.7963
979.677063 92.254 171.3408
986.776184 92.223 171.9030
993.926758 92.192 172.4832
1001.129150 92.163 173.0839
1008.383728 92.136 173.7079
1015.690918 92.113 174.3524
1023.051025 92.096 175.0082
1030.464478 92.084 175.6627
1037.931641 92.078 176.3000
1045.452881 92.074 176.9062
1053.028687 92.069 177.4776
1060.659424 92.061 178.0216
1068.345459 92.049 178.5515
1076.087158 92.031 179.0816
1083.884888 92.009 179.6237
1091.739136 91.983 -179.8143
1099.650269 91.953 -179.2280
1107.618774 91.920 -178.6129
1115.645020 91.882 -177.9635
1123.729492 91.842 -177.2727
1131.872559 91.800 -176.5317
1140.074585 91.757 -175.7312
1148.336060 91.716 -174.8636
1156.657349 91.677 -173.9242
1165.038940 91.642 -172.9106
1173.481323 91.612 -171.8225
1181.984863 91.590 -170.6622
1190.550049 91.578 -169.4376
1199.177246 91.577 -168.1611
1207.866943 91.589 -166.8473
1216.619629 91.614 -165.5072
1225.435791 91.652 -164.1462
1234.315796 91.702 -162.7677
1243.260132 91.766 -161.3768
1252.269287 91.845 -159.9810
1261.343750 91.941 -158.5917
1270.484009 92.053 -157.2247
1279.690430 92.182 -155.8958
1288.963623 92.327 -154.6205
1298.303955 92.487 -153.4149
1307.712036 92.660 -152.2965
1317.188232 92.844 -151.2817
1326.733154 93.036 -150.3820
1336.347168 93.234 -149.6018
1346.030884 93.434 -148.9394
1355.784790 93.634 -148.3885
1365.609375 93.831 -147.9388
1375.505127 94.024 -147.5758
1385.472656 94.212 -147.2853
1395.512329 94.395 -147.0583
1405.624756 94.574 -146.8928
1415.810547 94.749 -146.7906
1426.070068 94.918 -146.7546
1436.403931 95.081 -146.7820
1446.812744 95.235 -146.8618
1457.296997 95.379 -146.9789
1467.857178 95.513 -147.1194
1478.493896 95.638 -147.2730
1489.207642 95.754 -147.4316
1499.999023 95.862 -147.5882
1510.868652 95.963 -147.7366
1521.817017 96.058 -147.8708
1532.844727 96.149 -147.9851
1543.952393 96.237 -148.0752
1555.140503 96.322 -148.1400
1566.409668 96.408 -148.1829
1577.760498 96.494 -148.2139
1589.193604 96.582 -148.2459
1600.709595 96.669 -148.2872
1612.308960 96.753 -148.3385
1623.992432 96.835 -148.3954
1635.760498 96.913 -148.4518
1647.613892 96.988 -148.5021
1659.553223 97.060 -148.5419
1671.578979 97.131 -148.5687
1683.691895 97.201 -148.5824
1695.892578 97.270 -148.5857
1708.181763 97.340 -148.5813
1720.559937 97.408 -148.5695
1733.027832 97.476 -148.5461
1745.586060 97.543 -148.5041
1758.235352 97.611 -148.4354
1770.976196 97.679 -148.3340
1783.809448 97.750 -148.2006
1796.735718 97.827 -148.0442
1809.755615 97.909 -147.8788
1822.869873 97.996 -147.7166
1836.079102 98.088 -147.5651
1849.384033 98.184 -147.4283
1862.785400 98.283 -147.3083
1876.283936 98.385 -147.2065
1889.880249 98.489 -147.1233
1903.575073 98.595 -147.0584
1917.369141 98.703 -147.0106
1931.263184 98.812 -146.9776
1945.257935 98.924 -146.9594
1959.354126 99.039 -146.9611
1973.552368 99.156 -146.9919
1987.853516 99.273 -147.0568
2002.258301 99.390 -147.1526
2016.767456 99.505 -147.2705
2031.381836 99.619 -147.4002
2046.102051 99.732 -147.5331
2060.928955 99.845 -147.6652
2075.863281 99.959 -147.7976
2090.905762 100.077 -147.9348
2106.057373 100.198 -148.0827
2121.318848 100.322 -148.2473
2136.690918 100.451 -148.4344
2152.174316 100.583 -148.6508
2167.769775 100.721 -148.9075
2183.478271 100.861 -149.2194
2199.300537 101.003 -149.6000
2215.237549 101.144 -150.0545
2231.290039 101.280 -150.5791
2247.458984 101.409 -151.1634
2263.745117 101.531 -151.7928
2280.149170 101.644 -152.4511
2296.672119 101.749 -153.1223
2313.314697 101.847 -153.7939
2330.077881 101.940 -154.4606
2346.962646 102.030 -155.1258
2363.969727 102.116 -155.7976
2381.100098 102.200 -156.4822
2398.354492 102.280 -157.1809
2415.733887 102.355 -157.8904
2433.239258 102.425 -158.6049
2450.871582 102.491 -159.3185
2468.631592 102.551 -160.0270
2486.520264 102.606 -160.7263
2504.538574 102.656 -161.4101
2522.687500 102.703 -162.0693
2540.968018 102.747 -162.6956
2559.380859 102.791 -163.2880
2577.927246 102.838 -163.8552
2596.607910 102.887 -164.4099
2615.424072 102.939 -164.9634
2634.376465 102.994 -165.5229
2653.466309 103.050 -166.0908
2672.694336 103.108 -166.6662
2692.061768 103.168 -167.2475
2711.569580 103.231 -167.8372
2731.218750 103.298 -168.4469
2751.010254 103.369 -169.0935
2770.945312 103.441 -169.7917
2791.024658 103.513 -170.5485
2811.249512 103.581 -171.3630
2831.621094 103.644 -172.2284
2852.140137 103.698 -173.1351
2872.807861 103.743 -174.0709
2893.625488 103.778 -175.0200
2914.593994 103.804 -175.9637
2935.714355 103.821 -176.8861
2956.987793 103.833 -177.7804
2978.415283 103.842 -178.6479
2999.998047 103.850 -179.4944
3021.737305 103.855 179.6743
3043.634033 103.860 178.8550
3065.689453 103.863 178.0476
3087.904785 103.865 177.2537
3110.281006 103.867 176.4709
3132.819336 103.871 175.6896
3155.520996 103.877 174.8965
3178.387207 103.882 174.0800
3201.419189 103.886 173.2332
3224.617920 103.886 172.3568
3247.984863 103.879 171.4578
3271.520996 103.863 170.5518
3295.227783 103.838 169.6626
3319.106445 103.806 168.8162
3343.157959 103.769 168.0306
3367.383789 103.732 167.3102
3391.785156 103.699 166.6460
3416.363525 103.672 166.0209
3441.119873 103.652 165.4161
3466.055664 103.641 164.8153
3491.172119 103.637 164.2040
3516.470703 103.642 163.5659
3541.952393 103.654 162.8843
3567.618896 103.672 162.1448
3593.471436 103.694 161.3376
3619.511230 103.717 160.4569
3645.739746 103.739 159.4998
3672.158203 103.757 158.4685
3698.768066 103.771 157.3714
3725.570801 103.779 156.2164
3752.567871 103.781 155.0059
3779.760498 103.777 153.7375
3807.150146 103.764 152.4086
3834.738281 103.741 151.0224
3862.526367 103.707 149.5889
3890.515869 103.660 148.1198
3918.708252 103.601 146.6235
3947.104736 103.529 145.1040
3975.707031 103.446 143.5633
4004.516602 103.349 142.0023
4033.534912 103.238 140.4233
4062.763672 103.112 138.8335
4092.204102 102.969 137.2459
4121.857910 102.809 135.6748
4151.726562 102.633 134.1309
4181.811523 102.441 132.6218
4212.114746 102.232 131.1559
4242.637695 102.008 129.7470
4273.381836 101.768 128.4121
4304.348633 101.515 127.1645
4335.539551 101.251 126.0104
4366.956543 100.977 124.9493
4398.601074 100.696 123.9749
4430.475098 100.409 123.0790
4462.580078 100.116 122.2579
4494.917969 99.816 121.5134
4527.490234 99.510 120.8483
4560.298340 99.198 120.2631
4593.344238 98.881 119.7579
4626.629395 98.557 119.3384
4660.155762 98.228 119.0163
4693.925293 97.894 118.8032
4727.939453 97.557 118.7061
4762.200195 97.220 118.7239
4796.708984 96.885 118.8480
4831.467773 96.552 119.0674
4866.478516 96.224 119.3751
4901.743164 95.899 119.7683
4937.263184 95.577 120.2428
4973.040527 95.260 120.7923
5009.077148 94.945 121.4135
5045.375000 94.633 122.1109
5081.936035 94.325 122.8946
5118.761719 94.021 123.7728
5155.854492 93.724 124.7472
5193.215820 93.436 125.8101
5230.848145 93.158 126.9498
5268.752930 92.890 128.1557
5306.932617 92.633 129.4184
5345.388672 92.385 130.7262
5384.123535 92.146 132.0685
5423.139160 91.916 133.4418
5462.437500 91.693 134.8516
5502.020508 91.478 136.3085
5541.890625 91.270 137.8209
5582.049316 91.072 139.3896
5622.499023 90.884 141.0075
5663.242188 90.707 142.6658
5704.280273 90.542 144.3553
5745.615723 90.387 146.0651
5787.250977 90.244 147.7858
5829.187988 90.110 149.5161
5871.428711 89.985 151.2621
5913.975586 89.867 153.0316
5956.830566 89.759 154.8290
5999.996094 89.660 156.6565
6043.474609 89.570 158.5151
6087.268066 89.490 160.4041
6131.378906 89.422 162.3162
6175.809570 89.365 164.2414
6220.562012 89.320 166.1735
6265.638672 89.285 168.1134
6311.041992 89.262 170.0664
6356.774414 89.249 172.0363
6402.838379 89.249 174.0252
6449.235840 89.262 176.0337
6495.969727 89.290 178.0590
6543.041992 89.335 -179.9088
6590.455566 89.398 -177.8830
6638.212891 89.479 -175.8726
6686.315918 89.577 -173.8804
6734.767578 89.694 -171.9071
6783.570312 89.831 -169.9559
6832.727051 89.988 -168.0341
6882.239746 90.167 -166.1544
6932.111328 90.369 -164.3361
6982.344238 90.594 -162.6012
7032.941406 90.842 -160.9681
7083.904785 91.113 -159.4498
7135.237793 91.406 -158.0578
7186.942871 91.724 -156.8071
7239.022461 92.065 -155.7187
7291.479492 92.432 -154.8226
7344.316406 92.822 -154.1576
7397.536133 93.234 -153.7651
7451.141602 93.662 -153.6839
7505.135742 94.101 -153.9486
7559.520996 94.545 -154.5909
7614.300293 94.985 -155.6381
7669.476562 95.413 -157.1109
7725.052734 95.817 -159.0218
7781.031738 96.184 -161.3690
7837.416504 96.499 -164.1284
7894.209473 96.750 -167.2494
7951.414062 96.925 -170.6577
8009.033203 97.015 -174.2597
8067.069824 97.016 -177.9499
8125.527344 96.927 178.3784
8184.408203 96.751 174.8256
8243.715820 96.493 171.4847
8303.453125 96.159 168.4397
8363.623047 95.761 165.7630
8424.229492 95.308 163.5136
8485.275391 94.816 161.7316
8546.763672 94.297 160.4327
8608.697266 93.767 159.6085
8671.079102 93.235 159.2348
8733.913086 92.713 159.2797
8797.202148 92.207 159.7086
8860.950195 91.725 160.4860
8925.160156 91.271 161.5717
8989.835938 90.851 162.9192
9054.980469 90.466 164.4803
9120.596680 90.117 166.2120
9186.688477 89.804 168.0818
9253.258789 89.526 170.0693
9320.311523 89.284 172.1590
9387.850586 89.077 174.3317
9455.878906 88.906 176.5637
9524.400391 88.773 178.8308
9593.417969 88.678 -178.8870
9662.935547 88.620 -176.6051
9732.957031 88.602 -174.3400
9803.486328 88.625 -172.1177
9874.526367 88.690 -169.9741
9946.081055 88.798 -167.9499
10018.154297 88.948 -166.0838
10090.750000 89.139 -164.4132
10163.872070 89.370 -162.9834
10237.523438 89.640 -161.8513
10311.708984 89.943 -161.0824
10386.431641 90.271 -160.7388
10461.696289 90.613 -160.8688
10537.505859 90.958 -161.5059
10613.865234 91.292 -162.6703
10690.777344 91.599 -164.3661
10768.247070 91.863 -166.5749
10846.278320 92.068 -169.2490
10924.875000 92.198 -172.3122
11004.041016 92.241 -175.6671
11083.781250 92.191 -179.2031
11164.098633 92.044 177.1968
11244.998047 91.797 173.6529
11326.484375 91.456 170.2831
11408.560547 91.027 167.1939
11491.231445 90.520 164.4705
11574.501953 89.950 162.1736
11658.375977 89.328 160.3424
11742.857422 88.671 158.9956
11827.951172 87.990 158.1298
11913.661133 87.300 157.7161
11999.992188 86.613 157.7052
12086.949219 85.934 158.0465
12174.536133 85.266 158.7074
12262.757812 84.607 159.6765
12351.619141 83.959 160.9519
12441.124023 83.323 162.5303
12531.277344 82.703 164.4024
12622.083984 82.104 166.5540
12713.548828 81.530 168.9649
12805.676758 80.986 171.6065
12898.471680 80.472 174.4460
12991.939453 79.989 177.4548
13086.083984 79.537 -179.3913
13180.911133 79.118 -176.1159
13276.425781 78.730 -172.7431
13372.631836 78.374 -169.2902
13469.535156 78.050 -165.7628
13567.140625 77.755 -162.1629
13665.454102 77.490 -158.4962
13764.479492 77.255 -154.7698
13864.222656 77.049 -150.9864
13964.688477 76.876 -147.1495
14065.882812 76.736 -143.2688
14167.809570 76.634 -139.3572
14270.475586 76.573 -135.4252
14373.885742 76.556 -131.4863
14478.044922 76.587 -127.5565
14582.958984 76.669 -123.6470
14688.632812 76.806 -119.7640
14795.072266 77.004 -115.9265
14902.283203 77.272 -112.1799
15010.271484 77.620 -108.5963
15119.041992 78.057 -105.2744
15228.600586 78.590 -102.3434
15338.953125 79.218 -99.9642
15450.105469 79.933 -98.3223
15562.063477 80.717 -97.6125
15674.833008 81.539 -98.0158
15788.418945 82.358 -99.6692
15902.828125 83.127 -102.6370
16018.066406 83.792 -106.8918
16134.139648 84.301 -112.3032
16251.054688 84.605 -118.6285
16368.816406 84.667 -125.5150
16487.431641 84.470 -132.5345
16606.906250 84.019 -139.2491
16727.246094 83.338 -145.2784
16848.458984 82.465 -150.3412
16970.550781 81.447 -154.2681
17093.527344 80.329 -156.9961
17217.394531 79.161 -158.5515
17342.158203 77.986 -159.0293
17467.826172 76.846 -158.5722
17594.404297 75.779 -157.3510
17721.900391 74.815 -155.5513
17850.320312 73.972 -153.3666
17979.671875 73.235 -150.9920
18109.960938 72.559 -148.6082
18241.193359 71.882 -146.3472
18373.376953 71.169 -144.2643
18506.517578 70.424 -142.3597
18640.623047 69.666 -140.6093
18775.701172 68.908 -138.9719
18911.757812 68.155 -137.3907
19048.800781 67.404 -135.8055
19186.835938 66.649 -134.1594
19325.871094 65.889 -132.4047
19465.914062 65.128 -130.5263
19606.972656 64.386 -128.5668
19749.052734 63.711 -126.6537
19892.162109 63.179 -125.0402
20036.308594 62.882 -124.0842
