* Measurement data measured by REW V5.31
* Source: EXCL: Microphone (USB Sound Device        ), MICROPHONE (Master Volume), L, volume: 0.560
* Format: 256k Log Swept Sine, 1 sweep at -5.0 dBFS with no timing reference
* Dated: May 26, 2024 12:33:44 AM
* REW Settings:
*  C-weighting compensation: Off
*  Target level: 75.0 dB
* Note: Rose Technics Star City 5 L
* Measurement: L Rose Technics Star City 5
* Smoothing: 1/12 octave
* Frequency Step: 96 ppo
* Start Frequency: 0.36621094 Hz
*
* Freq(Hz) SPL(dB) Phase(degrees)
0.366211 76.607 -167.6286
0.368865 76.610 -167.6341
0.371538 76.615 -167.6424
0.374230 76.620 -167.6525
0.376942 76.627 -167.6640
0.379673 76.633 -167.6763
0.382424 76.641 -167.6892
0.385196 76.648 -167.7024
0.387987 76.655 -167.7159
0.390798 76.663 -167.7296
0.393630 76.670 -167.7435
0.396483 76.678 -167.7575
0.399356 76.686 -167.7717
0.402250 76.693 -167.7861
0.405165 76.701 -167.8006
0.408101 76.709 -167.8152
0.411058 76.717 -167.8301
0.414037 76.725 -167.8451
0.417037 76.733 -167.8603
0.420059 76.741 -167.8757
0.423103 76.749 -167.8913
0.426169 76.757 -167.9071
0.429257 76.766 -167.9231
0.432368 76.774 -167.9393
0.435501 76.782 -167.9558
0.438656 76.791 -167.9725
0.441835 76.799 -167.9894
0.445037 76.808 -168.0066
0.448262 76.817 -168.0241
0.451510 76.825 -168.0419
0.454782 76.834 -168.0599
0.458077 76.843 -168.0782
0.461397 76.852 -168.0969
0.464740 76.861 -168.1158
0.468108 76.870 -168.1351
0.471500 76.879 -168.1548
0.474917 76.888 -168.1747
0.478358 76.897 -168.1951
0.481825 76.907 -168.2158
0.485316 76.916 -168.2370
0.488833 76.925 -168.2585
0.492375 76.935 -168.2805
0.495943 76.944 -168.3029
0.499537 76.954 -168.3257
0.503157 76.964 -168.3491
0.506803 76.973 -168.3729
0.510475 76.983 -168.3972
0.514175 76.993 -168.4220
0.517900 77.003 -168.4474
0.521653 77.013 -168.4733
0.525434 77.023 -168.4998
0.529241 77.034 -168.5269
0.533076 77.044 -168.5547
0.536939 77.054 -168.5830
0.540830 77.065 -168.6120
0.544749 77.075 -168.6417
0.548696 77.086 -168.6721
0.552673 77.096 -168.7033
0.556677 77.107 -168.7352
0.560711 77.118 -168.7678
0.564774 77.129 -168.8013
0.568867 77.140 -168.8356
0.572989 77.151 -168.8708
0.577141 77.162 -168.9069
0.581324 77.173 -168.9439
0.585536 77.184 -168.9819
0.589779 77.196 -169.0208
0.594053 77.207 -169.0608
0.598358 77.219 -169.1019
0.602694 77.230 -169.1440
0.607061 77.242 -169.1873
0.611460 77.254 -169.2317
0.615891 77.266 -169.2774
0.620354 77.278 -169.3243
0.624849 77.290 -169.3726
0.629377 77.302 -169.4222
0.633938 77.314 -169.4732
0.638532 77.326 -169.5256
0.643159 77.339 -169.5795
0.647819 77.351 -169.6350
0.652514 77.364 -169.6921
0.657242 77.377 -169.7509
0.662005 77.389 -169.8114
0.666802 77.402 -169.8737
0.671634 77.415 -169.9379
0.676501 77.428 -170.0040
0.681403 77.441 -170.0722
0.686341 77.455 -170.1424
0.691314 77.468 -170.2148
0.696324 77.481 -170.2894
0.701370 77.494 -170.3664
0.706452 77.507 -170.4459
0.711571 77.520 -170.5280
0.716728 77.532 -170.6128
0.721921 77.543 -170.7006
0.727153 77.553 -170.7916
0.732422 77.560 -170.8860
0.737729 77.566 -170.9843
0.743075 77.569 -171.0866
0.748460 77.571 -171.1932
0.753883 77.571 -171.3043
0.759346 77.571 -171.4199
0.764849 77.570 -171.5401
0.770391 77.570 -171.6650
0.775974 77.568 -171.7945
0.781597 77.567 -171.9286
0.787261 77.566 -172.0672
0.792966 77.564 -172.2105
0.798712 77.562 -172.3582
0.804500 77.560 -172.5105
0.810329 77.557 -172.6671
0.816201 77.554 -172.8282
0.822116 77.551 -172.9936
0.828073 77.547 -173.1634
0.834074 77.543 -173.3374
0.840118 77.539 -173.5155
0.846206 77.534 -173.6978
0.852338 77.528 -173.8842
0.858514 77.522 -174.0746
0.864735 77.515 -174.2690
0.871001 77.507 -174.4672
0.877313 77.498 -174.6693
0.883670 77.489 -174.8750
0.890074 77.479 -175.0844
0.896524 77.467 -175.2974
0.903020 77.455 -175.5139
0.909564 77.442 -175.7338
0.916155 77.427 -175.9570
0.922794 77.411 -176.1834
0.929481 77.394 -176.4130
0.936216 77.376 -176.6456
0.943000 77.356 -176.8811
0.949834 77.335 -177.1195
0.956717 77.312 -177.3605
0.963649 77.287 -177.6042
0.970632 77.261 -177.8504
0.977666 77.232 -178.0990
0.984750 77.202 -178.3498
0.991886 77.170 -178.6028
0.999074 77.135 -178.8578
1.006314 77.098 -179.1147
1.013606 77.059 -179.3734
1.020951 77.018 -179.6337
1.028349 76.974 -179.8955
1.035801 76.927 179.8412
1.043307 76.877 179.5767
1.050867 76.825 179.3109
1.058482 76.769 179.0439
1.066152 76.710 178.7755
1.073878 76.648 178.5054
1.081660 76.582 178.2328
1.089498 76.512 177.9567
1.097393 76.437 177.6754
1.105345 76.358 177.3870
1.113355 76.274 177.0892
1.121423 76.184 176.7801
1.129549 76.089 176.4582
1.137734 75.988 176.1223
1.145979 75.881 175.7717
1.154283 75.769 175.4058
1.162647 75.651 175.0241
1.171072 75.528 174.6263
1.179558 75.400 174.2122
1.188106 75.267 173.7814
1.196715 75.129 173.3337
1.205387 74.987 172.8687
1.214122 74.840 172.3864
1.222920 74.690 171.8863
1.231782 74.536 171.3683
1.240708 74.378 170.8320
1.249699 74.217 170.2772
1.258754 74.053 169.7036
1.267876 73.887 169.1109
1.277063 73.718 168.4990
1.286318 73.548 167.8674
1.295639 73.376 167.2161
1.305027 73.203 166.5446
1.314484 73.030 165.8529
1.324009 72.856 165.1406
1.333604 72.682 164.4075
1.343268 72.509 163.6534
1.353002 72.337 162.8781
1.362806 72.167 162.0814
1.372681 71.999 161.2630
1.382628 71.834 160.4228
1.392647 71.671 159.5602
1.402739 71.513 158.6749
1.412904 71.359 157.7659
1.423142 71.209 156.8316
1.433455 71.065 155.8695
1.443843 70.925 154.8751
1.454305 70.789 153.8414
1.464844 70.656 152.7579
1.475459 70.525 151.6107
1.486150 70.395 150.3827
1.496920 70.263 149.0546
1.507767 70.130 147.6055
1.518693 69.995 146.0118
1.529698 69.858 144.2468
1.540783 69.720 142.2783
1.551948 69.581 140.0681
1.563194 69.442 137.5688
1.574521 69.303 134.7223
1.585931 69.166 131.4569
1.597423 69.030 127.6847
1.608999 68.899 123.3006
1.620658 68.771 118.1841
1.632402 68.649 112.2087
1.644232 68.533 105.2650
1.656146 68.425 97.3037
1.668147 68.326 88.3968
1.680235 68.236 78.7907
1.692411 68.158 68.9028
1.704675 68.093 59.2272
1.717028 68.043 50.1911
1.729470 68.008 42.0553
1.742003 67.991 34.9030
1.754626 67.993 28.6915
1.767341 68.016 23.3138
1.780147 68.063 18.6431
1.793047 68.135 14.5577
1.806040 68.235 10.9517
1.819128 68.365 7.7366
1.832310 68.528 4.8423
1.845587 68.725 2.2141
1.858961 68.959 -0.1900
1.872432 69.229 -2.4018
1.886001 69.533 -4.4463
1.899667 69.871 -6.3438
1.913433 70.241 -8.1111
1.927299 70.639 -9.7628
1.941265 71.062 -11.3118
1.955332 71.508 -12.7689
1.969501 71.974 -14.1443
1.983773 72.455 -15.4465
1.998148 72.949 -16.6837
2.012627 73.451 -17.8625
2.027212 73.959 -18.9896
2.041902 74.469 -20.0704
2.056698 74.977 -21.1103
2.071602 75.479 -22.1139
2.086614 75.972 -23.0854
2.101734 76.452 -24.0292
2.116964 76.916 -24.9489
2.132304 77.360 -25.8484
2.147756 77.783 -26.7312
2.163320 78.182 -27.6012
2.178996 78.557 -28.4621
2.194786 78.908 -29.3175
2.210690 79.238 -30.1706
2.226710 79.548 -31.0237
2.242845 79.840 -31.8779
2.259098 80.118 -32.7332
2.275468 80.381 -33.5886
2.291957 80.632 -34.4429
2.308566 80.871 -35.2944
2.325295 81.099 -36.1415
2.342145 81.317 -36.9830
2.359117 81.526 -37.8174
2.376212 81.727 -38.6435
2.393431 81.921 -39.4604
2.410775 82.109 -40.2673
2.428244 82.292 -41.0636
2.445840 82.470 -41.8489
2.463564 82.646 -42.6230
2.481416 82.819 -43.3864
2.499397 82.991 -44.1393
2.517509 83.162 -44.8834
2.535752 83.332 -45.6205
2.554127 83.501 -46.3535
2.572635 83.669 -47.0858
2.591277 83.833 -47.8206
2.610055 83.994 -48.5601
2.628968 84.151 -49.3057
2.648019 84.303 -50.0569
2.667208 84.449 -50.8129
2.686535 84.591 -51.5718
2.706003 84.729 -52.3318
2.725612 84.862 -53.0905
2.745363 84.990 -53.8458
2.765257 85.115 -54.5955
2.785295 85.237 -55.3375
2.805478 85.355 -56.0699
2.825808 85.470 -56.7910
2.846285 85.583 -57.4994
2.866910 85.694 -58.1946
2.887685 85.802 -58.8766
2.908611 85.908 -59.5468
2.929688 86.011 -60.2073
2.950917 86.112 -60.8613
2.972301 86.209 -61.5117
2.993839 86.303 -62.1608
3.015534 86.393 -62.8093
3.037386 86.480 -63.4574
3.059396 86.563 -64.1039
3.081565 86.642 -64.7474
3.103896 86.719 -65.3861
3.126388 86.792 -66.0177
3.149043 86.863 -66.6400
3.171862 86.931 -67.2507
3.194847 86.998 -67.8478
3.217998 87.062 -68.4293
3.241317 87.125 -68.9939
3.264805 87.185 -69.5410
3.288463 87.244 -70.0710
3.312293 87.301 -70.5853
3.336295 87.355 -71.0856
3.360471 87.407 -71.5738
3.384822 87.456 -72.0509
3.409350 87.502 -72.5176
3.434056 87.546 -72.9738
3.458940 87.588 -73.4189
3.484005 87.629 -73.8522
3.509252 87.667 -74.2725
3.534681 87.705 -74.6786
3.560295 87.742 -75.0690
3.586094 87.779 -75.4423
3.612081 87.816 -75.7972
3.638255 87.852 -76.1328
3.664620 87.889 -76.4480
3.691175 87.925 -76.7429
3.717923 87.961 -77.0177
3.744864 87.996 -77.2731
3.772001 88.031 -77.5105
3.799335 88.065 -77.7310
3.826866 88.099 -77.9362
3.854597 88.134 -78.1274
3.882529 88.169 -78.3063
3.910664 88.206 -78.4739
3.939002 88.244 -78.6311
3.967546 88.283 -78.7787
3.996296 88.325 -78.9165
4.025255 88.369 -79.0439
4.054423 88.415 -79.1602
4.083804 88.463 -79.2646
4.113396 88.513 -79.3575
4.143204 88.566 -79.4401
4.173227 88.620 -79.5143
4.203468 88.676 -79.5832
4.233928 88.733 -79.6497
4.264609 88.793 -79.7170
4.295512 88.855 -79.7881
4.326639 88.918 -79.8652
4.357992 88.984 -79.9501
4.389572 89.052 -80.0432
4.421380 89.122 -80.1443
4.453419 89.195 -80.2527
4.485691 89.270 -80.3682
4.518196 89.346 -80.4908
4.550936 89.425 -80.6219
4.583914 89.505 -80.7629
4.617131 89.586 -80.9158
4.650589 89.668 -81.0823
4.684289 89.750 -81.2643
4.718233 89.832 -81.4633
4.752424 89.914 -81.6801
4.786862 89.996 -81.9150
4.821549 90.078 -82.1675
4.856488 90.160 -82.4369
4.891680 90.243 -82.7220
4.927127 90.324 -83.0219
4.962831 90.405 -83.3354
4.998794 90.485 -83.6620
5.035017 90.564 -84.0010
5.071503 90.641 -84.3523
5.108253 90.716 -84.7160
5.145270 90.789 -85.0925
5.182555 90.860 -85.4819
5.220110 90.929 -85.8838
5.257937 90.995 -86.2969
5.296038 91.060 -86.7191
5.334415 91.123 -87.1481
5.373071 91.184 -87.5817
5.412006 91.242 -88.0178
5.451224 91.298 -88.4549
5.490725 91.352 -88.8925
5.530514 91.403 -89.3304
5.570590 91.452 -89.7690
5.610957 91.499 -90.2077
5.651616 91.543 -90.6455
5.692570 91.585 -91.0806
5.733821 91.625 -91.5110
5.775370 91.664 -91.9347
5.817221 91.701 -92.3500
5.859375 91.737 -92.7557
5.901834 91.772 -93.1517
5.944602 91.805 -93.5380
5.987679 91.837 -93.9149
6.031068 91.869 -94.2823
6.074771 91.899 -94.6405
6.118792 91.930 -94.9890
6.163131 91.961 -95.3273
6.207792 91.992 -95.6552
6.252776 92.024 -95.9723
6.298086 92.056 -96.2789
6.343725 92.090 -96.5757
6.389694 92.124 -96.8641
6.435996 92.159 -97.1459
6.482634 92.195 -97.4226
6.529610 92.233 -97.6958
6.576926 92.273 -97.9667
6.624585 92.314 -98.2357
6.672590 92.357 -98.5038
6.720942 92.402 -98.7717
6.769645 92.449 -99.0410
6.818700 92.497 -99.3135
6.868111 92.546 -99.5914
6.917881 92.597 -99.8762
6.968010 92.649 -100.1691
7.018504 92.702 -100.4708
7.069362 92.756 -100.7815
7.120590 92.810 -101.1014
7.172189 92.866 -101.4307
7.224161 92.921 -101.7699
7.276511 92.977 -102.1194
7.329239 93.032 -102.4796
7.382350 93.087 -102.8502
7.435845 93.141 -103.2308
7.489729 93.194 -103.6205
7.544002 93.247 -104.0180
7.598669 93.299 -104.4219
7.653732 93.349 -104.8311
7.709194 93.399 -105.2448
7.765058 93.446 -105.6621
7.821327 93.493 -106.0822
7.878004 93.538 -106.5035
7.935091 93.581 -106.9246
7.992592 93.624 -107.3434
8.050510 93.665 -107.7588
8.108847 93.705 -108.1698
8.167607 93.744 -108.5758
8.226793 93.782 -108.9761
8.286408 93.819 -109.3701
8.346454 93.856 -109.7570
8.406936 93.893 -110.1362
8.467856 93.930 -110.5074
8.529218 93.966 -110.8706
8.591024 94.003 -111.2262
8.653278 94.040 -111.5749
8.715983 94.078 -111.9173
8.779143 94.116 -112.2540
8.842760 94.155 -112.5857
8.906839 94.195 -112.9131
8.971381 94.236 -113.2372
9.036392 94.278 -113.5591
9.101873 94.320 -113.8801
9.167829 94.363 -114.2011
9.234263 94.407 -114.5229
9.301178 94.452 -114.8461
9.368578 94.496 -115.1711
9.436467 94.542 -115.4987
9.504847 94.587 -115.8290
9.573723 94.631 -116.1624
9.643099 94.675 -116.4988
9.712976 94.718 -116.8377
9.783361 94.759 -117.1788
9.854255 94.797 -117.5215
9.925663 94.833 -117.8651
9.997588 94.865 -118.2092
10.070035 94.895 -118.5529
10.143007 94.921 -118.8954
10.216507 94.945 -119.2357
10.290540 94.967 -119.5732
10.365109 94.987 -119.9074
10.440219 95.006 -120.2377
10.515873 95.023 -120.5637
10.592076 95.040 -120.8852
10.668830 95.056 -121.2019
10.746141 95.071 -121.5140
10.824012 95.086 -121.8218
10.902447 95.101 -122.1255
10.981451 95.116 -122.4257
11.061027 95.131 -122.7228
11.141180 95.146 -123.0173
11.221913 95.160 -123.3100
11.303232 95.175 -123.6014
11.385140 95.190 -123.8920
11.467641 95.204 -124.1824
11.550741 95.219 -124.4727
11.634442 95.233 -124.7632
11.718750 95.247 -125.0542
11.803669 95.261 -125.3456
11.889203 95.275 -125.6371
11.975357 95.289 -125.9288
12.062136 95.302 -126.2201
12.149543 95.316 -126.5109
12.237583 95.328 -126.8007
12.326262 95.341 -127.0892
12.415583 95.353 -127.3763
12.505552 95.364 -127.6617
12.596172 95.375 -127.9453
12.687449 95.386 -128.2272
12.779387 95.396 -128.5077
12.871992 95.406 -128.7869
12.965268 95.415 -129.0652
13.059220 95.425 -129.3431
13.153852 95.435 -129.6211
13.249170 95.445 -129.8997
13.345179 95.455 -130.1791
13.441884 95.465 -130.4600
13.539289 95.475 -130.7425
13.637401 95.485 -131.0268
13.736223 95.495 -131.3129
13.835761 95.505 -131.6007
13.936021 95.514 -131.8899
14.037007 95.523 -132.1802
14.138725 95.531 -132.4713
14.241180 95.539 -132.7626
14.344377 95.546 -133.0538
14.448323 95.552 -133.3445
14.553021 95.559 -133.6346
14.658478 95.565 -133.9238
14.764700 95.571 -134.2122
14.871691 95.577 -134.5000
14.979457 95.584 -134.7874
15.088005 95.591 -135.0747
15.197339 95.598 -135.3624
15.307465 95.605 -135.6510
15.418389 95.613 -135.9409
15.530117 95.621 -136.2323
15.642655 95.629 -136.5254
15.756008 95.636 -136.8203
15.870182 95.644 -137.1167
15.985184 95.652 -137.4145
16.101019 95.659 -137.7131
16.217694 95.666 -138.0120
16.335214 95.673 -138.3107
16.453586 95.680 -138.6085
16.572815 95.687 -138.9048
16.692909 95.694 -139.1994
16.813872 95.702 -139.4919
16.935713 95.710 -139.7822
17.058436 95.718 -140.0703
17.182048 95.727 -140.3562
17.306556 95.736 -140.6404
17.431967 95.746 -140.9231
17.558286 95.756 -141.2045
17.685521 95.766 -141.4849
17.813677 95.776 -141.7644
17.942762 95.786 -142.0430
18.072783 95.796 -142.3206
18.203746 95.806 -142.5969
18.335658 95.816 -142.8718
18.468526 95.826 -143.1446
18.602356 95.835 -143.4152
18.737156 95.845 -143.6831
18.872934 95.855 -143.9482
19.009695 95.864 -144.2103
19.147447 95.874 -144.4695
19.286197 95.884 -144.7258
19.425953 95.894 -144.9795
19.566721 95.904 -145.2308
19.708510 95.914 -145.4799
19.851326 95.923 -145.7271
19.995177 95.932 -145.9726
20.140070 95.941 -146.2165
20.286013 95.950 -146.4589
20.433014 95.958 -146.6997
20.581080 95.966 -146.9392
20.730219 95.974 -147.1773
20.880439 95.981 -147.4141
21.031747 95.988 -147.6498
21.184152 95.995 -147.8844
21.337661 96.002 -148.1182
21.492282 96.009 -148.3513
21.648024 96.015 -148.5839
21.804895 96.021 -148.8159
21.962902 96.028 -149.0476
22.122054 96.033 -149.2789
22.282360 96.039 -149.5098
22.443827 96.044 -149.7404
22.606464 96.049 -149.9708
22.770280 96.053 -150.2009
22.935283 96.058 -150.4313
23.101481 96.062 -150.6620
23.268884 96.066 -150.8934
23.437500 96.070 -151.1257
23.607338 96.074 -151.3592
23.778406 96.077 -151.5938
23.950714 96.080 -151.8293
24.124271 96.083 -152.0658
24.299086 96.086 -152.3026
24.475167 96.088 -152.5396
24.652524 96.090 -152.7762
24.831166 96.092 -153.0123
25.011103 96.095 -153.2477
25.192344 96.097 -153.4822
25.374898 96.099 -153.7159
25.558775 96.102 -153.9489
25.743984 96.104 -154.1812
25.930536 96.107 -154.4128
26.118439 96.110 -154.6437
26.307704 96.113 -154.8736
26.498341 96.115 -155.1024
26.690359 96.118 -155.3297
26.883768 96.121 -155.5554
27.078579 96.124 -155.7794
27.274801 96.127 -156.0013
27.472446 96.129 -156.2214
27.671522 96.132 -156.4396
27.872042 96.134 -156.6556
28.074014 96.136 -156.8694
28.277450 96.138 -157.0811
28.482360 96.140 -157.2904
28.688755 96.142 -157.4974
28.896645 96.143 -157.7021
29.106042 96.145 -157.9048
29.316957 96.146 -158.1057
29.529400 96.147 -158.3053
29.743382 96.148 -158.5039
29.958915 96.149 -158.7018
30.176009 96.150 -158.8995
30.394677 96.151 -159.0969
30.614929 96.152 -159.2943
30.836778 96.153 -159.4918
31.060234 96.153 -159.6895
31.285309 96.154 -159.8876
31.512015 96.154 -160.0861
31.740364 96.154 -160.2853
31.970368 96.154 -160.4855
32.202039 96.154 -160.6864
32.435388 96.154 -160.8882
32.670428 96.154 -161.0907
32.907171 96.153 -161.2938
33.145630 96.153 -161.4974
33.385817 96.152 -161.7014
33.627745 96.151 -161.9055
33.871425 96.151 -162.1099
34.116871 96.150 -162.3141
34.364096 96.150 -162.5182
34.613113 96.149 -162.7217
34.863934 96.148 -162.9246
35.116572 96.147 -163.1265
35.371041 96.146 -163.3272
35.627354 96.145 -163.5266
35.885525 96.143 -163.7244
36.145566 96.142 -163.9202
36.407492 96.140 -164.1140
36.671316 96.138 -164.3053
36.937051 96.136 -164.4941
37.204712 96.134 -164.6806
37.474313 96.132 -164.8649
37.745867 96.129 -165.0475
38.019389 96.127 -165.2288
38.294893 96.125 -165.4091
38.572394 96.122 -165.5887
38.851905 96.120 -165.7678
39.133442 96.117 -165.9464
39.417019 96.114 -166.1246
39.702651 96.111 -166.3024
39.990353 96.108 -166.4799
40.280140 96.105 -166.6570
40.572026 96.101 -166.8336
40.866028 96.097 -167.0096
41.162160 96.093 -167.1849
41.460438 96.090 -167.3595
41.760877 96.086 -167.5335
42.063494 96.082 -167.7072
42.368303 96.078 -167.8806
42.675322 96.074 -168.0540
42.984565 96.070 -168.2272
43.296048 96.065 -168.4003
43.609789 96.061 -168.5729
43.925804 96.056 -168.7447
44.244108 96.051 -168.9155
44.564719 96.046 -169.0853
44.887654 96.041 -169.2542
45.212928 96.036 -169.4221
45.540560 96.031 -169.5891
45.870565 96.026 -169.7552
46.202962 96.020 -169.9203
46.537768 96.015 -170.0845
46.875000 96.009 -170.2477
47.214676 96.004 -170.4100
47.556813 95.998 -170.5717
47.901429 95.993 -170.7327
48.248542 95.988 -170.8931
48.598171 95.982 -171.0526
48.950334 95.977 -171.2114
49.305048 95.972 -171.3696
49.662333 95.966 -171.5269
50.022206 95.961 -171.6835
50.384688 95.955 -171.8391
50.749796 95.950 -171.9932
51.117550 95.944 -172.1457
51.487969 95.938 -172.2964
51.861072 95.932 -172.4454
52.236879 95.927 -172.5929
52.615409 95.921 -172.7390
52.996681 95.916 -172.8837
53.380717 95.910 -173.0270
53.767536 95.905 -173.1689
54.157158 95.900 -173.3096
54.549603 95.896 -173.4497
54.944892 95.891 -173.5900
55.343045 95.888 -173.7311
55.744084 95.884 -173.8740
56.148028 95.881 -174.0193
56.554900 95.878 -174.1677
56.964720 95.874 -174.3196
57.377510 95.871 -174.4747
57.793291 95.867 -174.6326
58.212085 95.863 -174.7922
58.633914 95.858 -174.9525
59.058799 95.852 -175.1121
59.486764 95.846 -175.2708
59.917829 95.840 -175.4283
60.352019 95.833 -175.5851
60.789354 95.825 -175.7417
61.229859 95.818 -175.8978
61.673556 95.810 -176.0531
62.120468 95.801 -176.2070
62.570618 95.792 -176.3593
63.024031 95.783 -176.5100
63.480729 95.774 -176.6594
63.940736 95.764 -176.8074
64.404077 95.755 -176.9541
64.870776 95.746 -177.0994
65.340856 95.736 -177.2432
65.814343 95.727 -177.3858
66.291261 95.717 -177.5272
66.771635 95.708 -177.6672
67.255489 95.698 -177.8057
67.742850 95.688 -177.9426
68.233743 95.679 -178.0784
68.728193 95.669 -178.2133
69.226226 95.659 -178.3475
69.727867 95.650 -178.4810
70.233144 95.640 -178.6136
70.742083 95.629 -178.7454
71.254709 95.619 -178.8762
71.771050 95.609 -179.0061
72.291132 95.599 -179.1353
72.814984 95.589 -179.2640
73.342631 95.579 -179.3927
73.874102 95.569 -179.5215
74.409424 95.560 -179.6508
74.948626 95.550 -179.7804
75.491734 95.541 -179.9104
76.038779 95.532 179.9594
76.589787 95.523 179.8287
77.144788 95.515 179.6972
77.703811 95.506 179.5646
78.266885 95.498 179.4299
78.834039 95.490 179.2924
79.405303 95.482 179.1503
79.980706 95.473 179.0027
80.560280 95.465 178.8488
81.144053 95.456 178.6881
81.732056 95.445 178.5214
82.324320 95.434 178.3497
82.920876 95.422 178.1752
83.521755 95.407 178.0003
84.126988 95.392 177.8280
84.736607 95.375 177.6612
85.350643 95.357 177.5022
85.969129 95.338 177.3524
86.592097 95.320 177.2120
87.219579 95.301 177.0803
87.851608 95.282 176.9564
88.488217 95.264 176.8392
89.129439 95.245 176.7275
89.775308 95.228 176.6204
90.425856 95.211 176.5165
91.081119 95.194 176.4146
91.741131 95.178 176.3135
92.405925 95.162 176.2127
93.075536 95.146 176.1116
93.750000 95.131 176.0101
94.429351 95.115 175.9081
95.113625 95.100 175.8058
95.802858 95.084 175.7034
96.497085 95.068 175.6012
97.196342 95.052 175.5000
97.900667 95.036 175.4003
98.610096 95.019 175.3029
99.324665 95.002 175.2082
100.044413 94.984 175.1171
100.769376 94.966 175.0303
101.499592 94.949 174.9479
102.235100 94.932 174.8696
102.975938 94.915 174.7943
103.722144 94.899 174.7200
104.473757 94.884 174.6447
105.230817 94.869 174.5670
105.993363 94.854 174.4858
106.761435 94.840 174.4009
107.535072 94.825 174.3121
108.314315 94.810 174.2195
109.099206 94.795 174.1229
109.889783 94.779 174.0225
110.686090 94.763 173.9176
111.488167 94.745 173.8085
112.296056 94.727 173.6953
113.109800 94.706 173.5797
113.929440 94.685 173.4647
114.755020 94.661 173.3553
115.586582 94.636 173.2566
116.424170 94.611 173.1726
117.267827 94.585 173.1052
118.117598 94.560 173.0535
118.973527 94.536 173.0150
119.835658 94.513 172.9872
120.704037 94.491 172.9681
121.578708 94.470 172.9542
122.459718 94.450 172.9410
123.347111 94.431 172.9238
124.240935 94.413 172.8998
125.141236 94.396 172.8683
126.048061 94.378 172.8300
126.961458 94.360 172.7867
127.881473 94.342 172.7405
128.808154 94.324 172.6922
129.741551 94.306 172.6426
130.681712 94.287 172.5922
131.628686 94.268 172.5413
132.582521 94.249 172.4900
133.543269 94.230 172.4387
134.510979 94.209 172.3877
135.485701 94.189 172.3378
136.467486 94.167 172.2901
137.456386 94.146 172.2454
138.452451 94.124 172.2041
139.455735 94.102 172.1662
140.466288 94.080 172.1314
141.484165 94.057 172.0993
142.509418 94.035 172.0694
143.542100 94.012 172.0414
144.582265 93.990 172.0150
145.629968 93.967 171.9900
146.685262 93.943 171.9662
147.748204 93.919 171.9440
148.818849 93.895 171.9243
149.897251 93.869 171.9092
150.983469 93.842 171.9013
152.077557 93.815 171.9036
153.179574 93.787 171.9180
154.289576 93.759 171.9449
155.407622 93.733 171.9816
156.533770 93.708 172.0230
157.668078 93.684 172.0633
158.810606 93.662 172.0975
159.961413 93.640 172.1230
161.120559 93.619 172.1397
162.288105 93.597 172.1494
163.464112 93.574 172.1547
164.648640 93.550 172.1589
165.841752 93.524 172.1652
167.043510 93.498 172.1766
168.253976 93.471 172.1963
169.473213 93.443 172.2267
170.701286 93.415 172.2682
171.938258 93.388 172.3198
173.184194 93.362 172.3785
174.439158 93.337 172.4409
175.703216 93.313 172.5040
176.976434 93.290 172.5660
178.258878 93.267 172.6262
179.550615 93.245 172.6847
180.851713 93.223 172.7422
182.162239 93.201 172.7996
183.482262 93.180 172.8569
184.811850 93.160 172.9136
186.151073 93.139 172.9686
187.500000 93.118 173.0223
188.858702 93.097 173.0759
190.227250 93.076 173.1309
191.605715 93.054 173.1887
192.994169 93.032 173.2505
194.392685 93.011 173.3173
195.801334 92.989 173.3899
197.220191 92.968 173.4694
198.649330 92.948 173.5560
200.088825 92.928 173.6500
201.538751 92.909 173.7509
202.999184 92.890 173.8562
204.470200 92.873 173.9617
205.951875 92.857 174.0629
207.444287 92.841 174.1573
208.947514 92.826 174.2447
210.461634 92.809 174.3277
211.986726 92.791 174.4105
213.522869 92.771 174.4979
215.070144 92.749 174.5951
216.628631 92.727 174.7061
218.198411 92.705 174.8321
219.779567 92.683 174.9705
221.372180 92.663 175.1158
222.976334 92.645 175.2618
224.592112 92.629 175.4043
226.219600 92.613 175.5417
227.858880 92.597 175.6743
229.510039 92.582 175.8035
231.173164 92.567 175.9308
232.848340 92.552 176.0571
234.535655 92.538 176.1826
236.235197 92.523 176.3065
237.947054 92.509 176.4280
239.671317 92.494 176.5468
241.408074 92.479 176.6642
243.157416 92.463 176.7830
244.919435 92.446 176.9065
246.694223 92.429 177.0383
248.481871 92.412 177.1816
250.282473 92.394 177.3391
252.096123 92.378 177.5117
253.922915 92.364 177.6976
255.762945 92.352 177.8904
257.616309 92.343 178.0798
259.483103 92.337 178.2557
261.363424 92.333 178.4130
263.257372 92.328 178.5539
265.165043 92.322 178.6856
267.086538 92.315 178.8167
269.021957 92.306 178.9542
270.971401 92.298 179.1021
272.934972 92.290 179.2604
274.912771 92.283 179.4269
276.904902 92.278 179.5986
278.911469 92.274 179.7731
280.932577 92.272 179.9481
282.968330 92.272 -179.8797
285.018835 92.275 -179.7159
287.084199 92.279 -179.5677
289.164530 92.284 -179.4415
291.259935 92.289 -179.3390
293.370525 92.291 -179.2551
295.496408 92.290 -179.1797
297.637697 92.287 -179.1030
299.794503 92.282 -179.0182
301.966937 92.276 -178.9227
304.155114 92.269 -178.8176
306.359147 92.263 -178.7064
308.579152 92.257 -178.5928
310.815244 92.251 -178.4800
313.067539 92.245 -178.3698
315.336156 92.239 -178.2607
317.621211 92.231 -178.1493
319.922826 92.223 -178.0310
322.241118 92.216 -177.9036
324.576210 92.208 -177.7677
326.928223 92.202 -177.6265
329.297280 92.197 -177.4836
331.683504 92.193 -177.3425
334.087019 92.190 -177.2060
336.507952 92.188 -177.0760
338.946427 92.185 -176.9533
341.402572 92.182 -176.8364
343.876516 92.177 -176.7223
346.368387 92.172 -176.6080
348.878315 92.167 -176.4918
351.406431 92.161 -176.3737
353.952867 92.155 -176.2542
356.517756 92.149 -176.1340
359.101230 92.144 -176.0140
361.703426 92.138 -175.8947
364.324478 92.132 -175.7762
366.964523 92.126 -175.6583
369.623699 92.120 -175.5400
372.302145 92.114 -175.4203
375.000000 92.108 -175.2983
377.717405 92.101 -175.1738
380.454501 92.095 -175.0474
383.211431 92.089 -174.9194
385.988339 92.082 -174.7897
388.785369 92.075 -174.6577
391.602668 92.069 -174.5225
394.440383 92.062 -174.3839
397.298660 92.057 -174.2425
400.177650 92.051 -174.0994
403.077502 92.047 -173.9563
405.998368 92.042 -173.8149
408.940400 92.038 -173.6760
411.903750 92.034 -173.5383
414.888575 92.030 -173.3994
417.895028 92.026 -173.2563
420.923268 92.022 -173.1076
423.973452 92.019 -172.9536
427.045738 92.017 -172.7967
430.140287 92.017 -172.6415
433.257261 92.018 -172.4930
436.396822 92.021 -172.3545
439.559133 92.024 -172.2263
442.744360 92.027 -172.1078
445.952668 92.031 -171.9993
449.184225 92.035 -171.9045
452.439199 92.039 -171.8281
455.717760 92.041 -171.7724
459.020079 92.040 -171.7333
462.346327 92.035 -171.6998
465.696680 92.027 -171.6601
469.071310 92.016 -171.6066
472.470394 92.004 -171.5377
475.894109 91.991 -171.4559
479.342634 91.979 -171.3665
482.816148 91.966 -171.2751
486.314833 91.952 -171.1837
489.838871 91.937 -171.0876
493.388445 91.921 -170.9791
496.963741 91.905 -170.8540
500.564945 91.889 -170.7156
504.192245 91.874 -170.5718
507.845830 91.861 -170.4298
511.525890 91.848 -170.2930
515.232618 91.834 -170.1603
518.966206 91.820 -170.0283
522.726849 91.804 -169.8921
526.514743 91.787 -169.7466
530.330086 91.771 -169.5892
534.173076 91.754 -169.4216
538.043915 91.739 -169.2482
541.942803 91.724 -169.0718
545.869944 91.709 -168.8922
549.825542 91.695 -168.7085
553.809805 91.681 -168.5224
557.822939 91.668 -168.3367
561.865154 91.655 -168.1537
565.936660 91.642 -167.9730
570.037671 91.627 -167.7916
574.168399 91.613 -167.6060
578.329060 91.597 -167.4141
582.519870 91.582 -167.2159
586.741049 91.566 -167.0117
590.992817 91.550 -166.7991
595.275394 91.534 -166.5754
599.589005 91.518 -166.3419
603.933874 91.504 -166.1033
608.310228 91.490 -165.8641
612.718295 91.477 -165.6259
617.158304 91.463 -165.3864
621.630488 91.448 -165.1398
626.135079 91.433 -164.8796
630.672311 91.419 -164.6036
635.242423 91.407 -164.3157
639.845651 91.396 -164.0221
644.482237 91.387 -163.7250
649.152421 91.380 -163.4240
653.856447 91.375 -163.1207
658.594560 91.373 -162.8220
663.367008 91.373 -162.5381
668.174039 91.374 -162.2767
673.015903 91.374 -162.0373
677.892854 91.371 -161.8120
682.805145 91.366 -161.5917
687.753032 91.359 -161.3696
692.736774 91.349 -161.1399
697.756631 91.337 -160.8982
702.812863 91.325 -160.6428
707.905735 91.313 -160.3758
713.035511 91.300 -160.1008
718.202461 91.287 -159.8204
723.406852 91.274 -159.5341
728.648956 91.261 -159.2396
733.929047 91.246 -158.9343
739.247399 91.232 -158.6158
744.604290 91.217 -158.2822
750.000000 91.203 -157.9329
755.434809 91.190 -157.5677
760.909001 91.178 -157.1875
766.422861 91.167 -156.7936
771.976677 91.158 -156.3883
777.570739 91.150 -155.9741
783.205337 91.145 -155.5532
788.880766 91.141 -155.1257
794.597321 91.139 -154.6900
800.355301 91.139 -154.2443
806.155005 91.142 -153.7900
811.996736 91.148 -153.3334
817.880799 91.158 -152.8834
823.807501 91.172 -152.4494
829.777150 91.187 -152.0396
835.790057 91.203 -151.6555
841.846536 91.217 -151.2899
847.946903 91.229 -150.9316
854.091476 91.238 -150.5718
860.280575 91.247 -150.2062
866.514523 91.254 -149.8315
872.793644 91.262 -149.4442
879.118267 91.269 -149.0440
885.488720 91.278 -148.6347
891.905336 91.288 -148.2202
898.368450 91.299 -147.8009
904.878398 91.310 -147.3751
911.435520 91.324 -146.9420
918.040157 91.339 -146.5035
924.692655 91.356 -146.0625
931.393359 91.376 -145.6227
938.142619 91.397 -145.1880
944.940787 91.420 -144.7601
951.788218 91.444 -144.3380
958.685268 91.469 -143.9191
965.632296 91.494 -143.5011
972.629666 91.519 -143.0820
979.677741 91.546 -142.6609
986.776890 91.573 -142.2384
993.927482 91.602 -141.8127
1001.129891 91.631 -141.3796
1008.384491 91.662 -140.9354
1015.691660 91.697 -140.4812
1023.051781 91.735 -140.0225
1030.465236 91.777 -139.5671
1037.932411 91.824 -139.1266
1045.453698 91.873 -138.7133
1053.029486 91.925 -138.3328
1060.660172 91.976 -137.9820
1068.346153 92.025 -137.6524
1076.087829 92.072 -137.3346
1083.885605 92.119 -137.0219
1091.739887 92.165 -136.7121
1099.651084 92.210 -136.4052
1107.619609 92.255 -136.1007
1115.645878 92.299 -135.7979
1123.730308 92.344 -135.4955
1131.873321 92.388 -135.1921
1140.075341 92.432 -134.8869
1148.336797 92.477 -134.5791
1156.658119 92.522 -134.2684
1165.039741 92.568 -133.9539
1173.482099 92.615 -133.6342
1181.985634 92.664 -133.3099
1190.550789 92.717 -132.9871
1199.178011 92.773 -132.6766
1207.867749 92.832 -132.3903
1216.620457 92.891 -132.1341
1225.436590 92.950 -131.9044
1234.316609 93.006 -131.6927
1243.260976 93.060 -131.4904
1252.270157 93.111 -131.2895
1261.344623 93.160 -131.0858
1270.484846 93.208 -130.8776
1279.691303 93.255 -130.6633
1288.964474 93.302 -130.4412
1298.304842 93.348 -130.2117
1307.712894 93.396 -129.9773
1317.189120 93.444 -129.7416
1326.734016 93.492 -129.5070
1336.348077 93.542 -129.2731
1346.031806 93.592 -129.0369
1355.785708 93.642 -128.7943
1365.610290 93.694 -128.5413
1375.506065 93.748 -128.2734
1385.473549 93.804 -127.9856
1395.513261 93.864 -127.6770
1405.625726 93.928 -127.3530
1415.811469 93.997 -127.0259
1426.071023 94.070 -126.7105
1436.404921 94.145 -126.4164
1446.813703 94.222 -126.1440
1457.297912 94.298 -125.8882
1467.858093 94.372 -125.6423
1478.494798 94.446 -125.4021
1489.208581 94.517 -125.1639
1500.000000 94.586 -124.9244
1510.869618 94.652 -124.6803
1521.818002 94.715 -124.4288
1532.845723 94.774 -124.1678
1543.953355 94.831 -123.8956
1555.141477 94.888 -123.6122
1566.410674 94.946 -123.3216
1577.761531 95.006 -123.0349
1589.194642 95.070 -122.7662
1600.710601 95.136 -122.5248
1612.310010 95.202 -122.3119
1623.993473 95.267 -122.1224
1635.761599 95.331 -121.9492
1647.615002 95.395 -121.7866
1659.554299 95.458 -121.6299
1671.580114 95.521 -121.4757
1683.693072 95.584 -121.3237
1695.893807 95.649 -121.1758
1708.182952 95.713 -121.0343
1720.561150 95.777 -120.8997
1733.029045 95.840 -120.7690
1745.587288 95.902 -120.6376
1758.236533 95.964 -120.4990
1770.977440 96.025 -120.3483
1783.810673 96.090 -120.1865
1796.736900 96.159 -120.0233
1809.756796 96.232 -119.8735
1822.871040 96.309 -119.7490
1836.080315 96.388 -119.6545
1849.385310 96.469 -119.5892
1862.786718 96.551 -119.5505
1876.285239 96.633 -119.5341
1889.881575 96.717 -119.5350
1903.576436 96.804 -119.5482
1917.370535 96.894 -119.5691
1931.264593 96.989 -119.5952
1945.259332 97.091 -119.6284
1959.355483 97.200 -119.6783
1973.553781 97.314 -119.7591
1987.854965 97.432 -119.8820
2002.259781 97.551 -120.0518
2016.768981 97.669 -120.2670
2031.383320 97.786 -120.5240
2046.103561 97.900 -120.8178
2060.930471 98.012 -121.1445
2075.864823 98.122 -121.5024
2090.907395 98.228 -121.8911
2106.058972 98.331 -122.3087
2121.320344 98.428 -122.7504
2136.692305 98.521 -123.2089
2152.175658 98.610 -123.6766
2167.771210 98.696 -124.1511
2183.479774 98.781 -124.6384
2199.302169 98.864 -125.1490
2215.239219 98.945 -125.6914
2231.291755 99.023 -126.2692
2247.460615 99.096 -126.8815
2263.746641 99.165 -127.5238
2280.150683 99.227 -128.1888
2296.673595 99.284 -128.8672
2313.316238 99.336 -129.5510
2330.079481 99.385 -130.2369
2346.964198 99.431 -130.9293
2363.971268 99.475 -131.6370
2381.101578 99.516 -132.3669
2398.356022 99.552 -133.1210
2415.735498 99.582 -133.8970
2433.240913 99.607 -134.6896
2450.873180 99.624 -135.4927
2468.633217 99.635 -136.3008
2486.521951 99.639 -137.1082
2504.540314 99.635 -137.9061
2522.689246 99.624 -138.6832
2540.969692 99.607 -139.4281
2559.382606 99.586 -140.1351
2577.928947 99.562 -140.8073
2596.609683 99.537 -141.4509
2615.425787 99.509 -142.0716
2634.378241 99.480 -142.6720
2653.468031 99.447 -143.2501
2672.696154 99.412 -143.7999
2692.063613 99.374 -144.3134
2711.571415 99.336 -144.7855
2731.220579 99.299 -145.2188
2751.012130 99.264 -145.6229
2770.947098 99.232 -146.0095
2791.026522 99.202 -146.3875
2811.251451 99.173 -146.7623
2831.622938 99.145 -147.1367
2852.142045 99.117 -147.5126
2872.809842 99.088 -147.8897
2893.627406 99.058 -148.2643
2914.595823 99.026 -148.6285
2935.716186 98.993 -148.9750
2956.989596 98.961 -149.3029
2978.417161 98.929 -149.6173
3000.000000 98.899 -149.9253
3021.739237 98.868 -150.2319
3043.636005 98.837 -150.5371
3065.691446 98.805 -150.8355
3087.906710 98.772 -151.1182
3110.282955 98.738 -151.3795
3132.821347 98.706 -151.6209
3155.523062 98.675 -151.8483
3178.389283 98.646 -152.0681
3201.421202 98.618 -152.2845
3224.620020 98.591 -152.4999
3247.986946 98.563 -152.7145
3271.523198 98.533 -152.9250
3295.230004 98.503 -153.1223
3319.108599 98.471 -153.2953
3343.160228 98.440 -153.4375
3367.386145 98.411 -153.5497
3391.787613 98.386 -153.6373
3416.365904 98.364 -153.7059
3441.122300 98.347 -153.7570
3466.058091 98.333 -153.7875
3491.174576 98.325 -153.7941
3516.473066 98.323 -153.7802
3541.954880 98.330 -153.7565
3567.621345 98.345 -153.7377
3593.473800 98.369 -153.7396
3619.513592 98.401 -153.7770
3645.742080 98.438 -153.8622
3672.160630 98.480 -154.0007
3698.770620 98.525 -154.1915
3725.573436 98.573 -154.4329
3752.570477 98.622 -154.7272
3779.763150 98.673 -155.0817
3807.152872 98.724 -155.5030
3834.741071 98.772 -155.9933
3862.529185 98.818 -156.5488
3890.518664 98.859 -157.1651
3918.710966 98.897 -157.8424
3947.107561 98.931 -158.5859
3975.709929 98.961 -159.4026
4004.519563 98.986 -160.2992
4033.537962 99.002 -161.2791
4062.766641 99.008 -162.3389
4092.207123 99.002 -163.4681
4121.860942 98.982 -164.6553
4151.729646 98.947 -165.8913
4181.814790 98.895 -167.1683
4212.117944 98.824 -168.4738
4242.640687 98.732 -169.7855
4273.384610 98.618 -171.0757
4304.351317 98.483 -172.3173
4335.542421 98.327 -173.4893
4366.959549 98.154 -174.5770
4398.604338 97.964 -175.5719
4430.478438 97.759 -176.4681
4462.583511 97.540 -177.2569
4494.921231 97.308 -177.9259
4527.493283 97.065 -178.4637
4560.301365 96.813 -178.8637
4593.347189 96.554 -179.1212
4626.632476 96.288 -179.2286
4660.158962 96.018 -179.1743
4693.928395 95.746 -178.9477
4727.942535 95.476 -178.5446
4762.203156 95.213 -177.9691
4796.712043 94.960 -177.2342
4831.470996 94.720 -176.3569
4866.481826 94.494 -175.3514
4901.746360 94.284 -174.2296
4937.266434 94.092 -173.0050
4973.043902 93.919 -171.6941
5009.080628 93.765 -170.3114
5045.378492 93.630 -168.8657
5081.939384 93.517 -167.3638
5118.765212 93.425 -165.8176
5155.857894 93.358 -164.2475
5193.219366 93.316 -162.6831
5230.851574 93.298 -161.1567
5268.756481 93.302 -159.6959
5306.936062 93.326 -158.3230
5345.392309 93.366 -157.0573
5384.127225 93.418 -155.9120
5423.142830 93.476 -154.8890
5462.441159 93.538 -153.9785
5502.024259 93.600 -153.1654
5541.894195 93.662 -152.4355
5582.053045 93.722 -151.7795
5622.502902 93.781 -151.1910
5663.245876 93.837 -150.6630
5704.284090 93.890 -150.1873
5745.619684 93.940 -149.7574
5787.254813 93.985 -149.3656
5829.191647 94.025 -148.9991
5871.432373 94.059 -148.6400
5913.979192 94.089 -148.2701
5956.834323 94.116 -147.8760
6000.000000 94.144 -147.4518
6043.478473 94.173 -146.9966
6087.272010 94.205 -146.5129
6131.382892 94.244 -146.0073
6175.813420 94.288 -145.4889
6220.565910 94.339 -144.9641
6265.642695 94.396 -144.4340
6311.046124 94.460 -143.8969
6356.778566 94.532 -143.3527
6402.842404 94.614 -142.8062
6449.240040 94.706 -142.2659
6495.973891 94.811 -141.7436
6543.046396 94.928 -141.2549
6590.460007 95.057 -140.8154
6638.217197 95.198 -140.4364
6686.320456 95.350 -140.1246
6734.772290 95.513 -139.8853
6783.575226 95.687 -139.7266
6832.731809 95.871 -139.6599
6882.244600 96.065 -139.7007
6932.116181 96.268 -139.8689
6982.349153 96.479 -140.1858
7032.946133 96.694 -140.6696
7083.909760 96.913 -141.3344
7135.242690 97.133 -142.1921
7186.947600 97.352 -143.2557
7239.027185 97.568 -144.5392
7291.484160 97.777 -146.0576
7344.321260 97.974 -147.8261
7397.541239 98.153 -149.8531
7451.146872 98.308 -152.1346
7505.140954 98.430 -154.6519
7559.526299 98.515 -157.3729
7614.305743 98.556 -160.2547
7669.482141 98.551 -163.2468
7725.058371 98.497 -166.2959
7781.037328 98.392 -169.3472
7837.421932 98.238 -172.3434
7894.215122 98.033 -175.2249
7951.419859 97.782 -177.9337
8009.039125 97.489 179.5815
8067.075924 97.161 177.3610
8125.533282 96.804 175.4286
8184.414245 96.425 173.7921
8243.721885 96.032 172.4506
8303.459292 95.629 171.4019
8363.629581 95.221 170.6451
8424.235888 94.813 170.1801
8485.281374 94.411 169.9998
8546.769221 94.022 170.0831
8608.702634 93.651 170.3958
8671.084842 93.302 170.9003
8733.919097 92.975 171.5647
8797.208675 92.672 172.3676
8860.956876 92.394 173.2958
8925.167022 92.140 174.3362
8989.842461 91.913 175.4705
9054.986566 91.715 176.6768
9120.602731 91.544 177.9354
9186.694378 91.401 179.2316
9253.264952 91.287 -179.4437
9320.317925 91.202 -178.1002
9387.856790 91.148 -176.7546
9455.885071 91.127 -175.4299
9524.406312 91.139 -174.1506
9593.424086 91.183 -172.9384
9662.941992 91.261 -171.8096
9732.963653 91.372 -170.7819
9803.492719 91.517 -169.8797
9874.532869 91.695 -169.1333
9946.087805 91.905 -168.5743
10018.161257 92.142 -168.2290
10090.756983 92.407 -168.1188
10163.878768 92.696 -168.2684
10237.530423 93.008 -168.7103
10311.715789 93.340 -169.4851
10386.438732 93.687 -170.6349
10461.703149 94.040 -172.1964
10537.512962 94.393 -174.2006
10613.872125 94.735 -176.6721
10690.784618 95.054 -179.6266
10768.254450 95.337 176.9362
10846.285661 95.569 173.0410
10924.882318 95.738 168.7377
11004.048518 95.833 164.0967
11083.788390 95.844 159.2031
11164.106090 95.766 154.1526
11245.005805 95.595 149.0510
11326.491752 95.330 144.0093
11408.568180 94.973 139.1347
11491.239368 94.532 134.5201
11574.509626 94.014 130.2383
11658.383294 93.431 126.3431
11742.864745 92.791 122.8719
11827.958384 92.108 119.8463
11913.668646 91.391 117.2700
12000.000000 90.653 115.1303
12086.956947 89.902 113.4047
12174.544019 89.146 112.0665
12262.765784 88.393 111.0865
12351.626840 87.648 110.4299
12441.131819 86.917 110.0580
12531.285389 86.201 109.9342
12622.092249 85.504 110.0268
12713.557132 84.825 110.3071
12805.684808 84.167 110.7454
12898.480079 83.530 111.3131
12991.947783 82.912 111.9878
13086.092792 82.314 112.7526
13180.920015 81.733 113.5909
13276.434395 81.170 114.4849
13372.640911 80.623 115.4199
13469.544580 80.088 116.3870
13567.150452 79.566 117.3799
13665.463617 79.053 118.3912
13764.489200 78.549 119.4137
13864.232362 78.051 120.4429
13964.698305 77.559 121.4734
14065.892266 77.071 122.4945
14167.819519 76.584 123.4966
14270.485380 76.094 124.4880
14373.895200 75.597 125.5063
14478.054370 75.090 126.6061
14582.968320 74.578 127.8260
14688.642520 74.065 129.1778
14795.082478 73.558 130.6553
14902.293745 73.060 132.2446
15010.281908 72.572 133.9360
15119.052599 72.096 135.7295
15228.611486 71.635 137.6328
15338.964283 71.190 139.6558
15450.116741 70.768 141.8084
15562.074656 70.372 144.0985
15674.843864 70.007 146.5289
15788.430244 69.678 149.0954
15902.839718 69.389 151.7883
16018.078250 69.145 154.5928
16134.151848 68.956 157.4800
16251.066563 68.829 160.3972
16368.828491 68.773 163.2617
16487.443769 68.794 165.9542
16606.918584 68.895 168.3178
16727.259161 69.067 170.1752
16848.471777 69.293 171.3618
16970.562748 69.545 171.7593
17093.538442 69.791 171.3248
17217.405268 69.997 170.1017
17342.169684 70.130 168.2086
17467.838194 70.167 165.8171
17594.417350 70.090 163.1334
17721.913751 69.893 160.3815
17850.334044 69.578 157.7805
17979.684923 69.158 155.5234
18109.973131 68.654 153.7613
18241.205462 68.094 152.5882
18373.388756 67.510 152.0319
18506.529905 66.933 152.0490
18640.635849 66.392 152.5200
18775.713581 65.909 153.2556
18911.770141 65.493 154.0262
19048.812624 65.140 154.6078
19186.848172 64.838 154.8301
19325.883983 64.567 154.6088
19465.927305 64.318 153.9537
19606.985439 64.091 152.9636
19749.065738 63.899 151.8228
19892.175609 63.758 150.7943
20036.322514 63.684 150.1729
