* Measurement data measured by REW V5.31
* Source: EXCL: Microphone (2- USB Sound Device        ), MICROPHONE (Master Volume), L, volume: 0.560
* Format: 256k Log Swept Sine, 1 sweep at -4.0 dBFS with no timing reference
* Dated: Jul 28, 2024 4:11:49 PM
* REW Settings:
*  C-weighting compensation: Off
*  Target level: 75.0 dB
* Note: Roseselsa Ceramics X TWS
* Measurement: L Roseselsa Ceramics X TWS
* Smoothing: 1/12 octave
* Frequency Step: 96 ppo
* Start Frequency: 0.36621094 Hz
*
* Freq(Hz) SPL(dB) Phase(degrees)
0.366211 79.528 168.1285
0.368865 79.531 168.1076
0.371538 79.534 168.0764
0.374230 79.539 168.0376
0.376942 79.544 167.9933
0.379673 79.550 167.9451
0.382424 79.556 167.8941
0.385196 79.562 167.8409
0.387987 79.568 167.7860
0.390798 79.574 167.7294
0.393630 79.580 167.6714
0.396483 79.586 167.6119
0.399356 79.593 167.5510
0.402250 79.599 167.4887
0.405165 79.606 167.4249
0.408101 79.612 167.3598
0.411058 79.619 167.2931
0.414037 79.625 167.2251
0.417037 79.632 167.1555
0.420059 79.638 167.0845
0.423103 79.645 167.0119
0.426169 79.652 166.9379
0.429257 79.659 166.8624
0.432368 79.666 166.7852
0.435501 79.673 166.7066
0.438656 79.680 166.6264
0.441835 79.687 166.5446
0.445037 79.694 166.4612
0.448262 79.701 166.3763
0.451510 79.708 166.2897
0.454782 79.715 166.2015
0.458077 79.722 166.1117
0.461397 79.730 166.0202
0.464740 79.737 165.9271
0.468108 79.745 165.8323
0.471500 79.752 165.7358
0.474917 79.760 165.6376
0.478358 79.767 165.5378
0.481825 79.775 165.4362
0.485316 79.783 165.3329
0.488833 79.790 165.2279
0.492375 79.798 165.1212
0.495943 79.806 165.0127
0.499537 79.814 164.9024
0.503157 79.822 164.7904
0.506803 79.830 164.6766
0.510475 79.838 164.5611
0.514175 79.846 164.4437
0.517900 79.855 164.3246
0.521653 79.863 164.2036
0.525434 79.871 164.0808
0.529241 79.880 163.9563
0.533076 79.888 163.8298
0.536939 79.897 163.7016
0.540830 79.905 163.5715
0.544749 79.914 163.4396
0.548696 79.923 163.3059
0.552673 79.931 163.1703
0.556677 79.940 163.0328
0.560711 79.949 162.8935
0.564774 79.958 162.7523
0.568867 79.967 162.6092
0.572989 79.976 162.4643
0.577141 79.985 162.3174
0.581324 79.995 162.1688
0.585536 80.004 162.0182
0.589779 80.013 161.8657
0.594053 80.023 161.7114
0.598358 80.032 161.5551
0.602694 80.042 161.3970
0.607061 80.051 161.2370
0.611460 80.061 161.0751
0.615891 80.071 160.9113
0.620354 80.081 160.7456
0.624849 80.091 160.5780
0.629377 80.101 160.4085
0.633938 80.111 160.2371
0.638532 80.121 160.0638
0.643159 80.131 159.8886
0.647819 80.141 159.7115
0.652514 80.152 159.5325
0.657242 80.162 159.3516
0.662005 80.173 159.1689
0.666802 80.183 158.9842
0.671634 80.194 158.7976
0.676501 80.205 158.6091
0.681403 80.216 158.4188
0.686341 80.227 158.2265
0.691314 80.237 158.0323
0.696324 80.249 157.8362
0.701370 80.260 157.6382
0.706452 80.271 157.4383
0.711571 80.282 157.2363
0.716728 80.294 157.0323
0.721921 80.305 156.8262
0.727153 80.317 156.6177
0.732422 80.329 156.4066
0.737729 80.341 156.1928
0.743075 80.354 155.9760
0.748460 80.367 155.7559
0.753883 80.379 155.5324
0.759346 80.393 155.3054
0.764849 80.406 155.0749
0.770391 80.419 154.8409
0.775974 80.433 154.6034
0.781597 80.446 154.3623
0.787261 80.460 154.1178
0.792966 80.474 153.8698
0.798712 80.489 153.6184
0.804500 80.503 153.3635
0.810329 80.517 153.1053
0.816201 80.532 152.8438
0.822116 80.547 152.5790
0.828073 80.562 152.3109
0.834074 80.577 152.0396
0.840118 80.592 151.7652
0.846206 80.608 151.4876
0.852338 80.623 151.2069
0.858514 80.639 150.9232
0.864735 80.655 150.6365
0.871001 80.671 150.3468
0.877313 80.687 150.0543
0.883670 80.703 149.7589
0.890074 80.719 149.4607
0.896524 80.736 149.1597
0.903020 80.752 148.8561
0.909564 80.769 148.5498
0.916155 80.786 148.2409
0.922794 80.803 147.9294
0.929481 80.820 147.6155
0.936216 80.837 147.2991
0.943000 80.854 146.9803
0.949834 80.872 146.6592
0.956717 80.889 146.3358
0.963649 80.907 146.0101
0.970632 80.924 145.6822
0.977666 80.942 145.3522
0.984750 80.960 145.0201
0.991886 80.978 144.6859
0.999074 80.995 144.3497
1.006314 81.013 144.0116
1.013606 81.031 143.6715
1.020951 81.049 143.3295
1.028349 81.067 142.9857
1.035801 81.086 142.6400
1.043307 81.104 142.2926
1.050867 81.122 141.9433
1.058482 81.140 141.5922
1.066152 81.158 141.2393
1.073878 81.176 140.8844
1.081660 81.194 140.5274
1.089498 81.212 140.1680
1.097393 81.230 139.8059
1.105345 81.249 139.4406
1.113355 81.267 139.0717
1.121423 81.285 138.6988
1.129549 81.303 138.3216
1.137734 81.322 137.9401
1.145979 81.340 137.5541
1.154283 81.359 137.1636
1.162647 81.378 136.7686
1.171072 81.397 136.3693
1.179558 81.415 135.9656
1.188106 81.434 135.5577
1.196715 81.453 135.1455
1.205387 81.472 134.7293
1.214122 81.492 134.3091
1.222920 81.511 133.8850
1.231782 81.530 133.4572
1.240708 81.549 133.0256
1.249699 81.569 132.5904
1.258754 81.588 132.1517
1.267876 81.607 131.7098
1.277063 81.627 131.2645
1.286318 81.646 130.8162
1.295639 81.665 130.3649
1.305027 81.685 129.9107
1.314484 81.704 129.4539
1.324009 81.724 128.9944
1.333604 81.743 128.5326
1.343268 81.762 128.0684
1.353002 81.782 127.6021
1.362806 81.801 127.1338
1.372681 81.820 126.6637
1.382628 81.839 126.1919
1.392647 81.858 125.7185
1.402739 81.877 125.2437
1.412904 81.896 124.7675
1.423142 81.915 124.2901
1.433455 81.934 123.8112
1.443843 81.952 123.3308
1.454305 81.971 122.8484
1.464844 81.989 122.3635
1.475459 82.007 121.8753
1.486150 82.026 121.3832
1.496920 82.044 120.8866
1.507767 82.061 120.3852
1.518693 82.079 119.8788
1.529698 82.097 119.3674
1.540783 82.115 118.8510
1.551948 82.132 118.3298
1.563194 82.150 117.8040
1.574521 82.167 117.2738
1.585931 82.184 116.7394
1.597423 82.201 116.2011
1.608999 82.218 115.6592
1.620658 82.235 115.1140
1.632402 82.252 114.5657
1.644232 82.268 114.0146
1.656146 82.285 113.4610
1.668147 82.301 112.9053
1.680235 82.317 112.3478
1.692411 82.333 111.7888
1.704675 82.349 111.2287
1.717028 82.364 110.6677
1.729470 82.380 110.1063
1.742003 82.395 109.5448
1.754626 82.410 108.9835
1.767341 82.425 108.4227
1.780147 82.439 107.8625
1.793047 82.454 107.3029
1.806040 82.468 106.7438
1.819128 82.482 106.1848
1.832310 82.495 105.6249
1.845587 82.508 105.0633
1.858961 82.521 104.4989
1.872432 82.534 103.9309
1.886001 82.546 103.3590
1.899667 82.558 102.7829
1.913433 82.570 102.2026
1.927299 82.582 101.6183
1.941265 82.593 101.0303
1.955332 82.603 100.4391
1.969501 82.614 99.8449
1.983773 82.624 99.2485
1.998148 82.634 98.6502
2.012627 82.643 98.0507
2.027212 82.653 97.4505
2.041902 82.662 96.8505
2.056698 82.671 96.2512
2.071602 82.680 95.6535
2.086614 82.688 95.0580
2.101734 82.696 94.4656
2.116964 82.705 93.8770
2.132304 82.713 93.2930
2.147756 82.720 92.7141
2.163320 82.728 92.1407
2.178996 82.735 91.5728
2.194786 82.743 91.0103
2.210690 82.750 90.4523
2.226710 82.756 89.8980
2.242845 82.762 89.3466
2.259098 82.768 88.7976
2.275468 82.773 88.2507
2.291957 82.778 87.7056
2.308566 82.782 87.1625
2.325295 82.786 86.6215
2.342145 82.790 86.0831
2.359117 82.794 85.5474
2.376212 82.798 85.0150
2.393431 82.801 84.4864
2.410775 82.805 83.9622
2.428244 82.808 83.4429
2.445840 82.812 82.9293
2.463564 82.817 82.4220
2.481416 82.821 81.9220
2.499397 82.826 81.4299
2.517509 82.831 80.9465
2.535752 82.837 80.4725
2.554127 82.843 80.0085
2.572635 82.849 79.5548
2.591277 82.856 79.1117
2.610055 82.863 78.6790
2.628968 82.870 78.2565
2.648019 82.877 77.8439
2.667208 82.884 77.4408
2.686535 82.891 77.0469
2.706003 82.899 76.6617
2.725612 82.907 76.2848
2.745363 82.916 75.9160
2.765257 82.926 75.5548
2.785295 82.937 75.2010
2.805478 82.949 74.8544
2.825808 82.962 74.5147
2.846285 82.976 74.1819
2.866910 82.992 73.8561
2.887685 83.009 73.5378
2.908611 83.029 73.2276
2.929688 83.049 72.9265
2.950917 83.072 72.6357
2.972301 83.096 72.3560
2.993839 83.122 72.0880
3.015534 83.149 71.8313
3.037386 83.178 71.5855
3.059396 83.209 71.3496
3.081565 83.241 71.1222
3.103896 83.275 70.9019
3.126388 83.311 70.6872
3.149043 83.349 70.4765
3.171862 83.388 70.2684
3.194847 83.430 70.0614
3.217998 83.473 69.8544
3.241317 83.519 69.6467
3.264805 83.567 69.4381
3.288463 83.618 69.2292
3.312293 83.670 69.0209
3.336295 83.726 68.8145
3.360471 83.784 68.6108
3.384822 83.845 68.4099
3.409350 83.908 68.2114
3.434056 83.973 68.0141
3.458940 84.041 67.8166
3.484005 84.111 67.6171
3.509252 84.182 67.4139
3.534681 84.255 67.2051
3.560295 84.330 66.9890
3.586094 84.406 66.7642
3.612081 84.483 66.5296
3.638255 84.562 66.2846
3.664620 84.642 66.0293
3.691175 84.723 65.7645
3.717923 84.806 65.4909
3.744864 84.891 65.2093
3.772001 84.977 64.9202
3.799335 85.065 64.6236
3.826866 85.154 64.3194
3.854597 85.244 64.0074
3.882529 85.335 63.6870
3.910664 85.426 63.3577
3.939002 85.517 63.0189
3.967546 85.608 62.6701
3.996296 85.699 62.3107
4.025255 85.789 61.9404
4.054423 85.880 61.5592
4.083804 85.970 61.1673
4.113396 86.061 60.7651
4.143204 86.151 60.3535
4.173227 86.241 59.9333
4.203468 86.331 59.5055
4.233928 86.420 59.0710
4.264609 86.509 58.6306
4.295512 86.597 58.1849
4.326639 86.684 57.7343
4.357992 86.770 57.2789
4.389572 86.856 56.8183
4.421380 86.940 56.3523
4.453419 87.022 55.8806
4.485691 87.104 55.4031
4.518196 87.185 54.9206
4.550936 87.265 54.4338
4.583914 87.344 53.9441
4.617131 87.421 53.4528
4.650589 87.498 52.9610
4.684289 87.574 52.4699
4.718233 87.649 51.9800
4.752424 87.723 51.4917
4.786862 87.796 51.0047
4.821549 87.867 50.5187
4.856488 87.938 50.0333
4.891680 88.008 49.5487
4.927127 88.077 49.0650
4.962831 88.145 48.5828
4.998794 88.212 48.1028
5.035017 88.279 47.6256
5.071503 88.346 47.1518
5.108253 88.412 46.6819
5.145270 88.478 46.2160
5.182555 88.544 45.7539
5.220110 88.609 45.2953
5.257937 88.675 44.8395
5.296038 88.740 44.3860
5.334415 88.805 43.9340
5.373071 88.870 43.4831
5.412006 88.935 43.0328
5.451224 89.001 42.5829
5.490725 89.067 42.1334
5.530514 89.134 41.6841
5.570590 89.201 41.2348
5.610957 89.268 40.7850
5.651616 89.336 40.3337
5.692570 89.404 39.8795
5.733821 89.473 39.4213
5.775370 89.542 38.9578
5.817221 89.612 38.4880
5.859375 89.682 38.0113
5.901834 89.752 37.5274
5.944602 89.823 37.0361
5.987679 89.894 36.5372
6.031068 89.965 36.0298
6.074771 90.036 35.5130
6.118792 90.107 34.9859
6.163131 90.177 34.4473
6.207792 90.248 33.8965
6.252776 90.317 33.3330
6.298086 90.387 32.7565
6.343725 90.455 32.1672
6.389694 90.523 31.5653
6.435996 90.590 30.9507
6.482634 90.656 30.3237
6.529610 90.720 29.6839
6.576926 90.783 29.0312
6.624585 90.844 28.3652
6.672590 90.904 27.6858
6.720942 90.962 26.9935
6.769645 91.017 26.2890
6.818700 91.071 25.5733
6.868111 91.123 24.8471
6.917881 91.173 24.1110
6.968010 91.220 23.3651
7.018504 91.265 22.6095
7.069362 91.307 21.8443
7.120590 91.347 21.0702
7.172189 91.384 20.2882
7.224161 91.419 19.4994
7.276511 91.452 18.7049
7.329239 91.482 17.9050
7.382350 91.510 17.0999
7.435845 91.535 16.2896
7.489729 91.557 15.4745
7.544002 91.578 14.6551
7.598669 91.595 13.8322
7.653732 91.611 13.0063
7.709194 91.625 12.1778
7.765058 91.636 11.3465
7.821327 91.645 10.5124
7.878004 91.653 9.6753
7.935091 91.658 8.8352
7.992592 91.661 7.9923
8.050510 91.663 7.1465
8.108847 91.663 6.2976
8.167607 91.661 5.4453
8.226793 91.657 4.5891
8.286408 91.652 3.7290
8.346454 91.644 2.8644
8.406936 91.635 1.9951
8.467856 91.625 1.1208
8.529218 91.612 0.2411
8.591024 91.598 -0.6441
8.653278 91.581 -1.5349
8.715983 91.563 -2.4314
8.779143 91.543 -3.3337
8.842760 91.520 -4.2418
8.906839 91.495 -5.1558
8.971381 91.468 -6.0752
9.036392 91.438 -6.9996
9.101873 91.406 -7.9282
9.167829 91.372 -8.8607
9.234263 91.334 -9.7964
9.301178 91.294 -10.7349
9.368578 91.251 -11.6750
9.436467 91.205 -12.6156
9.504847 91.156 -13.5555
9.573723 91.104 -14.4937
9.643099 91.050 -15.4292
9.712976 90.992 -16.3611
9.783361 90.932 -17.2880
9.854255 90.869 -18.2085
9.925663 90.804 -19.1214
9.997588 90.736 -20.0259
10.070035 90.665 -20.9211
10.143007 90.592 -21.8061
10.216507 90.518 -22.6800
10.290540 90.441 -23.5419
10.365109 90.362 -24.3912
10.440219 90.282 -25.2277
10.515873 90.201 -26.0510
10.592076 90.118 -26.8609
10.668830 90.034 -27.6571
10.746141 89.948 -28.4397
10.824012 89.862 -29.2086
10.902447 89.775 -29.9639
10.981451 89.688 -30.7060
11.061027 89.599 -31.4347
11.141180 89.510 -32.1503
11.221913 89.420 -32.8527
11.303232 89.330 -33.5420
11.385140 89.239 -34.2183
11.467641 89.147 -34.8813
11.550741 89.055 -35.5309
11.634442 88.961 -36.1668
11.718750 88.867 -36.7887
11.803669 88.773 -37.3962
11.889203 88.677 -37.9890
11.975357 88.581 -38.5666
12.062136 88.484 -39.1286
12.149543 88.386 -39.6746
12.237583 88.288 -40.2045
12.326262 88.189 -40.7178
12.415583 88.089 -41.2146
12.505552 87.989 -41.6948
12.596172 87.889 -42.1585
12.687449 87.788 -42.6057
12.779387 87.686 -43.0367
12.871992 87.584 -43.4518
12.965268 87.481 -43.8511
13.059220 87.378 -44.2348
13.153852 87.274 -44.6032
13.249170 87.170 -44.9561
13.345179 87.064 -45.2936
13.441884 86.958 -45.6152
13.539289 86.850 -45.9207
13.637401 86.742 -46.2095
13.736223 86.632 -46.4810
13.835761 86.521 -46.7343
13.936021 86.409 -46.9689
14.037007 86.296 -47.1839
14.138725 86.182 -47.3788
14.241180 86.067 -47.5534
14.344377 85.952 -47.7074
14.448323 85.836 -47.8410
14.553021 85.720 -47.9550
14.658478 85.604 -48.0501
14.764700 85.488 -48.1277
14.871691 85.373 -48.1893
14.979457 85.258 -48.2367
15.088005 85.143 -48.2719
15.197339 85.029 -48.2968
15.307465 84.915 -48.3130
15.418389 84.801 -48.3220
15.530117 84.687 -48.3250
15.642655 84.572 -48.3223
15.756008 84.457 -48.3142
15.870182 84.342 -48.2998
15.985184 84.225 -48.2782
16.101019 84.106 -48.2475
16.217694 83.987 -48.2059
16.335214 83.867 -48.1511
16.453586 83.745 -48.0808
16.572815 83.623 -47.9931
16.692909 83.501 -47.8863
16.813872 83.380 -47.7596
16.935713 83.260 -47.6127
17.058436 83.141 -47.4465
17.182048 83.025 -47.2628
17.306556 82.912 -47.0643
17.431967 82.803 -46.8546
17.558286 82.697 -46.6380
17.685521 82.596 -46.4190
17.813677 82.499 -46.2021
17.942762 82.405 -45.9915
18.072783 82.315 -45.7904
18.203746 82.228 -45.6010
18.335658 82.143 -45.4239
18.468526 82.060 -45.2586
18.602356 81.977 -45.1024
18.737156 81.895 -44.9516
18.872934 81.813 -44.8012
19.009695 81.730 -44.6454
19.147447 81.648 -44.4783
19.286197 81.567 -44.2942
19.425953 81.487 -44.0885
19.566721 81.409 -43.8581
19.708510 81.334 -43.6021
19.851326 81.264 -43.3216
19.995177 81.199 -43.0200
20.140070 81.141 -42.7029
20.286013 81.089 -42.3772
20.433014 81.043 -42.0503
20.581080 81.003 -41.7293
20.730219 80.968 -41.4199
20.880439 80.937 -41.1259
21.031747 80.909 -40.8483
21.184152 80.882 -40.5856
21.337661 80.854 -40.3335
21.492282 80.826 -40.0861
21.648024 80.797 -39.8362
21.804895 80.766 -39.5768
21.962902 80.735 -39.3019
22.122054 80.703 -39.0075
22.282360 80.672 -38.6923
22.443827 80.643 -38.3576
22.606464 80.616 -38.0074
22.770280 80.592 -37.6474
22.935283 80.571 -37.2845
23.101481 80.553 -36.9252
23.268884 80.536 -36.5750
23.437500 80.520 -36.2375
23.607338 80.504 -35.9143
23.778406 80.488 -35.6047
23.950714 80.470 -35.3072
24.124271 80.450 -35.0192
24.299086 80.430 -34.7387
24.475167 80.407 -34.4645
24.652524 80.384 -34.1965
24.831166 80.360 -33.9360
25.011103 80.335 -33.6848
25.192344 80.310 -33.4450
25.374898 80.284 -33.2180
25.558775 80.258 -33.0043
25.743984 80.230 -32.8035
25.930536 80.201 -32.6143
26.118439 80.172 -32.4358
26.307704 80.143 -32.2675
26.498341 80.114 -32.1108
26.690359 80.086 -31.9684
26.883768 80.059 -31.8447
27.078579 80.033 -31.7440
27.274801 80.008 -31.6694
27.472446 79.982 -31.6212
27.671522 79.954 -31.5954
27.872042 79.923 -31.5839
28.074014 79.888 -31.5746
28.277450 79.851 -31.5537
28.482360 79.811 -31.5076
28.688755 79.772 -31.4268
28.896645 79.735 -31.3074
29.106042 79.704 -31.1535
29.316957 79.681 -30.9765
29.529400 79.667 -30.7934
29.743382 79.662 -30.6229
29.958915 79.664 -30.4818
30.176009 79.670 -30.3808
30.394677 79.678 -30.3225
30.614929 79.684 -30.3010
30.836778 79.685 -30.3041
31.060234 79.682 -30.3157
31.285309 79.674 -30.3201
31.512015 79.662 -30.3053
31.740364 79.647 -30.2646
31.970368 79.632 -30.1980
32.202039 79.618 -30.1110
32.435388 79.604 -30.0118
32.670428 79.592 -29.9094
32.907171 79.579 -29.8107
33.145630 79.566 -29.7192
33.385817 79.551 -29.6350
33.627745 79.533 -29.5557
33.871425 79.513 -29.4777
34.116871 79.490 -29.3978
34.364096 79.465 -29.3141
34.613113 79.439 -29.2265
34.863934 79.411 -29.1358
35.116572 79.383 -29.0438
35.371041 79.354 -28.9522
35.627354 79.324 -28.8619
35.885525 79.294 -28.7731
36.145566 79.263 -28.6849
36.407492 79.232 -28.5960
36.671316 79.201 -28.5042
36.937051 79.170 -28.4077
37.204712 79.140 -28.3047
37.474313 79.111 -28.1948
37.745867 79.083 -28.0786
38.019389 79.058 -27.9583
38.294893 79.036 -27.8369
38.572394 79.015 -27.7175
38.851905 78.996 -27.6017
39.133442 78.978 -27.4895
39.417019 78.960 -27.3787
39.702651 78.943 -27.2658
39.990353 78.925 -27.1471
40.280140 78.908 -27.0203
40.572026 78.891 -26.8847
40.866028 78.876 -26.7420
41.162160 78.861 -26.5949
41.460438 78.848 -26.4465
41.760877 78.836 -26.2994
42.063494 78.824 -26.1555
42.368303 78.812 -26.0155
42.675322 78.800 -25.8796
42.984565 78.788 -25.7474
43.296048 78.776 -25.6185
43.609789 78.763 -25.4919
43.925804 78.750 -25.3666
44.244108 78.737 -25.2417
44.564719 78.725 -25.1166
44.887654 78.713 -24.9914
45.212928 78.701 -24.8666
45.540560 78.690 -24.7426
45.870565 78.681 -24.6200
46.202962 78.672 -24.4991
46.537768 78.665 -24.3808
46.875000 78.658 -24.2664
47.214676 78.653 -24.1577
47.556813 78.649 -24.0562
47.901429 78.645 -23.9618
48.248542 78.641 -23.8727
48.598171 78.637 -23.7855
48.950334 78.632 -23.6967
49.305048 78.628 -23.6045
49.662333 78.624 -23.5098
50.022206 78.622 -23.4163
50.384688 78.622 -23.3283
50.749796 78.622 -23.2488
51.117550 78.622 -23.1777
51.487969 78.622 -23.1128
51.861072 78.622 -23.0512
52.236879 78.623 -22.9918
52.615409 78.624 -22.9358
52.996681 78.626 -22.8861
53.380717 78.629 -22.8445
53.767536 78.632 -22.8112
54.157158 78.634 -22.7842
54.549603 78.636 -22.7615
54.944892 78.638 -22.7423
55.343045 78.640 -22.7276
55.744084 78.641 -22.7184
56.148028 78.641 -22.7142
56.554900 78.640 -22.7131
56.964720 78.638 -22.7124
57.377510 78.636 -22.7111
57.793291 78.634 -22.7104
58.212085 78.632 -22.7133
58.633914 78.630 -22.7230
59.058799 78.628 -22.7419
59.486764 78.627 -22.7718
59.917829 78.626 -22.8142
60.352019 78.625 -22.8699
60.789354 78.623 -22.9386
61.229859 78.620 -23.0185
61.673556 78.616 -23.1059
62.120468 78.611 -23.1974
62.570618 78.605 -23.2900
63.024031 78.599 -23.3818
63.480729 78.591 -23.4714
63.940736 78.583 -23.5567
64.404077 78.574 -23.6365
64.870776 78.565 -23.7110
65.340856 78.556 -23.7821
65.814343 78.547 -23.8531
66.291261 78.538 -23.9265
66.771635 78.528 -24.0033
67.255489 78.517 -24.0829
67.742850 78.505 -24.1633
68.233743 78.492 -24.2425
68.728193 78.479 -24.3195
69.226226 78.465 -24.3951
69.727867 78.451 -24.4718
70.233144 78.438 -24.5524
70.742083 78.424 -24.6379
71.254709 78.409 -24.7275
71.771050 78.393 -24.8194
72.291132 78.377 -24.9117
72.814984 78.359 -25.0028
73.342631 78.340 -25.0911
73.874102 78.320 -25.1758
74.409424 78.299 -25.2587
74.948626 78.278 -25.3425
75.491734 78.255 -25.4282
76.038779 78.230 -25.5133
76.589787 78.204 -25.5938
77.144788 78.177 -25.6676
77.703811 78.149 -25.7369
78.266885 78.122 -25.8065
78.834039 78.095 -25.8807
79.405303 78.067 -25.9607
79.980706 78.039 -26.0431
80.560280 78.010 -26.1218
81.144053 77.980 -26.1920
81.732056 77.952 -26.2536
82.324320 77.925 -26.3108
82.920876 77.898 -26.3682
83.521755 77.873 -26.4276
84.126988 77.847 -26.4872
84.736607 77.820 -26.5442
85.350643 77.793 -26.5961
85.969129 77.765 -26.6422
86.592097 77.736 -26.6823
87.219579 77.707 -26.7165
87.851608 77.677 -26.7455
88.488217 77.647 -26.7704
89.129439 77.617 -26.7933
89.775308 77.587 -26.8172
90.425856 77.558 -26.8438
91.081119 77.528 -26.8731
91.741131 77.498 -26.9035
92.405925 77.467 -26.9320
93.075536 77.437 -26.9551
93.750000 77.406 -26.9689
94.429351 77.376 -26.9717
95.113625 77.347 -26.9658
95.802858 77.320 -26.9562
96.497085 77.293 -26.9467
97.196342 77.266 -26.9370
97.900667 77.240 -26.9255
98.610096 77.214 -26.9120
99.324665 77.188 -26.8984
100.044413 77.162 -26.8859
100.769376 77.135 -26.8729
101.499592 77.108 -26.8564
102.235100 77.081 -26.8351
102.975938 77.053 -26.8105
103.722144 77.026 -26.7855
104.473757 76.998 -26.7624
105.230817 76.971 -26.7435
105.993363 76.943 -26.7306
106.761435 76.915 -26.7240
107.535072 76.887 -26.7232
108.314315 76.859 -26.7263
109.099206 76.831 -26.7310
109.889783 76.804 -26.7350
110.686090 76.777 -26.7371
111.488167 76.752 -26.7369
112.296056 76.727 -26.7351
113.109800 76.703 -26.7336
113.929440 76.679 -26.7345
114.755020 76.654 -26.7386
115.586582 76.629 -26.7457
116.424170 76.603 -26.7556
117.267827 76.576 -26.7685
118.117598 76.548 -26.7831
118.973527 76.520 -26.7952
119.835658 76.492 -26.8003
120.704037 76.466 -26.7996
121.578708 76.441 -26.7999
122.459718 76.418 -26.8075
123.347111 76.394 -26.8226
124.240935 76.370 -26.8414
125.141236 76.344 -26.8595
126.048061 76.316 -26.8737
126.961458 76.287 -26.8825
127.881473 76.257 -26.8874
128.808154 76.226 -26.8919
129.741551 76.193 -26.8977
130.681712 76.160 -26.9040
131.628686 76.126 -26.9094
132.582521 76.092 -26.9147
133.543269 76.059 -26.9225
134.510979 76.027 -26.9345
135.485701 75.995 -26.9500
136.467486 75.962 -26.9665
137.456386 75.930 -26.9815
138.452451 75.897 -26.9939
139.455735 75.863 -27.0042
140.466288 75.830 -27.0138
141.484165 75.796 -27.0247
142.509418 75.761 -27.0372
143.542100 75.724 -27.0478
144.582265 75.687 -27.0508
145.629968 75.648 -27.0415
146.685262 75.609 -27.0176
147.748204 75.570 -26.9797
148.818849 75.531 -26.9321
149.897251 75.492 -26.8838
150.983469 75.453 -26.8456
152.077557 75.414 -26.8244
153.179574 75.375 -26.8176
154.289576 75.334 -26.8165
155.407622 75.294 -26.8115
156.533770 75.256 -26.7964
157.668078 75.218 -26.7692
158.810606 75.182 -26.7333
159.961413 75.145 -26.6944
161.120559 75.107 -26.6545
162.288105 75.066 -26.6107
163.464112 75.021 -26.5583
164.648640 74.976 -26.4961
165.841752 74.930 -26.4275
167.043510 74.885 -26.3557
168.253976 74.840 -26.2814
169.473213 74.797 -26.2046
170.701286 74.754 -26.1260
171.938258 74.712 -26.0460
173.184194 74.669 -25.9629
174.439158 74.625 -25.8746
175.703216 74.581 -25.7804
176.976434 74.538 -25.6817
178.258878 74.495 -25.5802
179.550615 74.453 -25.4767
180.851713 74.410 -25.3699
182.162239 74.367 -25.2568
183.482262 74.323 -25.1343
184.811850 74.279 -25.0012
186.151073 74.235 -24.8597
187.500000 74.191 -24.7133
188.858702 74.148 -24.5645
190.227250 74.105 -24.4143
191.605715 74.062 -24.2627
192.994169 74.020 -24.1088
194.392685 73.979 -23.9513
195.801334 73.938 -23.7888
197.220191 73.897 -23.6208
198.649330 73.857 -23.4474
200.088825 73.817 -23.2701
201.538751 73.777 -23.0915
202.999184 73.737 -22.9138
204.470200 73.698 -22.7377
205.951875 73.659 -22.5620
207.444287 73.621 -22.3851
208.947514 73.583 -22.2060
210.461634 73.546 -22.0238
211.986726 73.510 -21.8374
213.522869 73.473 -21.6455
215.070144 73.436 -21.4486
216.628631 73.400 -21.2479
218.198411 73.364 -21.0454
219.779567 73.328 -20.8422
221.372180 73.294 -20.6389
222.976334 73.259 -20.4346
224.592112 73.226 -20.2281
226.219600 73.194 -20.0174
227.858880 73.162 -19.8020
229.510039 73.130 -19.5830
231.173164 73.099 -19.3627
232.848340 73.067 -19.1421
234.535655 73.036 -18.9218
236.235197 73.005 -18.7012
237.947054 72.975 -18.4792
239.671317 72.946 -18.2540
241.408074 72.917 -18.0243
243.157416 72.889 -17.7907
244.919435 72.860 -17.5562
246.694223 72.832 -17.3236
248.481871 72.804 -17.0928
250.282473 72.775 -16.8616
252.096123 72.745 -16.6282
253.922915 72.715 -16.3924
255.762945 72.685 -16.1555
257.616309 72.656 -15.9189
259.483103 72.627 -15.6830
261.363424 72.600 -15.4456
263.257372 72.574 -15.2035
265.165043 72.549 -14.9547
267.086538 72.525 -14.6997
269.021957 72.503 -14.4404
270.971401 72.482 -14.1790
272.934972 72.462 -13.9178
274.912771 72.443 -13.6586
276.904902 72.425 -13.4043
278.911469 72.406 -13.1567
280.932577 72.388 -12.9155
282.968330 72.369 -12.6782
285.018835 72.350 -12.4413
287.084199 72.332 -12.2036
289.164530 72.314 -11.9658
291.259935 72.297 -11.7290
293.370525 72.280 -11.4933
295.496408 72.264 -11.2592
297.637697 72.248 -11.0277
299.794503 72.232 -10.7994
301.966937 72.216 -10.5743
304.155114 72.200 -10.3513
306.359147 72.185 -10.1277
308.579152 72.171 -9.9007
310.815244 72.156 -9.6694
313.067539 72.140 -9.4359
315.336156 72.124 -9.2045
317.621211 72.107 -8.9789
319.922826 72.090 -8.7601
322.241118 72.073 -8.5465
324.576210 72.056 -8.3339
326.928223 72.040 -8.1190
329.297280 72.025 -7.9013
331.683504 72.011 -7.6823
334.087019 71.997 -7.4635
336.507952 71.984 -7.2464
338.946427 71.971 -7.0316
341.402572 71.958 -6.8192
343.876516 71.946 -6.6086
346.368387 71.933 -6.3989
348.878315 71.920 -6.1886
351.406431 71.906 -5.9764
353.952867 71.891 -5.7613
356.517756 71.876 -5.5436
359.101230 71.861 -5.3244
361.703426 71.846 -5.1060
364.324478 71.831 -4.8895
366.964523 71.817 -4.6750
369.623699 71.803 -4.4629
372.302145 71.789 -4.2545
375.000000 71.775 -4.0501
377.717405 71.762 -3.8476
380.454501 71.749 -3.6439
383.211431 71.736 -3.4385
385.988339 71.724 -3.2326
388.785369 71.711 -3.0267
391.602668 71.699 -2.8204
394.440383 71.686 -2.6140
397.298660 71.672 -2.4088
400.177650 71.659 -2.2056
403.077502 71.644 -2.0040
405.998368 71.630 -1.8029
408.940400 71.614 -1.6019
411.903750 71.599 -1.4011
414.888575 71.583 -1.2005
417.895028 71.568 -0.9993
420.923268 71.553 -0.7969
423.973452 71.538 -0.5937
427.045738 71.523 -0.3916
430.140287 71.508 -0.1931
433.257261 71.494 -0.0001
436.396822 71.481 0.1885
439.559133 71.468 0.3756
442.744360 71.456 0.5631
445.952668 71.442 0.7509
449.184225 71.428 0.9385
452.439199 71.413 1.1253
455.717760 71.397 1.3115
459.020079 71.381 1.4978
462.346327 71.364 1.6858
465.696680 71.346 1.8762
469.071310 71.328 2.0702
472.470394 71.309 2.2690
475.894109 71.288 2.4723
479.342634 71.267 2.6772
482.816148 71.245 2.8802
486.314833 71.223 3.0798
489.838871 71.200 3.2778
493.388445 71.177 3.4767
496.963741 71.153 3.6793
500.564945 71.129 3.8880
504.192245 71.104 4.1045
507.845830 71.079 4.3291
511.525890 71.054 4.5605
515.232618 71.028 4.7958
518.966206 71.002 5.0316
522.726849 70.975 5.2659
526.514743 70.948 5.4982
530.330086 70.920 5.7295
534.173076 70.893 5.9614
538.043915 70.865 6.1958
541.942803 70.837 6.4360
545.869944 70.809 6.6861
549.825542 70.780 6.9478
553.809805 70.751 7.2189
557.822939 70.721 7.4962
561.865154 70.691 7.7794
565.936660 70.660 8.0697
570.037671 70.628 8.3693
574.168399 70.596 8.6791
578.329060 70.563 8.9985
582.519870 70.530 9.3250
586.741049 70.497 9.6568
590.992817 70.465 9.9942
595.275394 70.432 10.3391
599.589005 70.400 10.6942
603.933874 70.368 11.0608
608.310228 70.335 11.4382
612.718295 70.301 11.8254
617.158304 70.267 12.2233
621.630488 70.232 12.6338
626.135079 70.198 13.0574
630.672311 70.165 13.4922
635.242423 70.133 13.9355
639.845651 70.101 14.3863
644.482237 70.070 14.8462
649.152421 70.040 15.3166
653.856447 70.011 15.7969
658.594560 69.982 16.2857
663.367008 69.955 16.7831
668.174039 69.928 17.2919
673.015903 69.902 17.8164
677.892854 69.876 18.3590
682.805145 69.852 18.9176
687.753032 69.829 19.4881
692.736774 69.808 20.0663
697.756631 69.790 20.6505
702.812863 69.773 21.2420
707.905735 69.758 21.8440
713.035511 69.743 22.4583
718.202461 69.730 23.0824
723.406852 69.718 23.7124
728.648956 69.707 24.3478
733.929047 69.699 24.9915
739.247399 69.692 25.6462
744.604290 69.687 26.3122
750.000000 69.685 26.9876
755.434809 69.685 27.6696
760.909001 69.688 28.3558
766.422861 69.694 29.0449
771.976677 69.703 29.7380
777.570739 69.715 30.4375
783.205337 69.729 31.1465
788.880766 69.745 31.8658
794.597321 69.763 32.5926
800.355301 69.784 33.3209
806.155005 69.808 34.0446
811.996736 69.835 34.7602
817.880799 69.865 35.4675
823.807501 69.897 36.1686
829.777150 69.932 36.8665
835.790057 69.970 37.5628
841.846536 70.009 38.2581
847.946903 70.051 38.9522
854.091476 70.096 39.6437
860.280575 70.143 40.3301
866.514523 70.194 41.0088
872.793644 70.246 41.6777
879.118267 70.301 42.3365
885.488720 70.359 42.9869
891.905336 70.420 43.6305
898.368450 70.484 44.2681
904.878398 70.551 44.8998
911.435520 70.620 45.5237
918.040157 70.691 46.1355
924.692655 70.765 46.7311
931.393359 70.839 47.3097
938.142619 70.916 47.8729
944.940787 70.994 48.4218
951.788218 71.074 48.9555
958.685268 71.157 49.4716
965.632296 71.241 49.9678
972.629666 71.328 50.4445
979.677741 71.415 50.9039
986.776890 71.505 51.3484
993.927482 71.595 51.7800
1001.129891 71.685 52.1998
1008.384491 71.775 52.6075
1015.691660 71.866 53.0007
1023.051781 71.957 53.3767
1030.465236 72.048 53.7341
1037.932411 72.139 54.0728
1045.453698 72.231 54.3939
1053.029486 72.323 54.6987
1060.660172 72.414 54.9878
1068.346153 72.506 55.2609
1076.087829 72.597 55.5179
1083.885605 72.689 55.7589
1091.739887 72.782 55.9847
1099.651084 72.874 56.1964
1107.619609 72.965 56.3956
1115.645878 73.055 56.5823
1123.730308 73.144 56.7548
1131.873321 73.231 56.9109
1140.075341 73.317 57.0497
1148.336797 73.402 57.1724
1156.658119 73.486 57.2813
1165.039741 73.568 57.3788
1173.482099 73.649 57.4675
1181.985634 73.730 57.5500
1190.550789 73.809 57.6288
1199.178011 73.887 57.7058
1207.867749 73.964 57.7812
1216.620457 74.040 57.8546
1225.436590 74.115 57.9259
1234.316609 74.189 57.9946
1243.260976 74.262 58.0593
1252.270157 74.334 58.1173
1261.344623 74.405 58.1673
1270.484846 74.475 58.2095
1279.691303 74.545 58.2459
1288.964474 74.614 58.2796
1298.304842 74.682 58.3136
1307.712894 74.750 58.3503
1317.189120 74.817 58.3897
1326.734016 74.884 58.4302
1336.348077 74.950 58.4702
1346.031806 75.016 58.5087
1355.785708 75.081 58.5461
1365.610290 75.145 58.5838
1375.506065 75.208 58.6227
1385.473549 75.271 58.6625
1395.513261 75.335 58.7023
1405.625726 75.398 58.7416
1415.811469 75.462 58.7801
1426.071023 75.526 58.8178
1436.404921 75.590 58.8552
1446.813703 75.655 58.8934
1457.297912 75.720 58.9332
1467.858093 75.785 58.9736
1478.494798 75.850 59.0132
1489.208581 75.915 59.0512
1500.000000 75.980 59.0874
1510.869618 76.047 59.1219
1521.818002 76.114 59.1549
1532.845723 76.182 59.1863
1543.953355 76.251 59.2155
1555.141477 76.321 59.2418
1566.410674 76.392 59.2644
1577.761531 76.463 59.2825
1589.194642 76.535 59.2952
1600.710601 76.608 59.3016
1612.310010 76.682 59.3015
1623.993473 76.756 59.2950
1635.761599 76.831 59.2825
1647.615002 76.907 59.2640
1659.554299 76.983 59.2392
1671.580114 77.060 59.2075
1683.693072 77.138 59.1678
1695.893807 77.217 59.1196
1708.182952 77.296 59.0627
1720.561150 77.376 58.9964
1733.029045 77.456 58.9196
1745.587288 77.537 58.8309
1758.236533 77.618 58.7295
1770.977440 77.700 58.6154
1783.810673 77.782 58.4896
1796.736900 77.864 58.3527
1809.756796 77.947 58.2053
1822.871040 78.030 58.0470
1836.080315 78.113 57.8771
1849.385310 78.196 57.6948
1862.786718 78.279 57.4999
1876.285239 78.362 57.2924
1889.881575 78.445 57.0723
1903.576436 78.527 56.8389
1917.370535 78.610 56.5914
1931.264593 78.692 56.3294
1945.259332 78.774 56.0524
1959.355483 78.855 55.7609
1973.553781 78.936 55.4552
1987.854965 79.016 55.1353
2002.259781 79.095 54.8004
2016.768981 79.174 54.4500
2031.383320 79.251 54.0841
2046.103561 79.328 53.7029
2060.930471 79.403 53.3065
2075.864823 79.477 52.8951
2090.907395 79.551 52.4693
2106.058972 79.622 52.0296
2121.320344 79.693 51.5766
2136.692305 79.762 51.1103
2152.175658 79.829 50.6306
2167.771210 79.895 50.1373
2183.479774 79.959 49.6302
2199.302169 80.021 49.1089
2215.239219 80.081 48.5734
2231.291755 80.139 48.0237
2247.460615 80.196 47.4602
2263.746641 80.250 46.8838
2280.150683 80.302 46.2959
2296.673595 80.352 45.6972
2313.316238 80.399 45.0878
2330.079481 80.445 44.4677
2346.964198 80.488 43.8372
2363.971268 80.528 43.1968
2381.101578 80.566 42.5464
2398.356022 80.601 41.8860
2415.735498 80.632 41.2155
2433.240913 80.661 40.5356
2450.873180 80.686 39.8476
2468.633217 80.708 39.1530
2486.521951 80.726 38.4540
2504.540314 80.741 37.7525
2522.689246 80.753 37.0508
2540.969692 80.760 36.3506
2559.382606 80.764 35.6541
2577.928947 80.765 34.9635
2596.609683 80.762 34.2813
2615.425787 80.755 33.6104
2634.378241 80.746 32.9538
2653.468031 80.735 32.3141
2672.696154 80.721 31.6933
2692.063613 80.707 31.0919
2711.571415 80.693 30.5089
2731.220579 80.679 29.9418
2751.012130 80.668 29.3869
2770.947098 80.658 28.8386
2791.026522 80.652 28.2905
2811.251451 80.648 27.7347
2831.622938 80.647 27.1629
2852.142045 80.648 26.5676
2872.809842 80.649 25.9426
2893.627406 80.650 25.2839
2914.595823 80.649 24.5903
2935.716186 80.645 23.8634
2956.989596 80.636 23.1073
2978.417161 80.622 22.3270
3000.000000 80.602 21.5283
3021.739237 80.577 20.7160
3043.636005 80.545 19.8952
3065.691446 80.508 19.0706
3087.906710 80.464 18.2467
3110.282955 80.415 17.4270
3132.821347 80.361 16.6143
3155.523062 80.302 15.8100
3178.389283 80.238 15.0144
3201.421202 80.170 14.2273
3224.620020 80.097 13.4487
3247.986946 80.020 12.6790
3271.523198 79.938 11.9188
3295.230004 79.851 11.1691
3319.108599 79.759 10.4315
3343.160228 79.662 9.7081
3367.386145 79.559 9.0026
3391.787613 79.450 8.3191
3416.365904 79.336 7.6619
3441.122300 79.217 7.0355
3466.058091 79.093 6.4440
3491.174576 78.964 5.8913
3516.473066 78.830 5.3808
3541.954880 78.692 4.9158
3567.621345 78.550 4.4994
3593.473800 78.405 4.1350
3619.513592 78.257 3.8256
3645.742080 78.108 3.5741
3672.160630 77.958 3.3828
3698.770620 77.809 3.2529
3725.573436 77.661 3.1848
3752.570477 77.515 3.1777
3779.763150 77.374 3.2305
3807.152872 77.237 3.3409
3834.741071 77.106 3.5044
3862.529185 76.981 3.7144
3890.518664 76.863 3.9636
3918.710966 76.753 4.2443
3947.107561 76.650 4.5486
3975.709929 76.554 4.8691
4004.519563 76.467 5.1995
4033.537962 76.388 5.5350
4062.766641 76.317 5.8707
4092.207123 76.254 6.2010
4121.860942 76.200 6.5191
4151.729646 76.155 6.8168
4181.814790 76.117 7.0851
4212.117944 76.088 7.3145
4242.640687 76.064 7.4955
4273.384610 76.045 7.6200
4304.351317 76.028 7.6816
4335.542421 76.012 7.6764
4366.959549 75.996 7.6037
4398.604338 75.975 7.4659
4430.478438 75.950 7.2681
4462.583511 75.917 7.0180
4494.921231 75.877 6.7254
4527.493283 75.826 6.4015
4560.301365 75.766 6.0586
4593.347189 75.695 5.7084
4626.632476 75.614 5.3628
4660.158962 75.522 5.0332
4693.928395 75.420 4.7313
4727.942535 75.308 4.4681
4762.203156 75.189 4.2531
4796.712043 75.062 4.0941
4831.470996 74.929 3.9967
4866.481826 74.791 3.9654
4901.746360 74.650 4.0028
4937.266434 74.506 4.1099
4973.043902 74.362 4.2862
5009.080628 74.219 4.5298
5045.378492 74.078 4.8379
5081.939384 73.939 5.2065
5118.765212 73.803 5.6315
5155.857894 73.671 6.1076
5193.219366 73.543 6.6296
5230.851574 73.420 7.1922
5268.756481 73.303 7.7913
5306.936062 73.191 8.4223
5345.392309 73.085 9.0803
5384.127225 72.985 9.7609
5423.142830 72.890 10.4615
5462.441159 72.800 11.1808
5502.024259 72.716 11.9174
5541.894195 72.636 12.6690
5582.053045 72.561 13.4331
5622.502902 72.490 14.2085
5663.245876 72.423 14.9949
5704.284090 72.360 15.7926
5745.619684 72.299 16.6024
5787.254813 72.241 17.4260
5829.191647 72.186 18.2657
5871.432373 72.135 19.1235
5913.979192 72.087 19.9997
5956.834323 72.043 20.8923
6000.000000 72.003 21.7986
6043.478473 71.967 22.7166
6087.272010 71.934 23.6453
6131.382892 71.905 24.5867
6175.813420 71.879 25.5446
6220.565910 71.856 26.5239
6265.642695 71.837 27.5286
6311.046124 71.821 28.5615
6356.778566 71.810 29.6253
6402.842404 71.805 30.7221
6449.240040 71.806 31.8538
6495.973891 71.814 33.0226
6543.046396 71.831 34.2317
6590.460007 71.856 35.4845
6638.217197 71.892 36.7844
6686.320456 71.939 38.1335
6734.772290 72.000 39.5326
6783.575226 72.075 40.9801
6832.731809 72.166 42.4721
6882.244600 72.276 44.0033
6932.116181 72.407 45.5667
6982.349153 72.563 47.1529
7032.946133 72.747 48.7481
7083.909760 72.960 50.3326
7135.242690 73.206 51.8817
7186.947600 73.487 53.3671
7239.027185 73.804 54.7580
7291.484160 74.159 56.0219
7344.321260 74.553 57.1235
7397.541239 74.986 58.0241
7451.146872 75.458 58.6803
7505.140954 75.969 59.0422
7559.526299 76.516 59.0528
7614.305743 77.095 58.6478
7669.482141 77.698 57.7584
7725.058371 78.314 56.3160
7781.037328 78.927 54.2606
7837.421932 79.518 51.5498
7894.215122 80.063 48.1700
7951.419859 80.539 44.1458
8009.039125 80.920 39.5462
8067.075924 81.186 34.4864
8125.533282 81.319 29.1232
8184.414245 81.310 23.6455
8243.721885 81.156 18.2564
8303.459292 80.867 13.1525
8363.629581 80.455 8.5040
8424.235888 79.944 4.4412
8485.281374 79.356 1.0489
8546.769221 78.717 -1.6334
8608.702634 78.052 -3.6064
8671.084842 77.384 -4.9030
8733.919097 76.731 -5.5809
8797.208675 76.109 -5.7141
8860.956876 75.528 -5.3853
8925.167022 74.996 -4.6793
8989.842461 74.515 -3.6771
9054.986566 74.087 -2.4532
9120.602731 73.711 -1.0739
9186.694378 73.384 0.4042
9253.264952 73.104 1.9342
9320.317925 72.866 3.4785
9387.856790 72.667 5.0069
9455.885071 72.502 6.4945
9524.406312 72.367 7.9225
9593.424086 72.255 9.2793
9662.941992 72.163 10.5606
9732.963653 72.087 11.7673
9803.492719 72.023 12.9041
9874.532869 71.969 13.9783
9946.087805 71.922 15.0005
10018.161257 71.880 15.9834
10090.756983 71.843 16.9402
10163.878768 71.811 17.8810
10237.530423 71.785 18.8106
10311.715789 71.766 19.7306
10386.438732 71.753 20.6422
10461.703149 71.746 21.5484
10537.512962 71.746 22.4527
10613.872125 71.754 23.3562
10690.784618 71.770 24.2579
10768.254450 71.794 25.1532
10846.285661 71.829 26.0334
10924.882318 71.874 26.8867
11004.048518 71.927 27.7006
11083.788390 71.989 28.4649
11164.106090 72.056 29.1741
11245.005805 72.126 29.8280
11326.491752 72.197 30.4320
11408.568180 72.266 30.9969
11491.239368 72.333 31.5387
11574.509626 72.396 32.0782
11658.383294 72.457 32.6403
11742.864745 72.516 33.2519
11827.958384 72.576 33.9402
11913.668646 72.641 34.7289
12000.000000 72.716 35.6364
12086.956947 72.807 36.6716
12174.544019 72.921 37.8314
12262.765784 73.067 39.0996
12351.626840 73.253 40.4487
12441.131819 73.485 41.8425
12531.285389 73.770 43.2368
12622.092249 74.112 44.5799
12713.557132 74.515 45.8162
12805.684808 74.985 46.8888
12898.480079 75.526 47.7391
12991.947783 76.146 48.3041
13086.092792 76.850 48.5088
13180.920015 77.644 48.2585
13276.434395 78.528 47.4325
13372.640911 79.494 45.8823
13469.544580 80.523 43.4399
13567.150452 81.579 39.9345
13665.463617 82.619 35.2174
13764.489200 83.586 29.1929
13864.232362 84.417 21.8511
13964.698305 85.048 13.3054
14065.892266 85.419 3.8252
14167.819519 85.487 -6.1521
14270.485380 85.234 -16.0704
14373.895200 84.676 -25.3717
14478.054370 83.856 -33.6098
14582.968320 82.831 -40.4964
14688.642520 81.667 -45.8924
14795.082478 80.433 -49.7844
14902.293745 79.196 -52.2641
15010.281908 78.026 -53.5130
15119.052599 76.986 -53.7863
15228.611486 76.133 -53.3957
15338.964283 75.511 -52.6930
15450.116741 75.144 -52.0534
15562.074656 75.035 -51.8579
15674.843864 75.157 -52.4696
15788.430244 75.462 -54.2051
15902.839718 75.876 -57.3036
16018.078250 76.316 -61.8977
16134.151848 76.691 -67.9883
16251.066563 76.917 -75.4232
16368.828491 76.920 -83.8830
16487.443769 76.648 -92.8982
16606.918584 76.081 -101.9215
16727.259161 75.228 -110.4390
16848.471777 74.121 -118.0506
16970.562748 72.802 -124.4911
17093.538442 71.317 -129.6161
17217.405268 69.711 -133.3801
17342.169684 68.029 -135.8163
17467.838194 66.309 -137.0195
17594.417350 64.591 -137.1279
17721.913751 62.908 -136.2997
17850.334044 61.288 -134.6955
17979.684923 59.755 -132.4687
18109.973131 58.322 -129.7605
18241.205462 56.997 -126.6993
18373.388756 55.777 -123.4026
18506.529905 54.652 -119.9699
18640.635849 53.613 -116.4674
18775.713581 52.649 -112.9356
18911.770141 51.757 -109.4230
19048.812624 50.932 -105.9966
19186.848172 50.168 -102.7141
19325.883983 49.460 -99.5882
19465.927305 48.802 -96.5746
19606.985439 48.193 -93.6212
19749.065738 47.656 -90.8032
19892.175609 47.238 -88.4497
20036.322514 47.006 -87.0742
