* Measurement data measured by REW V5.30.4
* Source: EXCL: Microphone (Realtek(R) Audio), MICROPHONE (Master Volume), L, volume: 1.000
* Format: 256k Log Swept Sine, 1 sweep at -15.0 dBFS with no timing reference
* Dated: Jan 14, 2024 12:45:35 AM
* REW Settings:
*  C-weighting compensation: Off
*  Target level: 75.0 dB
* Note: ROSE TECHNICS Ceramics Pop R
* Measurement: ROSE TECHNICS Ceramics P
* Smoothing: 1/12 octave
* Frequency Step: 96 ppo
* Start Frequency: 0.36621094 Hz
*
* Freq(Hz) SPL(dB) Phase(degrees)
0.366211 73.342 -168.4958
0.368865 73.370 -168.5785
0.371538 73.411 -168.7010
0.374230 73.462 -168.8519
0.376942 73.519 -169.0220
0.379673 73.580 -169.2041
0.382424 73.644 -169.3939
0.385196 73.710 -169.5884
0.387987 73.776 -169.7860
0.390798 73.843 -169.9858
0.393630 73.911 -170.1872
0.396483 73.980 -170.3900
0.399356 74.049 -170.5941
0.402250 74.119 -170.7992
0.405165 74.189 -171.0054
0.408101 74.259 -171.2125
0.411058 74.330 -171.4205
0.414037 74.402 -171.6294
0.417037 74.474 -171.8392
0.420059 74.547 -172.0497
0.423103 74.620 -172.2610
0.426169 74.694 -172.4731
0.429257 74.768 -172.6859
0.432367 74.843 -172.8993
0.435501 74.918 -173.1133
0.438656 74.994 -173.3280
0.441835 75.071 -173.5432
0.445037 75.148 -173.7590
0.448262 75.225 -173.9753
0.451510 75.303 -174.1921
0.454782 75.382 -174.4095
0.458077 75.461 -174.6273
0.461397 75.541 -174.8455
0.464740 75.622 -175.0642
0.468108 75.703 -175.2834
0.471500 75.784 -175.5029
0.474917 75.866 -175.7229
0.478358 75.949 -175.9433
0.481825 76.033 -176.1641
0.485316 76.117 -176.3854
0.488833 76.201 -176.6070
0.492375 76.286 -176.8291
0.495943 76.372 -177.0516
0.499537 76.459 -177.2745
0.503157 76.546 -177.4979
0.506803 76.634 -177.7217
0.510475 76.722 -177.9460
0.514174 76.811 -178.1708
0.517900 76.901 -178.3962
0.521653 76.991 -178.6221
0.525433 77.082 -178.8486
0.529241 77.173 -179.0756
0.533076 77.266 -179.3033
0.536939 77.359 -179.5317
0.540830 77.452 -179.7608
0.544749 77.547 -179.9906
0.548696 77.642 179.7788
0.552673 77.737 179.5474
0.556677 77.834 179.3151
0.560711 77.931 179.0819
0.564774 78.028 178.8477
0.568867 78.127 178.6125
0.572989 78.226 178.3762
0.577141 78.326 178.1388
0.581324 78.427 177.9001
0.585536 78.528 177.6603
0.589779 78.630 177.4190
0.594053 78.733 177.1764
0.598358 78.837 176.9323
0.602694 78.941 176.6866
0.607061 79.046 176.4394
0.611460 79.152 176.1904
0.615891 79.258 175.9397
0.620354 79.366 175.6871
0.624849 79.474 175.4325
0.629377 79.583 175.1759
0.633938 79.693 174.9172
0.638532 79.803 174.6562
0.643159 79.915 174.3929
0.647819 80.027 174.1272
0.652514 80.140 173.8590
0.657242 80.254 173.5881
0.662005 80.368 173.3145
0.666802 80.484 173.0380
0.671634 80.600 172.7585
0.676501 80.717 172.4759
0.681403 80.835 172.1901
0.686341 80.954 171.9010
0.691314 81.073 171.6084
0.696324 81.194 171.3122
0.701369 81.315 171.0123
0.706452 81.436 170.7086
0.711571 81.557 170.4011
0.716727 81.678 170.0896
0.721921 81.798 169.7744
0.727153 81.915 169.4555
0.732422 82.030 169.1333
0.737729 82.142 168.8082
0.743075 82.251 168.4807
0.748460 82.357 168.1512
0.753883 82.461 167.8202
0.759346 82.565 167.4878
0.764849 82.668 167.1544
0.770391 82.770 166.8201
0.775974 82.872 166.4851
0.781597 82.973 166.1495
0.787261 83.074 165.8134
0.792965 83.175 165.4770
0.798712 83.276 165.1403
0.804499 83.376 164.8035
0.810329 83.476 164.4666
0.816201 83.576 164.1296
0.822116 83.676 163.7926
0.828073 83.776 163.4558
0.834073 83.875 163.1191
0.840118 83.974 162.7825
0.846205 84.073 162.4462
0.852337 84.171 162.1102
0.858514 84.270 161.7744
0.864735 84.368 161.4388
0.871001 84.466 161.1035
0.877313 84.564 160.7685
0.883670 84.661 160.4338
0.890074 84.758 160.0992
0.896523 84.856 159.7650
0.903020 84.953 159.4308
0.909564 85.049 159.0968
0.916155 85.146 158.7629
0.922793 85.243 158.4291
0.929480 85.339 158.0953
0.936216 85.435 157.7613
0.943000 85.532 157.4272
0.949833 85.628 157.0929
0.956716 85.724 156.7583
0.963649 85.820 156.4232
0.970632 85.916 156.0877
0.977666 86.012 155.7515
0.984750 86.108 155.4146
0.991886 86.203 155.0768
0.999074 86.299 154.7381
1.006313 86.395 154.3983
1.013605 86.491 154.0573
1.020950 86.588 153.7148
1.028349 86.684 153.3708
1.035801 86.780 153.0250
1.043306 86.877 152.6774
1.050867 86.974 152.3276
1.058482 87.071 151.9756
1.066152 87.168 151.6211
1.073878 87.265 151.2637
1.081659 87.363 150.9033
1.089498 87.461 150.5395
1.097393 87.559 150.1718
1.105345 87.656 149.8000
1.113355 87.754 149.4239
1.121422 87.851 149.0432
1.129549 87.948 148.6581
1.137734 88.045 148.2685
1.145978 88.141 147.8747
1.154283 88.236 147.4770
1.162647 88.331 147.0756
1.171072 88.426 146.6707
1.179558 88.520 146.2628
1.188106 88.614 145.8520
1.196715 88.707 145.4387
1.205387 88.800 145.0231
1.214122 88.892 144.6055
1.222920 88.984 144.1863
1.231781 89.075 143.7656
1.240708 89.166 143.3437
1.249698 89.256 142.9210
1.258754 89.346 142.4975
1.267875 89.436 142.0737
1.277063 89.526 141.6496
1.286317 89.614 141.2256
1.295638 89.703 140.8020
1.305027 89.791 140.3788
1.314484 89.879 139.9564
1.324009 89.967 139.5348
1.333603 90.054 139.1144
1.343267 90.141 138.6954
1.353001 90.228 138.2778
1.362805 90.315 137.8619
1.372681 90.401 137.4479
1.382628 90.487 137.0359
1.392647 90.573 136.6260
1.402739 90.659 136.2184
1.412904 90.745 135.8131
1.423142 90.831 135.4101
1.433455 90.917 135.0092
1.443842 91.002 134.6102
1.454305 91.088 134.2125
1.464843 91.173 133.8155
1.475458 91.258 133.4183
1.486150 91.342 133.0201
1.496919 91.425 132.6202
1.507766 91.509 132.2184
1.518692 91.591 131.8145
1.529697 91.673 131.4083
1.540782 91.754 131.0002
1.551947 91.834 130.5902
1.563193 91.913 130.1785
1.574521 91.992 129.7654
1.585931 92.071 129.3512
1.597423 92.148 128.9361
1.608998 92.225 128.5203
1.620658 92.301 128.1041
1.632402 92.377 127.6877
1.644231 92.452 127.2715
1.656146 92.527 126.8557
1.668147 92.601 126.4404
1.680235 92.674 126.0260
1.692410 92.747 125.6127
1.704674 92.820 125.2008
1.717027 92.892 124.7905
1.729469 92.964 124.3820
1.742002 93.035 123.9755
1.754625 93.106 123.5712
1.767340 93.176 123.1693
1.780147 93.247 122.7698
1.793046 93.316 122.3725
1.806040 93.386 121.9772
1.819127 93.455 121.5834
1.832309 93.524 121.1902
1.845587 93.592 120.7968
1.858961 93.659 120.4021
1.872431 93.726 120.0056
1.886000 93.792 119.6070
1.899666 93.856 119.2062
1.913432 93.920 118.8033
1.927298 93.983 118.3987
1.941264 94.046 117.9927
1.955331 94.107 117.5859
1.969500 94.168 117.1786
1.983772 94.227 116.7714
1.998147 94.287 116.3648
2.012626 94.345 115.9594
2.027211 94.403 115.5556
2.041901 94.460 115.1542
2.056697 94.517 114.7557
2.071601 94.573 114.3607
2.086613 94.629 113.9697
2.101733 94.684 113.5833
2.116963 94.739 113.2021
2.132303 94.794 112.8265
2.147755 94.848 112.4569
2.163318 94.902 112.0934
2.178995 94.955 111.7357
2.194785 95.009 111.3836
2.210689 95.061 111.0360
2.226709 95.113 110.6923
2.242844 95.164 110.3516
2.259097 95.214 110.0135
2.275467 95.264 109.6777
2.291956 95.313 109.3443
2.308565 95.360 109.0132
2.325294 95.408 108.6847
2.342144 95.454 108.3591
2.359116 95.500 108.0368
2.376211 95.545 107.7182
2.393430 95.590 107.4036
2.410774 95.635 107.0934
2.428243 95.679 106.7882
2.445839 95.723 106.4885
2.463562 95.767 106.1946
2.481415 95.811 105.9072
2.499396 95.855 105.6266
2.517508 95.899 105.3533
2.535750 95.944 105.0875
2.554126 95.988 104.8294
2.572634 96.032 104.5790
2.591276 96.077 104.3362
2.610054 96.120 104.1005
2.628967 96.164 103.8719
2.648018 96.207 103.6498
2.667206 96.250 103.4341
2.686534 96.293 103.2244
2.706002 96.336 103.0205
2.725610 96.379 102.8223
2.745361 96.421 102.6293
2.765255 96.464 102.4415
2.785294 96.507 102.2587
2.805477 96.551 102.0806
2.825807 96.595 101.9072
2.846284 96.639 101.7383
2.866909 96.685 101.5741
2.887684 96.731 101.4146
2.908609 96.778 101.2600
2.929686 96.826 101.1108
2.950916 96.874 100.9676
2.972299 96.923 100.8305
2.993838 96.973 100.6997
3.015532 97.024 100.5751
3.037384 97.075 100.4562
3.059394 97.126 100.3424
3.081564 97.179 100.2331
3.103894 97.232 100.1273
3.126386 97.286 100.0244
3.149041 97.340 99.9235
3.171861 97.396 99.8236
3.194845 97.452 99.7242
3.217996 97.510 99.6245
3.241315 97.568 99.5242
3.264803 97.627 99.4231
3.288461 97.687 99.3215
3.312291 97.749 99.2199
3.336293 97.812 99.1187
3.360469 97.875 99.0184
3.384820 97.940 98.9190
3.409348 98.006 98.8202
3.434054 98.073 98.7213
3.458938 98.141 98.6215
3.484003 98.210 98.5199
3.509250 98.279 98.4156
3.534679 98.349 98.3076
3.560293 98.420 98.1950
3.586092 98.491 98.0769
3.612079 98.563 97.9527
3.638253 98.635 97.8222
3.664618 98.707 97.6852
3.691173 98.781 97.5421
3.717921 98.854 97.3933
3.744862 98.929 97.2390
3.771999 99.003 97.0795
3.799332 99.079 96.9149
3.826864 99.154 96.7452
3.854595 99.230 96.5703
3.882527 99.306 96.3900
3.910661 99.382 96.2042
3.938999 99.458 96.0125
3.967543 99.533 95.8148
3.996294 99.608 95.6106
4.025252 99.683 95.3999
4.054421 99.757 95.1825
4.083801 99.831 94.9583
4.113394 99.905 94.7278
4.143201 99.978 94.4911
4.173225 100.050 94.2489
4.203466 100.122 94.0017
4.233926 100.194 93.7503
4.264606 100.265 93.4952
4.295509 100.335 93.2369
4.326636 100.404 92.9756
4.357989 100.473 92.7116
4.389569 100.540 92.4447
4.421378 100.607 92.1747
4.453417 100.673 91.9012
4.485688 100.737 91.6245
4.518193 100.801 91.3449
4.550934 100.863 91.0630
4.583912 100.925 90.7797
4.617129 100.986 90.4960
4.650587 101.046 90.2127
4.684287 101.105 89.9306
4.718231 101.163 89.6502
4.752421 101.221 89.3719
4.786859 101.277 89.0954
4.821547 101.332 88.8206
4.856485 101.387 88.5474
4.891677 101.441 88.2759
4.927125 101.493 88.0064
4.962829 101.545 87.7395
4.998791 101.597 87.4756
5.035015 101.648 87.2154
5.071500 101.698 86.9594
5.108251 101.748 86.7079
5.145267 101.798 86.4612
5.182552 101.848 86.2192
5.220107 101.897 85.9816
5.257934 101.945 85.7483
5.296035 101.994 85.5190
5.334412 102.042 85.2935
5.373067 102.090 85.0717
5.412003 102.138 84.8535
5.451221 102.187 84.6389
5.490722 102.235 84.4281
5.530510 102.284 84.2208
5.570587 102.334 84.0171
5.610953 102.383 83.8167
5.651613 102.433 83.6190
5.692567 102.483 83.4234
5.733818 102.533 83.2293
5.775367 102.583 83.0360
5.817218 102.634 82.8432
5.859372 102.686 82.6504
5.901831 102.738 82.4576
5.944598 102.790 82.2647
5.987675 102.843 82.0714
6.031065 102.896 81.8773
6.074768 102.949 81.6818
6.118788 103.003 81.4845
6.163127 103.057 81.2847
6.207788 103.111 81.0821
6.252772 103.165 80.8764
6.298082 103.219 80.6675
6.343721 103.273 80.4556
6.389690 103.327 80.2406
6.435992 103.381 80.0226
6.482630 103.435 79.8015
6.529606 103.488 79.5775
6.576922 103.541 79.3503
6.624581 103.593 79.1201
6.672585 103.646 78.8869
6.720938 103.697 78.6509
6.769640 103.748 78.4125
6.818696 103.799 78.1724
6.868107 103.849 77.9308
6.917876 103.898 77.6883
6.968006 103.946 77.4451
7.018499 103.994 77.2013
7.069358 104.041 76.9573
7.120586 104.087 76.7134
7.172184 104.133 76.4702
7.224157 104.178 76.2280
7.276506 104.222 75.9875
7.329235 104.266 75.7491
7.382345 104.309 75.5129
7.435841 104.352 75.2791
7.489724 104.395 75.0477
7.543997 104.436 74.8189
7.598664 104.478 74.5928
7.653728 104.519 74.3697
7.709189 104.560 74.1496
7.765053 104.602 73.9324
7.821322 104.642 73.7180
7.877998 104.683 73.5061
7.935086 104.724 73.2965
7.992587 104.765 73.0888
8.050504 104.806 72.8828
8.108841 104.848 72.6783
8.167601 104.889 72.4748
8.226787 104.931 72.2720
8.286402 104.972 72.0696
8.346449 105.014 71.8669
8.406931 105.056 71.6636
8.467851 105.098 71.4593
8.529212 105.141 71.2538
8.591018 105.183 71.0468
8.653272 105.225 70.8381
8.715977 105.267 70.6275
8.779137 105.309 70.4146
8.842754 105.351 70.1994
8.906833 105.392 69.9819
8.971375 105.434 69.7623
9.036386 105.474 69.5405
9.101867 105.515 69.3168
9.167823 105.554 69.0914
9.234257 105.594 68.8644
9.301172 105.632 68.6361
9.368572 105.670 68.4070
9.436460 105.707 68.1773
9.504841 105.744 67.9477
9.573717 105.780 67.7184
9.643092 105.815 67.4897
9.712970 105.849 67.2621
9.783354 105.883 67.0359
9.854248 105.916 66.8116
9.925656 105.949 66.5895
9.997581 105.980 66.3700
10.070028 106.012 66.1531
10.143000 106.042 65.9392
10.216500 106.073 65.7284
10.290533 106.102 65.5209
10.365103 106.132 65.3168
10.440212 106.161 65.1161
10.515866 106.190 64.9189
10.592069 106.218 64.7250
10.668823 106.247 64.5345
10.746134 106.275 64.3472
10.824005 106.303 64.1631
10.902440 106.331 63.9821
10.981443 106.359 63.8040
11.061020 106.386 63.6288
11.141172 106.414 63.4563
11.221906 106.441 63.2863
11.303225 106.469 63.1188
11.385133 106.496 62.9537
11.467634 106.524 62.7909
11.550734 106.551 62.6302
11.634435 106.578 62.4717
11.718742 106.605 62.3152
11.803661 106.633 62.1608
11.889195 106.660 62.0082
11.975349 106.687 61.8575
12.062128 106.714 61.7085
12.149535 106.741 61.5613
12.237576 106.768 61.4157
12.326254 106.795 61.2717
12.415575 106.822 61.1291
12.505544 106.849 60.9879
12.596164 106.876 60.8479
12.687441 106.903 60.7091
12.779379 106.930 60.5712
12.871984 106.956 60.4342
12.965260 106.983 60.2979
13.059211 107.010 60.1623
13.153843 107.036 60.0271
13.249161 107.063 59.8922
13.345170 107.089 59.7577
13.441875 107.115 59.6234
13.539280 107.141 59.4894
13.637391 107.166 59.3557
13.736214 107.191 59.2224
13.835752 107.216 59.0898
13.936011 107.240 58.9582
14.036998 107.264 58.8278
14.138716 107.287 58.6991
14.241171 107.310 58.5726
14.344368 107.332 58.4489
14.448313 107.354 58.3287
14.553011 107.375 58.2124
14.658468 107.395 58.1008
14.764689 107.415 57.9944
14.871680 107.435 57.8937
14.979446 107.455 57.7990
15.087994 107.474 57.7105
15.197328 107.494 57.6284
15.307454 107.514 57.5522
15.418378 107.534 57.4815
15.530106 107.555 57.4159
15.642643 107.577 57.3542
15.755996 107.599 57.2955
15.870171 107.623 57.2386
15.985172 107.647 57.1824
16.101007 107.671 57.1255
16.217682 107.696 57.0670
16.335201 107.722 57.0059
16.453573 107.748 56.9416
16.572803 107.774 56.8739
16.692898 107.800 56.8027
16.813862 107.826 56.7286
16.935701 107.851 56.6523
17.058424 107.875 56.5749
17.182035 107.898 56.4978
17.306543 107.921 56.4223
17.431953 107.943 56.3500
17.558273 107.965 56.2822
17.685509 107.986 56.2199
17.813665 108.006 56.1641
17.942751 108.027 56.1152
18.072771 108.048 56.0731
18.203733 108.069 56.0375
18.335646 108.091 56.0077
18.468513 108.114 55.9825
18.602345 108.138 55.9609
18.737144 108.162 55.9415
18.872921 108.188 55.9232
19.009682 108.214 55.9051
19.147434 108.241 55.8864
19.286184 108.268 55.8668
19.425940 108.296 55.8461
19.566708 108.324 55.8245
19.708496 108.353 55.8023
19.851313 108.381 55.7800
19.995163 108.410 55.7579
20.140057 108.440 55.7363
20.285999 108.469 55.7153
20.433001 108.499 55.6949
20.581066 108.529 55.6747
20.730206 108.560 55.6546
20.880424 108.591 55.6341
21.031733 108.622 55.6129
21.184137 108.654 55.5908
21.337646 108.686 55.5680
21.492268 108.718 55.5447
21.648010 108.750 55.5211
21.804880 108.783 55.4979
21.962887 108.815 55.4751
22.122040 108.848 55.4531
22.282345 108.881 55.4316
22.443811 108.915 55.4102
22.606449 108.949 55.3879
22.770266 108.984 55.3637
22.935268 109.019 55.3365
23.101467 109.055 55.3051
23.268869 109.090 55.2689
23.437485 109.126 55.2277
23.607323 109.161 55.1817
23.778391 109.195 55.1319
23.950699 109.229 55.0798
24.124256 109.261 55.0270
24.299070 109.293 54.9751
24.475151 109.325 54.9256
24.652508 109.356 54.8794
24.831150 109.387 54.8367
25.011087 109.418 54.7970
25.192327 109.449 54.7594
25.374882 109.481 54.7222
25.558758 109.513 54.6840
25.743967 109.545 54.6433
25.930519 109.578 54.5991
26.118422 109.611 54.5508
26.307686 109.644 54.4987
26.498322 109.676 54.4435
26.690340 109.708 54.3863
26.883749 109.739 54.3281
27.078560 109.771 54.2702
27.274782 109.802 54.2133
27.472427 109.833 54.1577
27.671503 109.865 54.1033
27.872023 109.897 54.0492
28.073996 109.931 53.9943
28.277431 109.965 53.9366
28.482342 110.000 53.8743
28.688736 110.036 53.8049
28.896626 110.073 53.7263
29.106022 110.111 53.6365
29.316936 110.149 53.5342
29.529379 110.186 53.4191
29.743361 110.222 53.2921
29.958893 110.257 53.1553
30.175987 110.290 53.0121
30.394655 110.321 52.8667
30.614908 110.350 52.7237
30.836756 110.377 52.5874
31.060211 110.403 52.4608
31.285286 110.429 52.3456
31.511992 110.455 52.2416
31.740341 110.481 52.1469
31.970345 110.509 52.0582
32.202015 110.538 51.9719
32.435364 110.567 51.8844
32.670403 110.598 51.7931
32.907146 110.629 51.6964
33.145607 110.660 51.5941
33.385796 110.690 51.4865
33.627724 110.720 51.3750
33.871403 110.749 51.2604
34.116848 110.777 51.1438
34.364071 110.804 51.0255
34.613087 110.831 50.9058
34.863907 110.857 50.7846
35.116547 110.882 50.6621
35.371017 110.906 50.5383
35.627331 110.930 50.4134
35.885502 110.953 50.2872
36.145542 110.975 50.1597
36.407467 110.997 50.0305
36.671291 111.018 49.8992
36.937027 111.039 49.7658
37.204689 111.058 49.6304
37.474289 111.078 49.4935
37.745842 111.096 49.3560
38.019363 111.115 49.2185
38.294868 111.132 49.0819
38.572369 111.150 48.9463
38.851879 111.168 48.8117
39.133415 111.186 48.6776
39.416992 111.204 48.5435
39.702625 111.222 48.4083
39.990326 111.241 48.2717
40.280113 111.259 48.1334
40.571999 111.277 47.9941
40.866001 111.294 47.8555
41.162132 111.311 47.7198
41.460411 111.327 47.5896
41.760849 111.342 47.4667
42.063465 111.357 47.3514
42.368275 111.372 47.2422
42.675293 111.386 47.1368
42.984535 111.401 47.0331
43.296021 111.415 46.9315
43.609760 111.427 46.8344
43.925774 111.438 46.7458
44.244080 111.449 46.6685
44.564690 111.460 46.6017
44.887623 111.472 46.5395
45.212898 111.485 46.4728
45.540531 111.500 46.3927
45.870537 111.514 46.2945
46.202934 111.526 46.1794
46.537739 111.535 46.0536
46.874969 111.542 45.9242
47.214645 111.547 45.7953
47.556782 111.550 45.6672
47.901398 111.553 45.5378
48.248512 111.554 45.4072
48.598141 111.553 45.2799
48.950302 111.551 45.1640
49.305016 111.548 45.0663
49.662300 111.548 44.9867
50.022175 111.551 44.9152
50.384655 111.559 44.8359
50.749763 111.569 44.7336
51.117516 111.579 44.6017
51.487934 111.586 44.4460
51.861038 111.587 44.2828
52.236843 111.583 44.1323
52.615372 111.576 44.0110
52.996643 111.568 43.9260
53.380680 111.561 43.8725
53.767498 111.558 43.8364
54.157120 111.559 43.7995
54.549564 111.563 43.7457
54.944855 111.567 43.6661
55.343006 111.569 43.5613
55.744045 111.569 43.4397
56.147991 111.565 43.3119
56.554863 111.559 43.1863
56.964684 111.552 43.0653
57.377472 111.544 42.9468
57.793251 111.536 42.8274
58.212044 111.527 42.7073
58.633873 111.518 42.5916
59.058758 111.508 42.4877
59.486721 111.499 42.3999
59.917786 111.492 42.3255
60.351974 111.488 42.2554
60.789310 111.486 42.1797
61.229816 111.484 42.0937
61.673512 111.481 42.0004
62.120422 111.475 41.9081
62.570572 111.467 41.8243
63.023983 111.457 41.7532
63.480682 111.445 41.6958
63.940689 111.432 41.6522
64.404030 111.417 41.6216
64.870728 111.403 41.6007
65.340805 111.389 41.5829
65.814293 111.375 41.5607
66.291214 111.360 41.5300
66.771591 111.344 41.4920
67.255447 111.328 41.4509
67.742805 111.310 41.4093
68.233696 111.293 41.3669
68.728142 111.276 41.3218
69.226173 111.259 41.2738
69.727814 111.241 41.2254
70.233093 111.223 41.1803
70.742035 111.204 41.1409
71.254662 111.185 41.1068
71.771004 111.166 41.0755
72.291084 111.147 41.0442
72.814934 111.127 41.0114
73.342583 111.105 40.9776
73.874054 111.081 40.9431
74.409378 111.055 40.9085
74.948578 111.027 40.8753
75.491684 110.997 40.8485
76.038727 110.965 40.8353
76.589737 110.934 40.8394
77.144737 110.904 40.8561
77.703758 110.877 40.8730
78.266830 110.853 40.8773
78.833984 110.830 40.8630
79.405251 110.807 40.8331
79.980652 110.781 40.7956
80.560226 110.753 40.7596
81.143997 110.723 40.7339
81.732002 110.691 40.7249
82.324265 110.659 40.7344
82.920822 110.627 40.7581
83.521698 110.596 40.7887
84.126930 110.564 40.8203
84.736549 110.531 40.8509
85.350586 110.497 40.8810
85.969070 110.460 40.9121
86.592041 110.421 40.9463
87.219521 110.380 40.9859
87.851547 110.338 41.0326
88.488159 110.295 41.0859
89.129379 110.251 41.1432
89.775246 110.208 41.2014
90.425797 110.166 41.2589
91.081062 110.124 41.3166
91.741074 110.083 41.3764
92.405869 110.043 41.4385
93.075478 110.004 41.4996
93.749939 109.965 41.5571
94.429291 109.924 41.6140
95.113564 109.880 41.6789
95.802795 109.833 41.7588
96.497025 109.784 41.8542
97.196281 109.733 41.9608
97.900604 109.682 42.0737
98.610031 109.630 42.1894
99.324600 109.580 42.3067
100.044350 109.531 42.4249
100.769310 109.485 42.5450
101.499527 109.442 42.6715
102.235031 109.401 42.8114
102.975868 109.363 42.9669
103.722076 109.328 43.1302
104.473686 109.294 43.2863
105.230743 109.259 43.4173
105.993286 109.221 43.5068
106.761360 109.176 43.5442
107.534996 109.121 43.5388
108.314240 109.053 43.5326
109.099129 108.976 43.5862
109.889709 108.898 43.7367
110.686012 108.824 43.9774
111.488091 108.753 44.2868
112.295982 108.680 44.6595
113.109726 108.600 45.0982
113.929367 108.508 45.5894
114.754944 108.398 46.1034
115.586502 108.267 46.6165
116.424088 108.114 47.1312
117.267746 107.946 47.6752
118.117516 107.782 48.2809
118.973442 107.648 48.9336
119.835571 107.567 49.5097
120.703949 107.543 49.8247
121.578621 107.554 49.8076
122.459633 107.572 49.5716
123.347023 107.577 49.3044
124.240845 107.564 49.1531
125.141144 107.529 49.1883
126.047966 107.475 49.4057
126.961365 107.406 49.7484
127.881378 107.325 50.1391
128.808060 107.235 50.5120
129.741455 107.141 50.8358
130.681610 107.045 51.1164
131.628586 106.950 51.3824
132.582428 106.857 51.6711
133.543182 106.764 52.0152
134.510895 106.673 52.4324
135.485611 106.582 52.9164
136.467392 106.497 53.4312
137.456284 106.420 53.9200
138.452347 106.354 54.3285
139.455627 106.298 54.6241
140.466187 106.248 54.8138
141.484070 106.192 54.9588
142.509323 106.120 55.1733
143.542007 106.025 55.5964
144.582169 105.912 56.3204
145.629868 105.788 57.3332
146.685165 105.660 58.5459
147.748108 105.532 59.8517
148.818756 105.406 61.1519
149.897156 105.284 62.3604
150.983368 105.169 63.4116
152.077454 105.058 64.2962
153.179474 104.952 65.0864
154.289474 104.856 65.8875
155.407516 104.778 66.7657
156.533661 104.721 67.7315
157.667969 104.677 68.7737
158.810501 104.634 69.9061
159.961304 104.586 71.1543
161.120453 104.539 72.4766
162.287994 104.500 73.7176
163.464005 104.470 74.6642
164.648529 104.440 75.1911
165.841644 104.397 75.3630
167.043396 104.341 75.3676
168.253860 104.278 75.3889
169.473099 104.213 75.5426
170.701172 104.148 75.8658
171.938141 104.081 76.3380
173.184082 104.007 76.9155
174.439041 103.925 77.5559
175.703094 103.836 78.2304
176.976318 103.743 78.9299
178.258759 103.649 79.6603
179.550491 103.557 80.4333
180.851593 103.466 81.2545
182.162125 103.376 82.1181
183.482147 103.288 83.0118
184.811737 103.202 83.9225
186.150955 103.122 84.8373
187.499878 103.046 85.7471
188.858582 102.973 86.6545
190.227127 102.901 87.5703
191.605591 102.829 88.5040
192.994049 102.755 89.4588
194.392563 102.680 90.4306
195.801208 102.605 91.4138
197.220062 102.529 92.4055
198.649200 102.454 93.4049
200.088699 102.379 94.4143
201.538620 102.305 95.4388
202.999054 102.230 96.4807
204.470062 102.156 97.5369
205.951736 102.084 98.6029
207.444153 102.013 99.6754
208.947372 101.946 100.7501
210.461487 101.881 101.8260
211.986572 101.817 102.9085
213.522720 101.756 104.0015
215.069992 101.694 105.1029
216.628479 101.633 106.2115
218.198257 101.571 107.3282
219.779419 101.508 108.4523
221.372025 101.445 109.5831
222.976181 101.382 110.7227
224.591965 101.319 111.8724
226.219452 101.257 113.0288
227.858734 101.195 114.1889
229.509888 101.133 115.3557
231.173004 101.072 116.5351
232.848175 101.011 117.7294
234.535492 100.952 118.9357
236.235031 100.892 120.1513
237.946884 100.831 121.3784
239.671143 100.770 122.6224
241.407898 100.708 123.8854
243.157242 100.644 125.1620
244.919266 100.579 126.4434
246.694046 100.514 127.7217
248.481689 100.452 128.9850
250.282288 100.395 130.2167
252.095932 100.343 131.4102
253.922729 100.292 132.5761
255.762756 100.239 133.7326
257.616119 100.185 134.8972
259.482910 100.132 136.0879
261.363220 100.081 137.3300
263.257172 100.037 138.6573
265.164856 99.998 140.0945
267.086365 99.964 141.6248
269.021790 99.933 143.1880
270.971222 99.904 144.7202
272.934784 99.878 146.1848
274.912567 99.855 147.5754
276.904694 99.835 148.9007
278.911255 99.813 150.1743
280.932373 99.788 151.4137
282.968140 99.758 152.6391
285.018646 99.725 153.8703
287.084015 99.689 155.1212
289.164337 99.652 156.3955
291.259735 99.612 157.6902
293.370331 99.569 159.0019
295.496216 99.524 160.3295
297.637512 99.478 161.6714
299.794312 99.432 163.0226
301.966736 99.386 164.3760
304.154907 99.340 165.7277
306.358948 99.294 167.0821
308.578949 99.247 168.4517
310.815033 99.197 169.8502
313.067322 99.142 171.2841
315.335938 99.084 172.7476
317.621002 99.023 174.2277
319.922607 98.962 175.7153
322.240906 98.904 177.2080
324.575989 98.850 178.7086
326.928009 98.801 -179.7783
329.297058 98.754 -178.2489
331.683289 98.709 -176.7038
334.086792 98.664 -175.1469
336.507721 98.617 -173.5823
338.946198 98.569 -172.0119
341.402344 98.519 -170.4353
343.876282 98.470 -168.8521
346.368164 98.423 -167.2613
348.878082 98.378 -165.6612
351.406189 98.334 -164.0498
353.952637 98.291 -162.4245
356.517517 98.249 -160.7829
359.100983 98.207 -159.1229
361.703186 98.166 -157.4451
364.324249 98.124 -155.7529
366.964294 98.082 -154.0499
369.623474 98.040 -152.3382
372.301910 97.998 -150.6188
374.999756 97.956 -148.8925
377.717163 97.915 -147.1592
380.454254 97.875 -145.4173
383.211182 97.836 -143.6645
385.988098 97.797 -141.8989
388.785126 97.760 -140.1197
391.602417 97.724 -138.3271
394.440125 97.688 -136.5218
397.298401 97.655 -134.7044
400.177399 97.622 -132.8758
403.077240 97.590 -131.0370
405.998108 97.559 -129.1895
408.940125 97.529 -127.3338
411.903473 97.499 -125.4693
414.888306 97.470 -123.5947
417.894745 97.441 -121.7101
420.922974 97.413 -119.8161
423.973145 97.386 -117.9140
427.045441 97.360 -116.0048
430.139984 97.336 -114.0894
433.256958 97.312 -112.1686
436.396515 97.290 -110.2414
439.558838 97.268 -108.3059
442.744049 97.247 -106.3608
445.952362 97.227 -104.4056
449.183929 97.208 -102.4407
452.438904 97.188 -100.4665
455.717468 97.169 -98.4827
459.019775 97.150 -96.4891
462.346008 97.131 -94.4859
465.696350 97.113 -92.4744
469.070984 97.095 -90.4559
472.470062 97.078 -88.4302
475.893768 97.062 -86.3978
479.342285 97.046 -84.3603
482.815796 97.032 -82.3195
486.314484 97.017 -80.2755
489.838531 97.004 -78.2270
493.388092 96.991 -76.1723
496.963379 96.979 -74.1093
500.564575 96.967 -72.0355
504.191864 96.956 -69.9485
507.845459 96.944 -67.8466
511.525513 96.933 -65.7299
515.232239 96.921 -63.6003
518.965820 96.910 -61.4609
522.726440 96.898 -59.3144
526.514343 96.887 -57.1625
530.329712 96.875 -55.0052
534.172729 96.864 -52.8411
538.043579 96.854 -50.6679
541.942444 96.844 -48.4832
545.869568 96.835 -46.2861
549.825134 96.827 -44.0769
553.809387 96.819 -41.8558
557.822510 96.811 -39.6241
561.864746 96.803 -37.3855
565.936279 96.796 -35.1415
570.037292 96.789 -32.8887
574.168030 96.782 -30.6223
578.328674 96.775 -28.3402
582.519470 96.768 -26.0441
586.740662 96.761 -23.7363
590.992432 96.755 -21.4182
595.275024 96.749 -19.0913
599.588623 96.743 -16.7552
603.933472 96.737 -14.4084
608.309814 96.731 -12.0490
612.717896 96.725 -9.6758
617.157898 96.719 -7.2884
621.630066 96.715 -4.8867
626.134644 96.712 -2.4706
630.671875 96.710 -0.0395
635.242004 96.710 2.4064
639.845215 96.710 4.8664
644.481812 96.710 7.3387
649.151978 96.710 9.8227
653.856018 96.710 12.3184
658.594116 96.710 14.8256
663.366577 96.711 17.3447
668.173584 96.712 19.8775
673.015442 96.714 22.4262
677.892395 96.716 24.9927
682.804688 96.719 27.5783
687.752563 96.723 30.1829
692.736328 96.728 32.8051
697.756165 96.733 35.4431
702.812378 96.740 38.0947
707.905273 96.749 40.7584
713.035034 96.758 43.4338
718.201965 96.769 46.1212
723.406372 96.780 48.8212
728.648499 96.792 51.5340
733.928589 96.805 54.2602
739.246948 96.819 57.0009
744.603821 96.834 59.7557
749.999512 96.850 62.5236
755.434326 96.868 65.3029
760.908508 96.887 68.0925
766.422363 96.908 70.8925
771.976196 96.930 73.7032
777.570251 96.954 76.5253
783.204834 96.980 79.3603
788.880249 97.007 82.2104
794.596802 97.036 85.0778
800.354797 97.066 87.9643
806.154480 97.097 90.8691
811.996216 97.130 93.7888
817.880249 97.164 96.7195
823.806946 97.199 99.6586
829.776611 97.236 102.6054
835.789490 97.275 105.5606
841.845947 97.315 108.5252
847.946289 97.357 111.4999
854.090881 97.401 114.4853
860.279968 97.447 117.4807
866.513916 97.493 120.4852
872.793030 97.542 123.4979
879.117676 97.591 126.5180
885.488098 97.643 129.5446
891.904724 97.696 132.5781
898.367859 97.751 135.6194
904.877808 97.807 138.6687
911.434937 97.866 141.7247
918.039551 97.925 144.7857
924.692017 97.986 147.8513
931.392700 98.047 150.9215
938.141968 98.110 153.9970
944.940125 98.174 157.0790
951.787537 98.240 160.1674
958.684570 98.306 163.2607
965.631592 98.374 166.3567
972.628967 98.443 169.4544
979.677063 98.513 172.5533
986.776184 98.584 175.6537
993.926758 98.655 178.7563
1001.129150 98.727 -178.1375
1008.383728 98.799 -175.0267
1015.690918 98.872 -171.9112
1023.051025 98.945 -168.7916
1030.464478 99.018 -165.6681
1037.931641 99.093 -162.5398
1045.452881 99.167 -159.4048
1053.028687 99.242 -156.2610
1060.659424 99.316 -153.1071
1068.345459 99.391 -149.9421
1076.087158 99.465 -146.7649
1083.884888 99.540 -143.5731
1091.739136 99.616 -140.3650
1099.650269 99.692 -137.1394
1107.618774 99.770 -133.8961
1115.645020 99.851 -130.6367
1123.729492 99.934 -127.3654
1131.872559 100.020 -124.0887
1140.074585 100.108 -120.8138
1148.336060 100.200 -117.5477
1156.657349 100.293 -114.2971
1165.038940 100.388 -111.0659
1173.481323 100.482 -107.8548
1181.984863 100.576 -104.6602
1190.550049 100.667 -101.4763
1199.177246 100.757 -98.2964
1207.866943 100.844 -95.1142
1216.619629 100.928 -91.9247
1225.435791 101.009 -88.7232
1234.315796 101.089 -85.5068
1243.260132 101.167 -82.2730
1252.269287 101.244 -79.0210
1261.343750 101.320 -75.7503
1270.484009 101.396 -72.4611
1279.690430 101.471 -69.1533
1288.963623 101.547 -65.8271
1298.303955 101.622 -62.4837
1307.712036 101.698 -59.1237
1317.188232 101.773 -55.7477
1326.733154 101.849 -52.3560
1336.347168 101.925 -48.9489
1346.030884 102.002 -45.5263
1355.784790 102.079 -42.0883
1365.609375 102.157 -38.6346
1375.505127 102.235 -35.1653
1385.472656 102.314 -31.6807
1395.512329 102.394 -28.1810
1405.624756 102.474 -24.6674
1415.810547 102.556 -21.1410
1426.070068 102.637 -17.6041
1436.403931 102.719 -14.0573
1446.812744 102.802 -10.4997
1457.296997 102.885 -6.9301
1467.857178 102.968 -3.3472
1478.493896 103.052 0.2494
1489.207642 103.137 3.8586
1499.999023 103.223 7.4803
1510.868652 103.309 11.1141
1521.817017 103.396 14.7612
1532.844727 103.483 18.4224
1543.952393 103.572 22.0977
1555.140503 103.661 25.7864
1566.409668 103.752 29.4880
1577.760498 103.842 33.2023
1589.193604 103.934 36.9291
1600.709595 104.026 40.6689
1612.308960 104.119 44.4222
1623.992432 104.213 48.1891
1635.760498 104.307 51.9695
1647.613892 104.401 55.7631
1659.553223 104.497 59.5691
1671.578979 104.593 63.3873
1683.691895 104.691 67.2185
1695.892578 104.789 71.0635
1708.181763 104.889 74.9241
1720.559937 104.989 78.8016
1733.027832 105.091 82.6974
1745.586060 105.194 86.6124
1758.235352 105.299 90.5474
1770.976196 105.406 94.5024
1783.809448 105.515 98.4775
1796.735718 105.628 102.4716
1809.755615 105.744 106.4823
1822.869873 105.864 110.5056
1836.079102 105.988 114.5352
1849.384033 106.116 118.5640
1862.785400 106.248 122.5841
1876.283936 106.384 126.5876
1889.880249 106.522 130.5689
1903.575073 106.661 134.5250
1917.369141 106.801 138.4561
1931.263184 106.940 142.3649
1945.257935 107.076 146.2562
1959.354126 107.211 150.1375
1973.552368 107.343 154.0159
1987.853516 107.473 157.8986
2002.258301 107.600 161.7922
2016.767456 107.724 165.7032
2031.381836 107.847 169.6384
2046.102051 107.968 173.6049
2060.928955 108.089 177.6091
2075.863281 108.210 -178.3432
2090.905762 108.333 -174.2465
2106.057373 108.459 -170.0966
2121.318848 108.591 -165.8920
2136.690918 108.731 -161.6361
2152.174316 108.882 -157.3387
2167.769775 109.044 -153.0176
2183.478271 109.220 -148.6980
2199.300537 109.410 -144.4107
2215.237549 109.612 -140.1884
2231.290039 109.824 -136.0605
2247.458984 110.042 -132.0490
2263.745117 110.261 -128.1647
2280.149170 110.479 -124.4077
2296.672119 110.691 -120.7674
2313.314697 110.895 -117.2261
2330.077881 111.087 -113.7609
2346.962646 111.268 -110.3474
2363.969727 111.437 -106.9617
2381.100098 111.594 -103.5837
2398.354492 111.741 -100.1968
2415.733887 111.879 -96.7891
2433.239258 112.010 -93.3529
2450.871582 112.136 -89.8843
2468.631592 112.257 -86.3840
2486.520264 112.376 -82.8560
2504.538574 112.494 -79.3073
2522.687500 112.611 -75.7470
2540.968018 112.727 -72.1854
2559.380859 112.843 -68.6320
2577.927246 112.957 -65.0950
2596.607910 113.069 -61.5800
2615.424072 113.177 -58.0892
2634.376465 113.281 -54.6221
2653.466309 113.380 -51.1757
2672.694336 113.473 -47.7455
2692.061768 113.560 -44.3269
2711.569580 113.640 -40.9153
2731.218750 113.714 -37.5062
2751.010254 113.781 -34.0956
2770.945312 113.841 -30.6801
2791.024658 113.895 -27.2565
2811.249512 113.942 -23.8223
2831.621094 113.983 -20.3757
2852.140137 114.017 -16.9157
2872.807861 114.046 -13.4423
2893.625488 114.069 -9.9565
2914.593994 114.086 -6.4600
2935.714355 114.097 -2.9543
2956.987793 114.101 0.5597
2978.415283 114.099 4.0831
2999.998047 114.089 7.6191
3021.737305 114.071 11.1716
3043.634033 114.045 14.7455
3065.689453 114.011 18.3459
3087.904785 113.969 21.9780
3110.281006 113.919 25.6474
3132.819336 113.862 29.3594
3155.520996 113.797 33.1190
3178.387207 113.725 36.9305
3201.419189 113.648 40.7976
3224.617920 113.565 44.7227
3247.984863 113.477 48.7075
3271.520996 113.386 52.7526
3295.227783 113.291 56.8575
3319.106445 113.193 61.0210
3343.157959 113.093 65.2418
3367.383789 112.991 69.5194
3391.785156 112.887 73.8535
3416.363525 112.783 78.2439
3441.119873 112.677 82.6898
3466.055664 112.571 87.1896
3491.172119 112.466 91.7407
3516.470703 112.362 96.3401
3541.952393 112.258 100.9844
3567.618896 112.156 105.6704
3593.471436 112.056 110.3954
3619.511230 111.956 115.1575
3645.739746 111.857 119.9561
3672.158203 111.760 124.7911
3698.768066 111.664 129.6621
3725.570801 111.570 134.5676
3752.567871 111.478 139.5045
3779.760498 111.388 144.4690
3807.150146 111.301 149.4554
3834.738281 111.217 154.4570
3862.526367 111.136 159.4673
3890.515869 111.057 164.4799
3918.708252 110.979 169.4899
3947.104736 110.902 174.4933
3975.707031 110.826 179.4874
4004.516602 110.749 -175.5300
4033.534912 110.671 -170.5608
4062.763672 110.590 -165.6052
4092.204102 110.507 -160.6631
4121.857910 110.420 -155.7336
4151.726562 110.328 -150.8143
4181.811523 110.232 -145.9022
4212.114746 110.129 -140.9934
4242.637695 110.020 -136.0826
4273.381836 109.903 -131.1638
4304.348633 109.779 -126.2300
4335.539551 109.647 -121.2736
4366.956543 109.507 -116.2871
4398.601074 109.360 -111.2634
4430.475098 109.204 -106.1963
4462.580078 109.041 -101.0801
4494.917969 108.871 -95.9083
4527.490234 108.694 -90.6750
4560.298340 108.511 -85.3734
4593.344238 108.322 -79.9968
4626.629395 108.129 -74.5391
4660.155762 107.931 -68.9949
4693.925293 107.731 -63.3613
4727.939453 107.529 -57.6372
4762.200195 107.326 -51.8228
4796.708984 107.124 -45.9193
4831.467773 106.923 -39.9288
4866.478516 106.724 -33.8539
4901.743164 106.528 -27.6978
4937.263184 106.337 -21.4651
4973.040527 106.149 -15.1609
5009.077148 105.966 -8.7906
5045.375000 105.788 -2.3594
5081.936035 105.616 4.1288
5118.761719 105.449 10.6689
5155.854492 105.288 17.2566
5193.215820 105.133 23.8866
5230.848145 104.983 30.5548
5268.752930 104.838 37.2577
5306.932617 104.699 43.9930
5345.388672 104.565 50.7594
5384.123535 104.436 57.5564
5423.139160 104.312 64.3846
5462.437500 104.192 71.2455
5502.020508 104.077 78.1406
5541.890625 103.968 85.0715
5582.049316 103.863 92.0397
5622.499023 103.764 99.0453
5663.242188 103.671 106.0878
5704.280273 103.584 113.1652
5745.615723 103.503 120.2760
5787.250977 103.429 127.4198
5829.187988 103.362 134.5962
5871.428711 103.301 141.8049
5913.975586 103.248 149.0453
5956.830566 103.202 156.3149
5999.996094 103.164 163.6129
6043.474609 103.134 170.9380
6087.268066 103.112 178.2905
6131.378906 103.097 -174.3289
6175.809570 103.092 -166.9210
6220.562012 103.097 -159.4877
6265.638672 103.112 -152.0308
6311.041992 103.138 -144.5527
6356.774414 103.176 -137.0555
6402.838379 103.227 -129.5419
6449.235840 103.291 -122.0145
6495.969727 103.368 -114.4775
6543.041992 103.460 -106.9351
6590.455566 103.566 -99.3906
6638.212891 103.688 -91.8483
6686.315918 103.827 -84.3114
6734.767578 103.982 -76.7825
6783.570312 104.156 -69.2656
6832.727051 104.349 -61.7653
6882.239746 104.563 -54.2877
6932.111328 104.799 -46.8412
6982.344238 105.061 -39.4366
7032.941406 105.348 -32.0887
7083.904785 105.665 -24.8174
7135.237793 106.012 -17.6478
7186.942871 106.391 -10.6127
7239.022461 106.804 -3.7518
7291.479492 107.252 2.8842
7344.316406 107.734 9.2344
7397.536133 108.249 15.2274
7451.141602 108.791 20.7837
7505.135742 109.355 25.8195
7559.520996 109.930 30.2552
7614.300293 110.503 34.0219
7669.476562 111.059 37.0701
7725.052734 111.578 39.3790
7781.031738 112.042 40.9631
7837.416504 112.428 41.8771
7894.209473 112.717 42.2183
7951.414062 112.893 42.1246
8009.033203 112.943 41.7689
8067.069824 112.860 41.3464
8125.527344 112.645 41.0594
8184.408203 112.306 41.0996
8243.715820 111.855 41.6335
8303.453125 111.311 42.7920
8363.623047 110.694 44.6638
8424.229492 110.023 47.2954
8485.275391 109.321 50.6930
8546.763672 108.605 54.8278
8608.697266 107.892 59.6438
8671.079102 107.194 65.0663
8733.913086 106.521 71.0118
8797.202148 105.880 77.3955
8860.950195 105.276 84.1379
8925.160156 104.711 91.1685
8989.835938 104.184 98.4275
9054.980469 103.697 105.8668
9120.596680 103.247 113.4482
9186.688477 102.833 121.1426
9253.258789 102.453 128.9276
9320.311523 102.107 136.7864
9387.850586 101.793 144.7058
9455.878906 101.509 152.6753
9524.400391 101.256 160.6857
9593.417969 101.033 168.7285
9662.935547 100.837 176.7964
9732.957031 100.670 -175.1168
9803.486328 100.531 -167.0159
9874.526367 100.418 -158.9060
9946.081055 100.334 -150.7916
10018.154297 100.277 -142.6783
10090.750000 100.248 -134.5715
10163.872070 100.248 -126.4767
10237.523438 100.277 -118.3989
10311.708984 100.337 -110.3441
10386.431641 100.429 -102.3203
10461.696289 100.553 -94.3364
10537.505859 100.711 -86.4020
10613.865234 100.905 -78.5270
10690.777344 101.136 -70.7227
10768.247070 101.405 -63.0023
10846.278320 101.714 -55.3826
10924.875000 102.066 -47.8839
11004.041016 102.463 -40.5321
11083.781250 102.906 -33.3604
11164.098633 103.398 -26.4097
11244.998047 103.938 -19.7303
11326.484375 104.528 -13.3824
11408.560547 105.165 -7.4365
11491.231445 105.845 -1.9703
11574.501953 106.563 2.9333
11658.375977 107.307 7.1942
11742.857422 108.066 10.7408
11827.951172 108.822 13.5205
11913.661133 109.558 15.5074
11999.992188 110.254 16.7103
12086.949219 110.890 17.1771
12174.536133 111.448 16.9968
12262.757812 111.912 16.2977
12351.619141 112.272 15.2412
12441.124023 112.526 14.0088
12531.277344 112.677 12.7860
12622.083984 112.739 11.7426
12713.548828 112.731 11.0128
12805.676758 112.678 10.6792
12898.471680 112.608 10.7621
12991.939453 112.547 11.2151
13086.083984 112.520 11.9299
13180.911133 112.545 12.7474
13276.425781 112.630 13.4756
13372.631836 112.775 13.9117
13469.535156 112.968 13.8645
13567.140625 113.187 13.1802
13665.454102 113.402 11.7634
13764.479492 113.578 9.5925
13864.222656 113.680 6.7240
13964.688477 113.677 3.2886
14065.882812 113.543 -0.5210
14167.809570 113.265 -4.4702
14270.475586 112.838 -8.3085
14373.885742 112.269 -11.7935
14478.044922 111.573 -14.7081
14582.958984 110.775 -16.8667
14688.632812 109.903 -18.1102
14795.072266 108.992 -18.3026
14902.283203 108.092 -17.3380
15010.271484 107.267 -15.1852
15119.041992 106.603 -11.9895
15228.600586 106.197 -8.2058
15338.953125 106.119 -4.6362
15450.105469 106.362 -2.2312
15562.063477 106.837 -1.7430
15674.833008 107.411 -3.5131
15788.418945 107.951 -7.4994
15902.828125 108.353 -13.4120
16018.066406 108.545 -20.8309
16134.139648 108.484 -29.2795
16251.054688 108.149 -38.2758
16368.816406 107.542 -47.3734
16487.431641 106.675 -56.1913
16606.906250 105.574 -64.4283
16727.246094 104.267 -71.8645
16848.458984 102.783 -78.3505
16970.550781 101.153 -83.7958
17093.527344 99.404 -88.1587
17217.394531 97.562 -91.4353
17342.158203 95.651 -93.6536
17467.826172 93.696 -94.8679
17594.404297 91.716 -95.1567
17721.900391 89.733 -94.6165
17850.320312 87.764 -93.3542
17979.671875 85.826 -91.4824
18109.960938 83.933 -89.1152
18241.193359 82.091 -86.3643
18373.376953 80.308 -83.3224
18506.517578 78.584 -80.0564
18640.623047 76.921 -76.6180
18775.701172 75.318 -73.0532
18911.757812 73.771 -69.3995
19048.800781 72.277 -65.6760
19186.835938 70.833 -61.8741
19325.871094 69.441 -57.9707
19465.914062 68.113 -53.9642
19606.972656 66.882 -49.9308
19749.052734 65.809 -46.1050
19892.162109 64.990 -42.9539
20036.308594 64.541 -41.1219
