* Measurement data measured by REW V5.30.4
* Source: EXCL: Microphone (Realtek(R) Audio), MICROPHONE (Master Volume), L, volume: 1.000
* Format: 256k Log Swept Sine, 1 sweep at -15.0 dBFS with no timing reference
* Dated: Jan 14, 2024 12:04:45 AM
* REW Settings:
*  C-weighting compensation: Off
*  Target level: 75.0 dB
* Note: ROSE TECHNICS Ceramics R
* Measurement: R ROSE TECHNICS Ceramics
* Smoothing: 1/12 octave
* Frequency Step: 96 ppo
* Start Frequency: 0.36621094 Hz
*
* Freq(Hz) SPL(dB) Phase(degrees)
0.366211 73.774 -25.5014
0.368865 73.764 -25.5278
0.371538 73.750 -25.5681
0.374230 73.732 -25.6199
0.376942 73.712 -25.6815
0.379673 73.690 -25.7512
0.382424 73.668 -25.8284
0.385196 73.644 -25.9125
0.387987 73.621 -26.0033
0.390798 73.597 -26.1009
0.393630 73.573 -26.2053
0.396483 73.548 -26.3167
0.399356 73.524 -26.4353
0.402250 73.499 -26.5614
0.405165 73.474 -26.6952
0.408101 73.449 -26.8370
0.411058 73.424 -26.9872
0.414037 73.398 -27.1461
0.417037 73.372 -27.3140
0.420059 73.347 -27.4914
0.423103 73.321 -27.6787
0.426169 73.294 -27.8763
0.429257 73.268 -28.0848
0.432367 73.241 -28.3046
0.435501 73.215 -28.5364
0.438656 73.188 -28.7807
0.441835 73.160 -29.0382
0.445037 73.133 -29.3096
0.448262 73.105 -29.5958
0.451510 73.078 -29.8976
0.454782 73.050 -30.2159
0.458077 73.021 -30.5518
0.461397 72.993 -30.9063
0.464740 72.964 -31.2807
0.468108 72.936 -31.6763
0.471500 72.907 -32.0947
0.474917 72.877 -32.5373
0.478358 72.848 -33.0062
0.481825 72.818 -33.5032
0.485316 72.788 -34.0305
0.488833 72.758 -34.5907
0.492375 72.728 -35.1866
0.495943 72.697 -35.8212
0.499537 72.667 -36.4979
0.503157 72.636 -37.2208
0.506803 72.605 -37.9943
0.510475 72.573 -38.8233
0.514174 72.542 -39.7135
0.517900 72.510 -40.6716
0.521653 72.478 -41.7047
0.525433 72.445 -42.8215
0.529241 72.413 -44.0316
0.533076 72.380 -45.3462
0.536939 72.347 -46.7783
0.540830 72.314 -48.3427
0.544749 72.280 -50.0566
0.548696 72.246 -51.9398
0.552673 72.212 -54.0149
0.556677 72.178 -56.3079
0.560711 72.143 -58.8482
0.564774 72.109 -61.6683
0.568867 72.074 -64.8037
0.572989 72.038 -68.2916
0.577141 72.003 -72.1682
0.581324 71.967 -76.4655
0.585536 71.931 -81.2050
0.589779 71.895 -86.3905
0.594053 71.858 -91.9993
0.598358 71.821 -97.9752
0.602694 71.784 -104.2244
0.607061 71.747 -110.6218
0.611460 71.709 -117.0225
0.615891 71.672 -123.2822
0.620354 71.633 -129.2760
0.624849 71.595 -134.9110
0.629377 71.556 -140.1317
0.633938 71.517 -144.9159
0.638532 71.478 -149.2681
0.643159 71.438 -153.2098
0.647819 71.398 -156.7734
0.652514 71.358 -159.9952
0.657242 71.318 -162.9123
0.662005 71.277 -165.5602
0.666802 71.236 -167.9715
0.671634 71.195 -170.1756
0.676501 71.153 -172.1983
0.681403 71.111 -174.0624
0.686341 71.070 -175.7877
0.691314 71.028 -177.3912
0.696324 70.986 -178.8879
0.701369 70.945 179.7094
0.706452 70.906 178.3896
0.711571 70.870 177.1433
0.716727 70.840 175.9626
0.721921 70.820 174.8410
0.727153 70.814 173.7733
0.732422 70.826 172.7558
0.737729 70.861 171.7857
0.743075 70.917 170.8608
0.748460 70.992 169.9794
0.753883 71.082 169.1391
0.759346 71.186 168.3380
0.764849 71.300 167.5736
0.770391 71.425 166.8438
0.775974 71.559 166.1462
0.781597 71.701 165.4789
0.787261 71.852 164.8395
0.792965 72.011 164.2264
0.798712 72.178 163.6376
0.804499 72.353 163.0715
0.810329 72.535 162.5265
0.816201 72.725 162.0012
0.822116 72.923 161.4941
0.828073 73.127 161.0040
0.834073 73.339 160.5297
0.840118 73.557 160.0701
0.846205 73.782 159.6240
0.852337 74.014 159.1906
0.858514 74.251 158.7689
0.864735 74.495 158.3580
0.871001 74.744 157.9572
0.877313 74.999 157.5656
0.883670 75.259 157.1825
0.890074 75.523 156.8073
0.896523 75.793 156.4391
0.903020 76.066 156.0776
0.909564 76.343 155.7221
0.916155 76.624 155.3719
0.922793 76.908 155.0267
0.929480 77.195 154.6858
0.936216 77.484 154.3488
0.943000 77.775 154.0152
0.949833 78.067 153.6846
0.956716 78.360 153.3566
0.963649 78.654 153.0306
0.970632 78.948 152.7064
0.977666 79.241 152.3834
0.984750 79.534 152.0615
0.991886 79.824 151.7401
0.999074 80.113 151.4188
1.006313 80.399 151.0974
1.013605 80.681 150.7755
1.020950 80.959 150.4528
1.028349 81.233 150.1288
1.035801 81.501 149.8033
1.043306 81.763 149.4759
1.050867 82.018 149.1463
1.058482 82.266 148.8141
1.066152 82.506 148.4791
1.073878 82.738 148.1409
1.081659 82.961 147.7993
1.089498 83.176 147.4539
1.097393 83.383 147.1047
1.105345 83.583 146.7515
1.113355 83.777 146.3945
1.121422 83.965 146.0338
1.129549 84.148 145.6696
1.137734 84.327 145.3023
1.145978 84.501 144.9322
1.154283 84.672 144.5596
1.162647 84.838 144.1849
1.171072 85.001 143.8085
1.179558 85.160 143.4305
1.188106 85.315 143.0513
1.196715 85.467 142.6713
1.205387 85.615 142.2907
1.214122 85.760 141.9097
1.222920 85.902 141.5286
1.231781 86.041 141.1477
1.240708 86.177 140.7672
1.249698 86.311 140.3871
1.258754 86.441 140.0079
1.267875 86.570 139.6297
1.277063 86.695 139.2526
1.286317 86.819 138.8768
1.295638 86.941 138.5025
1.305027 87.061 138.1298
1.314484 87.180 137.7589
1.324009 87.297 137.3898
1.333603 87.413 137.0227
1.343267 87.529 136.6578
1.353001 87.643 136.2950
1.362805 87.758 135.9346
1.372681 87.872 135.5765
1.382628 87.986 135.2209
1.392647 88.101 134.8677
1.402739 88.217 134.5172
1.412904 88.333 134.1690
1.423142 88.451 133.8234
1.433455 88.570 133.4799
1.443842 88.690 133.1385
1.454305 88.811 132.7985
1.464843 88.933 132.4595
1.475458 89.055 132.1206
1.486150 89.177 131.7813
1.496919 89.298 131.4410
1.507766 89.417 131.0995
1.518692 89.536 130.7567
1.529697 89.653 130.4124
1.540782 89.768 130.0668
1.551947 89.882 129.7201
1.563193 89.994 129.3723
1.574521 90.105 129.0238
1.585931 90.214 128.6745
1.597423 90.322 128.3248
1.608998 90.429 127.9747
1.620658 90.535 127.6245
1.632402 90.639 127.2743
1.644231 90.742 126.9242
1.656146 90.844 126.5745
1.668147 90.945 126.2252
1.680235 91.046 125.8766
1.692410 91.145 125.5287
1.704674 91.244 125.1818
1.717027 91.343 124.8358
1.729469 91.440 124.4910
1.742002 91.538 124.1475
1.754625 91.635 123.8052
1.767340 91.732 123.4644
1.780147 91.828 123.1248
1.793046 91.925 122.7864
1.806040 92.021 122.4489
1.819127 92.117 122.1118
1.832309 92.213 121.7745
1.845587 92.308 121.4363
1.858961 92.403 121.0965
1.872431 92.496 120.7546
1.886000 92.588 120.4105
1.899666 92.679 120.0641
1.913432 92.769 119.7158
1.927298 92.858 119.3656
1.941264 92.946 119.0141
1.955331 93.032 118.6615
1.969500 93.118 118.3083
1.983772 93.202 117.9549
1.998147 93.286 117.6017
2.012626 93.368 117.2492
2.027211 93.450 116.8978
2.041901 93.531 116.5479
2.056697 93.612 116.1999
2.071601 93.692 115.8544
2.086613 93.771 115.5115
2.101733 93.850 115.1719
2.116963 93.929 114.8359
2.132303 94.007 114.5037
2.147755 94.085 114.1755
2.163318 94.162 113.8513
2.178995 94.240 113.5309
2.194785 94.317 113.2139
2.210689 94.393 112.8995
2.226709 94.469 112.5870
2.242844 94.543 112.2758
2.259097 94.617 111.9656
2.275467 94.690 111.6561
2.291956 94.762 111.3473
2.308565 94.834 111.0395
2.325294 94.904 110.7327
2.342144 94.974 110.4272
2.359116 95.042 110.1234
2.376211 95.111 109.8215
2.393430 95.178 109.5218
2.410774 95.245 109.2248
2.428243 95.312 108.9307
2.445839 95.378 108.6398
2.463562 95.444 108.3527
2.481415 95.510 108.0695
2.499396 95.576 107.7906
2.517508 95.641 107.5161
2.535750 95.707 107.2463
2.554126 95.772 106.9810
2.572634 95.837 106.7200
2.591276 95.902 106.4631
2.610054 95.967 106.2099
2.628967 96.030 105.9601
2.648018 96.094 105.7136
2.667206 96.157 105.4700
2.686534 96.219 105.2294
2.706002 96.281 104.9915
2.725610 96.342 104.7563
2.745361 96.404 104.5237
2.765255 96.465 104.2939
2.785294 96.526 104.0666
2.805477 96.587 103.8419
2.825807 96.647 103.6198
2.846284 96.708 103.4003
2.866909 96.769 103.1834
2.887684 96.831 102.9694
2.908609 96.892 102.7581
2.929686 96.954 102.5498
2.950916 97.016 102.3445
2.972299 97.078 102.1424
2.993838 97.139 101.9433
3.015532 97.201 101.7471
3.037384 97.263 101.5537
3.059394 97.325 101.3628
3.081564 97.387 101.1740
3.103894 97.449 100.9872
3.126386 97.510 100.8020
3.149041 97.572 100.6180
3.171861 97.635 100.4351
3.194845 97.697 100.2529
3.217996 97.760 100.0713
3.241315 97.822 99.8900
3.264803 97.886 99.7091
3.288461 97.949 99.5287
3.312291 98.013 99.3489
3.336293 98.077 99.1700
3.360469 98.141 98.9919
3.384820 98.206 98.8148
3.409348 98.270 98.6385
3.434054 98.335 98.4626
3.458938 98.400 98.2869
3.484003 98.465 98.1110
3.509250 98.531 97.9344
3.534679 98.596 97.7568
3.560293 98.661 97.5778
3.586092 98.727 97.3969
3.612079 98.792 97.2141
3.638253 98.858 97.0289
3.664618 98.924 96.8416
3.691173 98.989 96.6519
3.717921 99.055 96.4601
3.744862 99.121 96.2664
3.771999 99.187 96.0708
3.799332 99.252 95.8734
3.826864 99.318 95.6743
3.854595 99.384 95.4735
3.882527 99.449 95.2710
3.910661 99.514 95.0668
3.938999 99.580 94.8607
3.967543 99.644 94.6529
3.996294 99.709 94.4431
4.025252 99.773 94.2312
4.054421 99.837 94.0171
4.083801 99.900 93.8007
4.113394 99.964 93.5822
4.143201 100.026 93.3616
4.173225 100.089 93.1392
4.203466 100.151 92.9153
4.233926 100.212 92.6903
4.264606 100.274 92.4643
4.295509 100.335 92.2378
4.326636 100.395 92.0108
4.357989 100.455 91.7835
4.389569 100.514 91.5558
4.421378 100.573 91.3276
4.453417 100.632 91.0988
4.485688 100.689 90.8694
4.518193 100.747 90.6395
4.550934 100.803 90.4094
4.583912 100.860 90.1794
4.617129 100.915 89.9499
4.650587 100.971 89.7213
4.684287 101.026 89.4940
4.718231 101.081 89.2683
4.752421 101.135 89.0442
4.786859 101.189 88.8217
4.821547 101.243 88.6009
4.856485 101.296 88.3815
4.891677 101.348 88.1635
4.927125 101.401 87.9470
4.962829 101.453 87.7319
4.998791 101.505 87.5185
5.035015 101.557 87.3068
5.071500 101.609 87.0970
5.108251 101.661 86.8891
5.145267 101.712 86.6833
5.182552 101.764 86.4794
5.220107 101.816 86.2775
5.257934 101.867 86.0772
5.296035 101.919 85.8784
5.334412 101.970 85.6807
5.373067 102.022 85.4838
5.412003 102.074 85.2876
5.451221 102.126 85.0919
5.490722 102.178 84.8965
5.530510 102.231 84.7015
5.570587 102.283 84.5068
5.610953 102.336 84.3122
5.651613 102.389 84.1175
5.692567 102.442 83.9223
5.733818 102.495 83.7262
5.775367 102.549 83.5289
5.817218 102.602 83.3301
5.859372 102.656 83.1295
5.901831 102.709 82.9272
5.944598 102.763 82.7229
5.987675 102.817 82.5168
6.031065 102.871 82.3087
6.074768 102.924 82.0984
6.118788 102.978 81.8859
6.163127 103.032 81.6711
6.207788 103.085 81.4536
6.252772 103.138 81.2335
6.298082 103.191 81.0107
6.343721 103.244 80.7855
6.389690 103.296 80.5579
6.435992 103.349 80.3282
6.482630 103.400 80.0966
6.529606 103.452 79.8635
6.576922 103.502 79.6288
6.624581 103.553 79.3927
6.672585 103.603 79.1552
6.720938 103.652 78.9166
6.769640 103.701 78.6771
6.818696 103.749 78.4372
6.868107 103.797 78.1973
6.917876 103.845 77.9576
6.968006 103.891 77.7185
7.018499 103.938 77.4800
7.069358 103.984 77.2424
7.120586 104.029 77.0056
7.172184 104.074 76.7701
7.224157 104.119 76.5359
7.276506 104.163 76.3034
7.329235 104.207 76.0728
7.382345 104.251 75.8441
7.435841 104.295 75.6172
7.489724 104.338 75.3922
7.543997 104.382 75.1690
7.598664 104.425 74.9474
7.653728 104.468 74.7274
7.709189 104.511 74.5090
7.765053 104.555 74.2920
7.821322 104.598 74.0762
7.877998 104.641 73.8614
7.935086 104.684 73.6473
7.992587 104.728 73.4337
8.050504 104.771 73.2202
8.108841 104.815 73.0067
8.167601 104.858 72.7931
8.226787 104.902 72.5789
8.286402 104.946 72.3643
8.346449 104.989 72.1487
8.406931 105.033 71.9321
8.467851 105.076 71.7144
8.529212 105.119 71.4955
8.591018 105.163 71.2754
8.653272 105.205 71.0540
8.715977 105.248 70.8316
8.779137 105.290 70.6082
8.842754 105.332 70.3837
8.906833 105.374 70.1584
8.971375 105.415 69.9326
9.036386 105.456 69.7065
9.101867 105.496 69.4803
9.167823 105.535 69.2544
9.234257 105.575 69.0290
9.301172 105.613 68.8043
9.368572 105.651 68.5807
9.436460 105.689 68.3584
9.504841 105.726 68.1378
9.573717 105.763 67.9191
9.643092 105.799 67.7026
9.712970 105.835 67.4882
9.783354 105.871 67.2762
9.854248 105.906 67.0665
9.925656 105.941 66.8595
9.997581 105.975 66.6551
10.070028 106.010 66.4530
10.143000 106.044 66.2534
10.216500 106.078 66.0561
10.290533 106.112 65.8609
10.365103 106.146 65.6677
10.440212 106.180 65.4762
10.515866 106.213 65.2864
10.592069 106.247 65.0980
10.668823 106.280 64.9106
10.746134 106.313 64.7243
10.824005 106.346 64.5389
10.902440 106.379 64.3542
10.981443 106.412 64.1701
11.061020 106.444 63.9866
11.141172 106.476 63.8037
11.221906 106.508 63.6213
11.303225 106.539 63.4396
11.385133 106.570 63.2588
11.467634 106.600 63.0788
11.550734 106.630 62.9000
11.634435 106.660 62.7226
11.718742 106.689 62.5468
11.803661 106.717 62.3728
11.889195 106.745 62.2009
11.975349 106.772 62.0313
12.062128 106.799 61.8644
12.149535 106.826 61.7002
12.237576 106.852 61.5389
12.326254 106.878 61.3807
12.415575 106.903 61.2256
12.505544 106.928 61.0737
12.596164 106.953 60.9250
12.687441 106.978 60.7794
12.779379 107.002 60.6368
12.871984 107.026 60.4971
12.965260 107.050 60.3602
13.059211 107.074 60.2259
13.153843 107.097 60.0940
13.249161 107.121 59.9645
13.345170 107.144 59.8372
13.441875 107.167 59.7122
13.539280 107.190 59.5892
13.637391 107.212 59.4686
13.736214 107.235 59.3503
13.835752 107.257 59.2344
13.936011 107.279 59.1213
14.036998 107.301 59.0110
14.138716 107.322 58.9040
14.241171 107.344 58.8002
14.344368 107.365 58.7000
14.448313 107.386 58.6034
14.553011 107.408 58.5103
14.658468 107.429 58.4205
14.764689 107.451 58.3338
14.871680 107.473 58.2498
14.979446 107.496 58.1677
15.087994 107.519 58.0869
15.197328 107.543 58.0066
15.307454 107.566 57.9260
15.418378 107.591 57.8441
15.530106 107.615 57.7602
15.642643 107.640 57.6739
15.755996 107.665 57.5847
15.870171 107.690 57.4927
15.985172 107.714 57.3981
16.101007 107.737 57.3016
16.217682 107.760 57.2043
16.335201 107.782 57.1076
16.453573 107.803 57.0130
16.572803 107.824 56.9224
16.692898 107.843 56.8375
16.813862 107.862 56.7601
16.935701 107.880 56.6917
17.058424 107.899 56.6333
17.182035 107.917 56.5853
17.306543 107.937 56.5475
17.431953 107.957 56.5190
17.558273 107.980 56.4981
17.685509 108.004 56.4826
17.813665 108.030 56.4697
17.942751 108.058 56.4561
18.072771 108.088 56.4387
18.203733 108.119 56.4145
18.335646 108.152 56.3810
18.468513 108.186 56.3366
18.602345 108.220 56.2804
18.737144 108.254 56.2126
18.872921 108.286 56.1346
19.009682 108.318 56.0489
19.147434 108.347 55.9585
19.286184 108.375 55.8673
19.425940 108.401 55.7794
19.566708 108.425 55.6988
19.708496 108.447 55.6290
19.851313 108.469 55.5726
19.995163 108.490 55.5315
20.140057 108.512 55.5058
20.285999 108.535 55.4947
20.433001 108.560 55.4956
20.581066 108.587 55.5054
20.730206 108.616 55.5197
20.880424 108.648 55.5339
21.031733 108.682 55.5435
21.184137 108.718 55.5446
21.337646 108.756 55.5341
21.492268 108.794 55.5103
21.648010 108.833 55.4725
21.804880 108.870 55.4219
21.962887 108.907 55.3606
22.122040 108.941 55.2918
22.282345 108.974 55.2195
22.443811 109.005 55.1478
22.606449 109.034 55.0806
22.770266 109.061 55.0213
22.935268 109.088 54.9725
23.101467 109.114 54.9354
23.268869 109.140 54.9100
23.437485 109.168 54.8951
23.607323 109.197 54.8882
23.778391 109.227 54.8861
23.950699 109.260 54.8848
24.124256 109.294 54.8806
24.299070 109.330 54.8696
24.475151 109.367 54.8494
24.652508 109.405 54.8179
24.831150 109.443 54.7749
25.011087 109.481 54.7209
25.192327 109.517 54.6577
25.374882 109.553 54.5881
25.558758 109.588 54.5150
25.743967 109.621 54.4413
25.930519 109.653 54.3698
26.118422 109.686 54.3017
26.307686 109.718 54.2378
26.498322 109.750 54.1772
26.690340 109.784 54.1183
26.883749 109.818 54.0584
27.078560 109.854 53.9947
27.274782 109.890 53.9247
27.472427 109.927 53.8465
27.671503 109.964 53.7591
27.872023 110.000 53.6631
28.073996 110.036 53.5599
28.277431 110.070 53.4521
28.482342 110.103 53.3426
28.688736 110.136 53.2343
28.896626 110.167 53.1298
29.106022 110.198 53.0305
29.316936 110.229 52.9366
29.529379 110.260 52.8474
29.743361 110.292 52.7609
29.958893 110.325 52.6745
30.175987 110.358 52.5855
30.394655 110.392 52.4917
30.614908 110.426 52.3914
30.836756 110.459 52.2842
31.060211 110.492 52.1713
31.285286 110.523 52.0546
31.511992 110.552 51.9372
31.740341 110.580 51.8225
31.970345 110.607 51.7138
32.202015 110.633 51.6132
32.435364 110.658 51.5215
32.670403 110.684 51.4376
32.907146 110.710 51.3588
33.145607 110.738 51.2812
33.385796 110.766 51.2004
33.627724 110.795 51.1128
33.871403 110.825 51.0159
34.116848 110.853 50.9092
34.364071 110.881 50.7939
34.613087 110.907 50.6725
34.863907 110.932 50.5473
35.116547 110.956 50.4201
35.371017 110.979 50.2912
35.627331 111.002 50.1597
35.885502 111.024 50.0240
36.145542 111.045 49.8829
36.407467 111.065 49.7370
36.671291 111.084 49.5888
36.937027 111.100 49.4424
37.204689 111.116 49.3028
37.474289 111.130 49.1736
37.745842 111.145 49.0557
38.019363 111.161 48.9470
38.294868 111.179 48.8426
38.572369 111.198 48.7367
38.851879 111.219 48.6245
39.133415 111.241 48.5036
39.416992 111.263 48.3749
39.702625 111.284 48.2412
39.990326 111.305 48.1058
40.280113 111.325 47.9702
40.571999 111.346 47.8337
40.866001 111.367 47.6940
41.162132 111.387 47.5483
41.460411 111.406 47.3957
41.760849 111.424 47.2386
42.063465 111.439 47.0818
42.368275 111.451 46.9318
42.675293 111.461 46.7936
42.984535 111.471 46.6694
43.296021 111.480 46.5579
43.609760 111.489 46.4549
43.925774 111.499 46.3555
44.244080 111.510 46.2559
44.564690 111.520 46.1539
44.887623 111.530 46.0488
45.212898 111.539 45.9406
45.540531 111.548 45.8286
45.870537 111.556 45.7124
46.202934 111.564 45.5918
46.537739 111.571 45.4680
46.874969 111.577 45.3434
47.214645 111.583 45.2203
47.556782 111.589 45.0995
47.901398 111.596 44.9785
48.248512 111.604 44.8524
48.598141 111.613 44.7162
48.950302 111.621 44.5683
49.305016 111.628 44.4122
49.662300 111.632 44.2561
50.022175 111.635 44.1093
50.384655 111.636 43.9778
50.749763 111.638 43.8611
51.117516 111.642 43.7529
51.487934 111.646 43.6450
51.861038 111.649 43.5324
52.236843 111.651 43.4168
52.615372 111.650 43.3054
52.996643 111.647 43.2075
53.380680 111.641 43.1291
53.767498 111.635 43.0706
54.157120 111.630 43.0270
54.549564 111.626 42.9905
54.944855 111.623 42.9539
55.343006 111.621 42.9121
55.744045 111.618 42.8632
56.147991 111.615 42.8066
56.554863 111.612 42.7431
56.964684 111.608 42.6727
57.377472 111.604 42.5944
57.793251 111.600 42.5063
58.212044 111.595 42.4070
58.633873 111.588 42.2986
59.058758 111.580 42.1866
59.486721 111.570 42.0786
59.917786 111.559 41.9799
60.351974 111.548 41.8904
60.789310 111.539 41.8051
61.229816 111.530 41.7176
61.673512 111.521 41.6253
62.120422 111.510 41.5306
62.570572 111.498 41.4391
63.023983 111.485 41.3558
63.480682 111.471 41.2822
63.940689 111.457 41.2161
64.404030 111.443 41.1534
64.870728 111.430 41.0907
65.340805 111.415 41.0272
65.814293 111.400 40.9641
66.291214 111.384 40.9041
66.771591 111.368 40.8499
67.255447 111.351 40.8039
67.742805 111.335 40.7663
68.233696 111.319 40.7366
68.728142 111.303 40.7136
69.226173 111.288 40.6964
69.727814 111.274 40.6842
70.233093 111.259 40.6757
70.742035 111.245 40.6698
71.254662 111.230 40.6666
71.771004 111.214 40.6667
72.291084 111.199 40.6666
72.814934 111.183 40.6566
73.342583 111.167 40.6258
73.874054 111.146 40.5710
74.409378 111.120 40.5034
74.948578 111.088 40.4415
75.491684 111.053 40.3987
76.038727 111.016 40.3762
76.589737 110.979 40.3672
77.144737 110.943 40.3651
77.703758 110.909 40.3677
78.266830 110.876 40.3743
78.833984 110.845 40.3829
79.405251 110.816 40.3901
79.980652 110.788 40.3928
80.560226 110.762 40.3894
81.143997 110.735 40.3804
81.732002 110.708 40.3682
82.324265 110.680 40.3558
82.920822 110.650 40.3459
83.521698 110.619 40.3402
84.126930 110.586 40.3407
84.736549 110.552 40.3497
85.350586 110.516 40.3689
85.969070 110.478 40.3986
86.592041 110.440 40.4374
87.219521 110.402 40.4832
87.851547 110.363 40.5327
88.488159 110.324 40.5824
89.129379 110.284 40.6303
89.775246 110.242 40.6773
90.425797 110.198 40.7263
91.081062 110.153 40.7793
91.741074 110.107 40.8363
92.405869 110.060 40.8960
93.075478 110.012 40.9568
93.749939 109.965 41.0186
94.429291 109.916 41.0827
95.113564 109.868 41.1518
95.802795 109.820 41.2280
96.497025 109.772 41.3109
97.196281 109.725 41.3987
97.900604 109.677 41.4899
98.610031 109.627 41.5847
99.324600 109.573 41.6880
100.044350 109.514 41.8095
100.769310 109.450 41.9601
101.499527 109.382 42.1483
102.235031 109.310 42.3785
102.975868 109.240 42.6450
103.722076 109.174 42.9205
104.473686 109.115 43.1605
105.230743 109.061 43.3284
105.993286 109.007 43.4172
106.761360 108.953 43.4466
107.534996 108.899 43.4477
108.314240 108.844 43.4520
109.099129 108.791 43.4901
109.889709 108.739 43.5897
110.686012 108.689 43.7639
111.488091 108.639 44.0017
112.295982 108.582 44.2826
113.109726 108.512 44.5926
113.929367 108.422 44.9241
114.754944 108.308 45.2697
115.586502 108.169 45.6293
116.424088 108.008 46.0240
117.267746 107.838 46.4914
118.117516 107.678 47.0540
118.973442 107.552 47.6742
119.835571 107.477 48.2368
120.703949 107.452 48.6084
121.578621 107.456 48.7472
122.459633 107.467 48.7337
123.347023 107.470 48.6935
124.240845 107.457 48.7185
125.141144 107.429 48.8427
126.047966 107.387 49.0535
126.961365 107.335 49.3187
127.881378 107.277 49.6101
128.808060 107.220 49.9171
129.741455 107.171 50.2443
130.681610 107.136 50.5968
131.628586 107.115 50.9626
132.582428 107.102 51.3082
133.543182 107.080 51.5991
134.510895 107.029 51.8473
135.485611 106.937 52.1321
136.467392 106.806 52.5306
137.456284 106.653 53.0401
138.452347 106.494 53.5964
139.455627 106.341 54.1357
140.466187 106.199 54.6294
141.484070 106.069 55.0901
142.509323 105.948 55.5555
143.542007 105.834 56.0668
144.582169 105.721 56.6543
145.629868 105.606 57.3326
146.685165 105.488 58.0970
147.748108 105.368 58.9249
148.818756 105.247 59.7850
149.897156 105.124 60.6470
150.983368 104.999 61.4845
152.077454 104.874 62.2939
153.179474 104.753 63.1074
154.289474 104.645 63.9759
155.407516 104.568 64.9494
156.533661 104.536 66.0621
157.667969 104.557 67.3177
158.810501 104.627 68.6934
159.961304 104.731 70.1388
161.120453 104.842 71.5460
162.287994 104.927 72.7558
163.464005 104.951 73.6735
164.648529 104.894 74.3823
165.841644 104.768 75.0402
167.043396 104.603 75.7238
168.253860 104.431 76.4193
169.473099 104.271 77.0803
170.701172 104.127 77.6715
171.938141 103.993 78.1738
173.184082 103.860 78.5915
174.439041 103.726 78.9662
175.703094 103.597 79.3695
176.976318 103.487 79.8720
178.258759 103.411 80.4924
179.550491 103.367 81.1924
180.851593 103.344 81.9358
182.162125 103.323 82.7105
183.482147 103.290 83.5098
184.811737 103.240 84.3212
186.150955 103.174 85.1328
187.499878 103.099 85.9415
188.858582 103.021 86.7554
190.227127 102.943 87.5880
191.605591 102.866 88.4503
192.994049 102.789 89.3455
194.392563 102.713 90.2691
195.801208 102.638 91.2152
197.220062 102.566 92.1817
198.649200 102.496 93.1679
200.088699 102.425 94.1726
201.538620 102.353 95.1961
202.999054 102.277 96.2397
204.470062 102.200 97.3017
205.951736 102.124 98.3783
207.444153 102.050 99.4651
208.947372 101.979 100.5565
210.461487 101.911 101.6459
211.986572 101.844 102.7291
213.522720 101.779 103.8083
215.069992 101.714 104.8892
216.628479 101.651 105.9774
218.198257 101.589 107.0757
219.779419 101.527 108.1846
221.372025 101.466 109.3033
222.976181 101.406 110.4304
224.591965 101.346 111.5653
226.219452 101.288 112.7088
227.858734 101.230 113.8613
229.509888 101.172 115.0213
231.173004 101.115 116.1865
232.848175 101.058 117.3555
234.535492 101.003 118.5296
236.235031 100.948 119.7132
237.946884 100.894 120.9096
239.671143 100.841 122.1176
241.407898 100.788 123.3318
243.157242 100.735 124.5464
244.919266 100.682 125.7584
246.694046 100.630 126.9694
248.481689 100.579 128.1830
250.282288 100.528 129.4032
252.095932 100.477 130.6321
253.922729 100.427 131.8708
255.762756 100.376 133.1190
257.616119 100.325 134.3752
259.482910 100.274 135.6367
261.363220 100.222 136.8996
263.257172 100.170 138.1595
265.164856 100.119 139.4154
267.086365 100.068 140.6729
269.021790 100.018 141.9398
270.971222 99.969 143.2200
272.934784 99.922 144.5098
274.912567 99.874 145.8034
276.904694 99.827 147.0977
278.911255 99.778 148.3967
280.932373 99.729 149.7084
282.968140 99.678 151.0395
285.018646 99.626 152.3926
287.084015 99.575 153.7652
289.164337 99.524 155.1508
291.259735 99.474 156.5414
293.370331 99.423 157.9299
295.496216 99.373 159.3143
297.637512 99.323 160.6967
299.794312 99.275 162.0831
301.966736 99.227 163.4783
304.154907 99.179 164.8829
306.358948 99.131 166.2951
308.578949 99.082 167.7149
310.815033 99.032 169.1464
313.067322 98.982 170.5940
315.335938 98.933 172.0596
317.621002 98.885 173.5423
319.922607 98.837 175.0398
322.240906 98.789 176.5497
324.575989 98.741 178.0710
326.928009 98.693 179.6049
329.297058 98.644 -178.8472
331.683289 98.596 -177.2860
334.086792 98.548 -175.7143
336.507721 98.500 -174.1364
338.946198 98.454 -172.5563
341.402344 98.406 -170.9735
343.876282 98.359 -169.3835
346.368164 98.311 -167.7794
348.878082 98.265 -166.1570
351.406189 98.219 -164.5168
353.952637 98.175 -162.8620
356.517517 98.132 -161.1951
359.100983 98.090 -159.5172
361.703186 98.049 -157.8292
364.324249 98.008 -156.1327
366.964294 97.968 -154.4290
369.623474 97.929 -152.7186
372.301910 97.891 -151.0005
374.999756 97.854 -149.2731
377.717163 97.817 -147.5358
380.454254 97.780 -145.7881
383.211182 97.743 -144.0289
385.988098 97.706 -142.2570
388.785126 97.669 -140.4731
391.602417 97.633 -138.6793
394.440125 97.598 -136.8774
397.298401 97.563 -135.0670
400.177399 97.530 -133.2463
403.077240 97.497 -131.4139
405.998108 97.465 -129.5701
408.940125 97.434 -127.7163
411.903473 97.404 -125.8529
414.888306 97.375 -123.9792
417.894745 97.347 -122.0942
420.922974 97.320 -120.1977
423.973145 97.294 -118.2909
427.045441 97.270 -116.3749
430.139984 97.247 -114.4497
433.256958 97.224 -112.5157
436.396515 97.201 -110.5738
439.558838 97.179 -108.6258
442.744049 97.156 -106.6732
445.952362 97.134 -104.7151
449.183929 97.112 -102.7491
452.438904 97.091 -100.7726
455.717468 97.072 -98.7842
459.019775 97.053 -96.7842
462.346008 97.035 -94.7746
465.696350 97.018 -92.7582
469.070984 97.002 -90.7374
472.470062 96.986 -88.7129
475.893768 96.970 -86.6843
479.342285 96.954 -84.6506
482.815796 96.938 -82.6100
486.314484 96.923 -80.5608
489.838531 96.908 -78.5008
493.388092 96.894 -76.4289
496.963379 96.881 -74.3456
500.564575 96.869 -72.2537
504.191864 96.857 -70.1560
507.845459 96.846 -68.0534
511.525513 96.835 -65.9443
515.232239 96.825 -63.8272
518.965820 96.814 -61.7011
522.726440 96.803 -59.5655
526.514343 96.791 -57.4191
530.329712 96.780 -55.2604
534.172729 96.769 -53.0899
538.043579 96.759 -50.9094
541.942444 96.750 -48.7206
545.869568 96.741 -46.5239
549.825134 96.732 -44.3182
553.809387 96.723 -42.1031
557.822510 96.714 -39.8793
561.864746 96.705 -37.6471
565.936279 96.697 -35.4061
570.037292 96.690 -33.1562
574.168030 96.684 -30.8973
578.328674 96.678 -28.6286
582.519470 96.673 -26.3493
586.740662 96.668 -24.0586
590.992432 96.663 -21.7540
595.275024 96.658 -19.4321
599.588623 96.653 -17.0915
603.933472 96.648 -14.7330
608.309814 96.643 -12.3585
612.717896 96.639 -9.9690
617.157898 96.635 -7.5648
621.630066 96.631 -5.1469
626.134644 96.627 -2.7167
630.671875 96.624 -0.2759
635.242004 96.622 2.1734
639.845215 96.620 4.6302
644.481812 96.618 7.0955
649.151978 96.616 9.5714
653.856018 96.615 12.0609
658.594116 96.615 14.5665
663.366577 96.615 17.0900
668.173584 96.616 19.6315
673.015442 96.618 22.1895
677.892395 96.621 24.7615
682.804688 96.625 27.3461
687.752563 96.630 29.9435
692.736328 96.635 32.5548
697.756165 96.641 35.1811
702.812378 96.648 37.8221
707.905273 96.656 40.4767
713.035034 96.665 43.1433
718.201965 96.676 45.8221
723.406372 96.687 48.5151
728.648499 96.700 51.2241
733.928589 96.714 53.9488
739.246948 96.729 56.6873
744.603821 96.746 59.4383
749.999512 96.763 62.2026
755.434326 96.781 64.9824
760.908508 96.800 67.7786
766.422363 96.820 70.5906
771.976196 96.841 73.4176
777.570251 96.864 76.2599
783.204834 96.888 79.1178
788.880249 96.914 81.9905
794.596802 96.941 84.8746
800.354797 96.971 87.7655
806.154480 97.002 90.6607
811.996216 97.035 93.5619
817.880249 97.070 96.4730
823.806946 97.105 99.3971
829.776611 97.142 102.3351
835.789490 97.179 105.2860
841.845947 97.217 108.2485
847.946289 97.257 111.2206
854.090881 97.299 114.2014
860.279968 97.343 117.1914
866.513916 97.389 120.1920
872.793030 97.438 123.2041
879.117676 97.488 126.2271
885.488098 97.539 129.2593
891.904724 97.592 132.2986
898.367859 97.646 135.3429
904.877808 97.702 138.3912
911.434937 97.759 141.4427
918.039551 97.817 144.4976
924.692017 97.877 147.5569
931.392700 97.938 150.6214
938.141968 98.000 153.6904
944.940125 98.064 156.7637
951.787537 98.129 159.8414
958.684570 98.194 162.9246
965.631592 98.261 166.0143
972.628967 98.329 169.1102
979.677063 98.397 172.2111
986.776184 98.466 175.3160
993.926758 98.535 178.4243
1001.129150 98.606 -178.4637
1008.383728 98.677 -175.3486
1015.690918 98.750 -172.2309
1023.051025 98.823 -169.1109
1030.464478 98.896 -165.9880
1037.931641 98.968 -162.8607
1045.452881 99.040 -159.7280
1053.028687 99.111 -156.5889
1060.659424 99.182 -153.4426
1068.345459 99.253 -150.2881
1076.087158 99.324 -147.1243
1083.884888 99.395 -143.9493
1091.739136 99.465 -140.7612
1099.650269 99.535 -137.5568
1107.618774 99.606 -134.3333
1115.645020 99.676 -131.0883
1123.729492 99.748 -127.8190
1131.872559 99.820 -124.5224
1140.074585 99.894 -121.1959
1148.336060 99.971 -117.8391
1156.657349 100.051 -114.4547
1165.038940 100.136 -111.0505
1173.481323 100.227 -107.6376
1181.984863 100.323 -104.2294
1190.550049 100.425 -100.8395
1199.177246 100.531 -97.4790
1207.866943 100.639 -94.1552
1216.619629 100.748 -90.8703
1225.435791 100.855 -87.6219
1234.315796 100.959 -84.4034
1243.260132 101.060 -81.2045
1252.269287 101.156 -78.0133
1261.343750 101.247 -74.8185
1270.484009 101.335 -71.6107
1279.690430 101.419 -68.3840
1288.963623 101.500 -65.1350
1298.303955 101.580 -61.8631
1307.712036 101.658 -58.5685
1317.188232 101.736 -55.2521
1326.733154 101.812 -51.9143
1336.347168 101.888 -48.5554
1346.030884 101.964 -45.1753
1355.784790 102.040 -41.7750
1365.609375 102.117 -38.3557
1375.505127 102.195 -34.9188
1385.472656 102.273 -31.4652
1395.512329 102.351 -27.9951
1405.624756 102.430 -24.5093
1415.810547 102.510 -21.0087
1426.070068 102.590 -17.4946
1436.403931 102.670 -13.9675
1446.812744 102.751 -10.4270
1457.296997 102.832 -6.8726
1467.857178 102.913 -3.3038
1478.493896 102.995 0.2793
1489.207642 103.077 3.8761
1499.999023 103.159 7.4866
1510.868652 103.241 11.1111
1521.817017 103.325 14.7507
1532.844727 103.408 18.4064
1543.952393 103.493 22.0790
1555.140503 103.578 25.7687
1566.409668 103.664 29.4756
1577.760498 103.750 33.2003
1589.193604 103.837 36.9436
1600.709595 103.924 40.7062
1612.308960 104.013 44.4883
1623.992432 104.102 48.2894
1635.760498 104.191 52.1095
1647.613892 104.282 55.9491
1659.553223 104.375 59.8093
1671.578979 104.469 63.6918
1683.691895 104.565 67.5986
1695.892578 104.664 71.5307
1708.181763 104.766 75.4886
1720.559937 104.872 79.4708
1733.027832 104.982 83.4733
1745.586060 105.096 87.4896
1758.235352 105.216 91.5114
1770.976196 105.342 95.5295
1783.809448 105.471 99.5354
1796.735718 105.604 103.5212
1809.755615 105.740 107.4821
1822.869873 105.876 111.4169
1836.079102 106.013 115.3284
1849.384033 106.149 119.2224
1862.785400 106.283 123.1062
1876.283936 106.416 126.9868
1889.880249 106.548 130.8708
1903.575073 106.678 134.7633
1917.369141 106.808 138.6671
1931.263184 106.937 142.5826
1945.257935 107.067 146.5091
1959.354126 107.196 150.4447
1973.552368 107.326 154.3887
1987.853516 107.456 158.3429
2002.258301 107.585 162.3099
2016.767456 107.715 166.2941
2031.381836 107.846 170.3006
2046.102051 107.978 174.3351
2060.928955 108.112 178.4023
2075.863281 108.250 -177.4954
2090.905762 108.393 -173.3596
2106.057373 108.543 -169.1968
2121.318848 108.702 -165.0201
2136.690918 108.869 -160.8480
2152.174316 109.045 -156.7027
2167.769775 109.229 -152.6069
2183.478271 109.418 -148.5798
2199.300537 109.610 -144.6335
2215.237549 109.801 -140.7715
2231.290039 109.990 -136.9876
2247.458984 110.174 -133.2681
2263.745117 110.350 -129.5947
2280.149170 110.520 -125.9473
2296.672119 110.683 -122.3076
2313.314697 110.841 -118.6607
2330.077881 110.994 -114.9976
2346.962646 111.145 -111.3151
2363.969727 111.295 -107.6152
2381.100098 111.445 -103.9048
2398.354492 111.596 -100.1935
2415.733887 111.749 -96.4931
2433.239258 111.902 -92.8149
2450.871582 112.055 -89.1689
2468.631592 112.208 -85.5626
2486.520264 112.359 -82.0000
2504.538574 112.506 -78.4816
2522.687500 112.648 -75.0048
2540.968018 112.784 -71.5643
2559.380859 112.913 -68.1530
2577.927246 113.035 -64.7626
2596.607910 113.150 -61.3856
2615.424072 113.257 -58.0145
2634.376465 113.356 -54.6433
2653.466309 113.449 -51.2673
2672.694336 113.535 -47.8830
2692.061768 113.615 -44.4884
2711.569580 113.689 -41.0823
2731.218750 113.757 -37.6647
2751.010254 113.820 -34.2363
2770.945312 113.878 -30.7985
2791.024658 113.930 -27.3522
2811.249512 113.977 -23.8983
2831.621094 114.018 -20.4365
2852.140137 114.054 -16.9666
2872.807861 114.084 -13.4874
2893.625488 114.108 -9.9979
2914.593994 114.126 -6.4973
2935.714355 114.137 -2.9848
2956.987793 114.143 0.5402
2978.415283 114.142 4.0785
2999.998047 114.134 7.6319
3021.737305 114.119 11.2020
3043.634033 114.097 14.7910
3065.689453 114.067 18.4016
3087.904785 114.030 22.0378
3110.281006 113.985 25.7050
3132.819336 113.932 29.4096
3155.520996 113.871 33.1582
3178.387207 113.803 36.9573
3201.419189 113.728 40.8124
3224.617920 113.648 44.7279
3247.984863 113.563 48.7068
3271.520996 113.474 52.7498
3295.227783 113.382 56.8560
3319.106445 113.288 61.0228
3343.157959 113.192 65.2470
3367.383789 113.095 69.5255
3391.785156 112.997 73.8553
3416.363525 112.898 78.2341
3441.119873 112.799 82.6602
3466.055664 112.699 87.1326
3491.172119 112.599 91.6512
3516.470703 112.499 96.2167
3541.952393 112.399 100.8299
3567.618896 112.300 105.4913
3593.471436 112.202 110.1994
3619.511230 112.107 114.9514
3645.739746 112.013 119.7428
3672.158203 111.922 124.5682
3698.768066 111.833 129.4221
3725.570801 111.747 134.2991
3752.567871 111.663 139.1936
3779.760498 111.581 144.1013
3807.150146 111.501 149.0183
3834.738281 111.423 153.9412
3862.526367 111.345 158.8667
3890.515869 111.268 163.7925
3918.708252 111.192 168.7158
3947.104736 111.114 173.6353
3975.707031 111.036 178.5496
4004.516602 110.956 -176.5416
4033.534912 110.874 -171.6385
4062.763672 110.790 -166.7412
4092.204102 110.702 -161.8496
4121.857910 110.610 -156.9628
4151.726562 110.514 -152.0787
4181.811523 110.412 -147.1949
4212.114746 110.306 -142.3080
4242.637695 110.193 -137.4138
4273.381836 110.074 -132.5081
4304.348633 109.948 -127.5873
4335.539551 109.816 -122.6482
4366.956543 109.676 -117.6873
4398.601074 109.529 -112.7007
4430.475098 109.373 -107.6826
4462.580078 109.209 -102.6249
4494.917969 109.037 -97.5173
4527.490234 108.857 -92.3484
4560.298340 108.669 -87.1069
4593.344238 108.474 -81.7832
4626.629395 108.274 -76.3693
4660.155762 108.069 -70.8597
4693.925293 107.861 -65.2520
4727.939453 107.652 -59.5449
4762.200195 107.443 -53.7407
4796.708984 107.234 -47.8427
4831.467773 107.027 -41.8555
4866.478516 106.824 -35.7848
4901.743164 106.624 -29.6357
4937.263184 106.428 -23.4135
4973.040527 106.237 -17.1222
5009.077148 106.050 -10.7668
5045.375000 105.868 -4.3522
5081.936035 105.691 2.1173
5118.761719 105.520 8.6383
5155.854492 105.353 15.2087
5193.215820 105.191 21.8267
5230.848145 105.035 28.4907
5268.752930 104.884 35.1991
5306.932617 104.738 41.9502
5345.388672 104.597 48.7421
5384.123535 104.462 55.5725
5423.139160 104.334 62.4392
5462.437500 104.211 69.3406
5502.020508 104.094 76.2748
5541.890625 103.984 83.2406
5582.049316 103.880 90.2382
5622.499023 103.782 97.2672
5663.242188 103.690 104.3282
5704.280273 103.605 111.4200
5745.615723 103.526 118.5420
5787.250977 103.454 125.6931
5829.187988 103.388 132.8722
5871.428711 103.330 140.0782
5913.975586 103.279 147.3105
5956.830566 103.235 154.5680
5999.996094 103.198 161.8507
6043.474609 103.169 169.1587
6087.268066 103.148 176.4923
6131.378906 103.134 -176.1484
6175.809570 103.130 -168.7635
6220.562012 103.135 -161.3545
6265.638672 103.151 -153.9227
6311.041992 103.177 -146.4703
6356.774414 103.215 -138.9995
6402.838379 103.264 -131.5131
6449.235840 103.326 -124.0138
6495.969727 103.402 -116.5048
6543.041992 103.491 -108.9879
6590.455566 103.595 -101.4644
6638.212891 103.715 -93.9359
6686.315918 103.851 -86.4054
6734.767578 104.004 -78.8766
6783.570312 104.175 -71.3555
6832.727051 104.367 -63.8484
6882.239746 104.581 -56.3636
6932.111328 104.818 -48.9115
6982.344238 105.081 -41.5054
7032.941406 105.370 -34.1621
7083.904785 105.688 -26.9026
7135.237793 106.037 -19.7523
7186.942871 106.418 -12.7440
7239.022461 106.833 -5.9186
7291.479492 107.282 0.6729
7344.316406 107.764 6.9691
7397.536133 108.278 12.9005
7451.141602 108.817 18.3909
7505.135742 109.377 23.3608
7559.520996 109.946 27.7362
7614.300293 110.513 31.4521
7669.476562 111.061 34.4626
7725.052734 111.574 36.7471
7781.031738 112.030 38.3182
7837.416504 112.411 39.2269
7894.209473 112.696 39.5654
7951.414062 112.868 39.4675
8009.033203 112.915 39.1028
8067.069824 112.829 38.6653
8125.527344 112.610 38.3584
8184.408203 112.267 38.3765
8243.715820 111.811 38.8892
8303.453125 111.261 40.0306
8363.623047 110.636 41.8920
8424.229492 109.959 44.5201
8485.275391 109.250 47.9210
8546.763672 108.527 52.0641
8608.697266 107.808 56.8912
8671.079102 107.104 62.3260
8733.913086 106.426 68.2837
8797.202148 105.782 74.6791
8860.950195 105.174 81.4326
8925.160156 104.605 88.4731
8989.835938 104.076 95.7397
9054.980469 103.585 103.1821
9120.596680 103.132 110.7614
9186.688477 102.715 118.4481
9253.258789 102.333 126.2211
9320.311523 101.983 134.0640
9387.850586 101.666 141.9640
9455.878906 101.378 149.9114
9524.400391 101.121 157.8975
9593.417969 100.892 165.9154
9662.935547 100.691 173.9590
9732.957031 100.518 -177.9777
9803.486328 100.372 -169.8990
9874.526367 100.253 -161.8107
9946.081055 100.161 -153.7175
10018.154297 100.097 -145.6257
10090.750000 100.060 -137.5408
10163.872070 100.051 -129.4686
10237.523438 100.071 -121.4152
10311.708984 100.121 -113.3862
10386.431641 100.201 -105.3885
10461.696289 100.313 -97.4292
10537.505859 100.459 -89.5164
10613.865234 100.638 -81.6594
10690.777344 100.854 -73.8701
10768.247070 101.106 -66.1624
10846.278320 101.398 -58.5532
10924.875000 101.731 -51.0630
11004.041016 102.107 -43.7170
11083.781250 102.526 -36.5463
11164.098633 102.992 -29.5875
11244.998047 103.504 -22.8864
11326.484375 104.063 -16.4965
11408.560547 104.667 -10.4817
11491.231445 105.313 -4.9137
11574.501953 105.995 0.1312
11658.375977 106.705 4.5781
11742.857422 107.432 8.3589
11827.951172 108.160 11.4216
11913.661133 108.873 13.7372
11999.992188 109.554 15.3075
12086.949219 110.183 16.1686
12174.536133 110.743 16.3947
12262.757812 111.220 16.0952
12351.619141 111.603 15.4127
12441.124023 111.888 14.5111
12531.277344 112.077 13.5625
12622.083984 112.180 12.7289
12713.548828 112.213 12.1444
12805.676758 112.198 11.8989
12898.471680 112.160 12.0272
12991.939453 112.125 12.5031
13086.083984 112.117 13.2415
13180.911133 112.153 14.1058
13276.425781 112.246 14.9233
13372.631836 112.396 15.5037
13469.535156 112.597 15.6591
13567.140625 112.830 15.2277
13665.454102 113.069 14.0946
13764.479492 113.283 12.2102
13864.222656 113.436 9.5989
13964.688477 113.496 6.3595
14065.882812 113.435 2.6570
14167.809570 113.235 -1.2921
14270.475586 112.887 -5.2439
14373.885742 112.392 -8.9489
14478.044922 111.763 -12.1736
14582.958984 111.020 -14.7100
14688.632812 110.190 -16.3752
14795.072266 109.308 -17.0107
14902.283203 108.420 -16.4901
15010.271484 107.592 -14.7626
15119.041992 106.910 -11.9514
15228.600586 106.471 -8.4845
15338.953125 106.350 -5.1371
15450.105469 106.549 -2.8475
15562.063477 106.987 -2.3804
15674.833008 107.533 -4.1047
15788.418945 108.056 -8.0068
15902.828125 108.452 -13.8195
16018.066406 108.647 -21.1406
16134.139648 108.597 -29.5103
16251.054688 108.281 -38.4618
16368.816406 107.698 -47.5609
16487.431641 106.859 -56.4315
16606.906250 105.785 -64.7712
16727.246094 104.504 -72.3539
16848.458984 103.044 -79.0225
16970.550781 101.434 -84.6782
17093.527344 99.701 -89.2701
17217.394531 97.871 -92.7863
17342.158203 95.968 -95.2469
17467.826172 94.014 -96.6987
17594.404297 92.032 -97.2111
17721.900391 90.041 -96.8713
17850.320312 88.060 -95.7827
17979.671875 86.106 -94.0615
18109.960938 84.192 -91.8352
18241.193359 82.327 -89.2305
18373.376953 80.513 -86.3451
18506.517578 78.752 -83.2388
18640.623047 77.046 -79.9464
18775.701172 75.393 -76.4929
18911.757812 73.791 -72.8961
19048.800781 72.239 -69.1652
19186.835938 70.731 -65.2930
19325.871094 69.265 -61.2574
19465.914062 67.847 -57.0502
19606.972656 66.502 -52.7456
19749.052734 65.293 -48.6086
19892.162109 64.337 -45.1748
20036.308594 63.795 -43.1705
