* Measurement data measured by REW V5.30.5
* Source: EXCL: Microphone (Realtek(R) Audio), MICROPHONE (Master Volume), L, volume: 1.000
* Format: 256k Log Swept Sine, 1 sweep at -16.0 dBFS with no timing reference
* Dated: Feb 1, 2024 11:15:19 AM
* REW Settings:
*  C-weighting compensation: Off
*  Target level: 75.0 dB
* Note: Simgot EA500LM Red L
* Measurement: L Feb  red
* Smoothing: 1/12 octave
* Frequency Step: 96 ppo
* Start Frequency: 0.36621094 Hz
*
* Freq(Hz) SPL(dB) Phase(degrees)
0.366211 68.557 111.8056
0.368865 68.570 111.6733
0.371538 68.590 111.4758
0.374230 68.614 111.2290
0.376942 68.642 110.9464
0.379673 68.671 110.6380
0.382424 68.702 110.3105
0.385196 68.733 109.9680
0.387987 68.765 109.6128
0.390798 68.798 109.2461
0.393630 68.831 108.8687
0.396483 68.864 108.4808
0.399356 68.897 108.0826
0.402250 68.931 107.6742
0.405165 68.964 107.2555
0.408101 68.998 106.8265
0.411058 69.033 106.3873
0.414037 69.067 105.9377
0.417037 69.102 105.4778
0.420059 69.137 105.0075
0.423103 69.172 104.5269
0.426169 69.208 104.0359
0.429257 69.244 103.5346
0.432367 69.280 103.0230
0.435501 69.316 102.5011
0.438656 69.353 101.9689
0.441835 69.390 101.4266
0.445037 69.427 100.8742
0.448262 69.464 100.3118
0.451510 69.502 99.7394
0.454782 69.540 99.1571
0.458077 69.578 98.5651
0.461397 69.617 97.9636
0.464740 69.656 97.3525
0.468108 69.695 96.7321
0.471500 69.734 96.1026
0.474917 69.774 95.4641
0.478358 69.814 94.8167
0.481825 69.854 94.1608
0.485316 69.894 93.4965
0.488833 69.935 92.8240
0.492375 69.976 92.1436
0.495943 70.018 91.4554
0.499537 70.059 90.7598
0.503157 70.101 90.0571
0.506803 70.144 89.3474
0.510475 70.186 88.6311
0.514174 70.229 87.9084
0.517900 70.272 87.1797
0.521653 70.316 86.4452
0.525433 70.360 85.7053
0.529241 70.404 84.9602
0.533076 70.448 84.2104
0.536939 70.493 83.4560
0.540830 70.538 82.6974
0.544749 70.584 81.9350
0.548696 70.630 81.1691
0.552673 70.676 80.3999
0.556677 70.722 79.6278
0.560711 70.769 78.8532
0.564774 70.816 78.0762
0.568867 70.864 77.2973
0.572989 70.911 76.5167
0.577141 70.960 75.7347
0.581324 71.008 74.9516
0.585536 71.057 74.1677
0.589779 71.106 73.3833
0.594053 71.156 72.5985
0.598358 71.206 71.8136
0.602694 71.256 71.0289
0.607061 71.307 70.2447
0.611460 71.358 69.4609
0.615891 71.409 68.6780
0.620354 71.461 67.8961
0.624849 71.513 67.1152
0.629377 71.566 66.3357
0.633938 71.619 65.5575
0.638532 71.672 64.7809
0.643159 71.726 64.0059
0.647819 71.780 63.2327
0.652514 71.834 62.4612
0.657242 71.889 61.6916
0.662005 71.944 60.9239
0.666802 72.000 60.1581
0.671634 72.056 59.3942
0.676501 72.113 58.6323
0.681403 72.169 57.8722
0.686341 72.227 57.1140
0.691314 72.285 56.3577
0.696324 72.343 55.6030
0.701369 72.402 54.8500
0.706452 72.461 54.0985
0.711571 72.522 53.3484
0.716727 72.584 52.5996
0.721921 72.647 51.8519
0.727153 72.713 51.1052
0.732422 72.782 50.3594
0.737729 72.853 49.6144
0.743075 72.928 48.8704
0.748460 73.006 48.1275
0.753883 73.086 47.3860
0.759346 73.169 46.6463
0.764849 73.253 45.9088
0.770391 73.340 45.1738
0.775974 73.428 44.4417
0.781597 73.517 43.7128
0.787261 73.608 42.9875
0.792965 73.701 42.2662
0.798712 73.796 41.5490
0.804499 73.892 40.8363
0.810329 73.989 40.1283
0.816201 74.089 39.4253
0.822116 74.189 38.7274
0.828073 74.291 38.0348
0.834073 74.395 37.3478
0.840118 74.500 36.6664
0.846205 74.606 35.9907
0.852337 74.714 35.3209
0.858514 74.823 34.6571
0.864735 74.933 33.9992
0.871001 75.045 33.3473
0.877313 75.158 32.7015
0.883670 75.272 32.0618
0.890074 75.387 31.4281
0.896523 75.504 30.8005
0.903020 75.621 30.1788
0.909564 75.739 29.5630
0.916155 75.859 28.9531
0.922793 75.979 28.3489
0.929480 76.100 27.7504
0.936216 76.222 27.1575
0.943000 76.344 26.5700
0.949833 76.467 25.9878
0.956716 76.591 25.4107
0.963649 76.716 24.8386
0.970632 76.840 24.2714
0.977666 76.965 23.7089
0.984750 77.091 23.1508
0.991886 77.216 22.5971
0.999074 77.342 22.0474
1.006313 77.468 21.5017
1.013605 77.593 20.9596
1.020950 77.719 20.4211
1.028349 77.844 19.8858
1.035801 77.968 19.3535
1.043306 78.093 18.8240
1.050867 78.216 18.2971
1.058482 78.339 17.7725
1.066152 78.461 17.2499
1.073878 78.583 16.7290
1.081659 78.703 16.2095
1.089498 78.823 15.6911
1.097393 78.941 15.1736
1.105345 79.060 14.6566
1.113355 79.177 14.1399
1.121422 79.295 13.6235
1.129549 79.412 13.1073
1.137734 79.529 12.5914
1.145978 79.645 12.0758
1.154283 79.762 11.5608
1.162647 79.879 11.0464
1.171072 79.995 10.5328
1.179558 80.111 10.0202
1.188106 80.228 9.5088
1.196715 80.344 8.9986
1.205387 80.460 8.4899
1.214122 80.576 7.9827
1.222920 80.692 7.4774
1.231781 80.808 6.9738
1.240708 80.924 6.4723
1.249698 81.040 5.9730
1.258754 81.156 5.4759
1.267875 81.271 4.9813
1.277063 81.387 4.4892
1.286317 81.503 3.9997
1.295638 81.618 3.5130
1.305027 81.734 3.0292
1.314484 81.849 2.5484
1.324009 81.965 2.0706
1.333603 82.081 1.5960
1.343267 82.196 1.1247
1.353001 82.312 0.6568
1.362805 82.427 0.1923
1.372681 82.543 -0.2687
1.382628 82.659 -0.7260
1.392647 82.774 -1.1797
1.402739 82.890 -1.6297
1.412904 83.006 -2.0759
1.423142 83.122 -2.5183
1.433455 83.238 -2.9570
1.443842 83.354 -3.3920
1.454305 83.470 -3.8234
1.464843 83.586 -4.2515
1.475458 83.702 -4.6765
1.486150 83.817 -5.0987
1.496919 83.932 -5.5183
1.507766 84.047 -5.9355
1.518692 84.162 -6.3505
1.529697 84.276 -6.7635
1.540782 84.389 -7.1745
1.551947 84.502 -7.5836
1.563193 84.615 -7.9910
1.574521 84.728 -8.3968
1.585931 84.840 -8.8010
1.597423 84.951 -9.2037
1.608998 85.063 -9.6051
1.620658 85.174 -10.0052
1.632402 85.285 -10.4041
1.644231 85.395 -10.8019
1.656146 85.506 -11.1987
1.668147 85.616 -11.5947
1.680235 85.726 -11.9899
1.692410 85.836 -12.3843
1.704674 85.946 -12.7782
1.717027 86.056 -13.1715
1.729469 86.166 -13.5645
1.742002 86.276 -13.9572
1.754625 86.386 -14.3496
1.767340 86.496 -14.7420
1.780147 86.606 -15.1344
1.793046 86.716 -15.5268
1.806040 86.826 -15.9194
1.819127 86.936 -16.3123
1.832309 87.047 -16.7054
1.845587 87.157 -17.0988
1.858961 87.267 -17.4926
1.872431 87.377 -17.8866
1.886000 87.486 -18.2808
1.899666 87.595 -18.6751
1.913432 87.704 -19.0696
1.927298 87.812 -19.4640
1.941264 87.920 -19.8583
1.955331 88.027 -20.2525
1.969500 88.135 -20.6465
1.983772 88.242 -21.0403
1.998147 88.348 -21.4337
2.012626 88.455 -21.8268
2.027211 88.561 -22.2194
2.041901 88.667 -22.6117
2.056697 88.774 -23.0034
2.071601 88.879 -23.3946
2.086613 88.985 -23.7853
2.101733 89.091 -24.1754
2.116963 89.197 -24.5650
2.132303 89.303 -24.9540
2.147755 89.409 -25.3424
2.163318 89.515 -25.7303
2.178995 89.621 -26.1178
2.194785 89.727 -26.5048
2.210689 89.833 -26.8915
2.226709 89.939 -27.2780
2.242844 90.044 -27.6642
2.259097 90.149 -28.0504
2.275467 90.254 -28.4365
2.291956 90.359 -28.8224
2.308565 90.464 -29.2084
2.325294 90.568 -29.5943
2.342144 90.672 -29.9801
2.359116 90.775 -30.3660
2.376211 90.879 -30.7519
2.393430 90.982 -31.1379
2.410774 91.085 -31.5240
2.428243 91.188 -31.9101
2.445839 91.291 -32.2965
2.463562 91.394 -32.6831
2.481415 91.496 -33.0700
2.499396 91.599 -33.4572
2.517508 91.702 -33.8447
2.535750 91.804 -34.2327
2.554126 91.907 -34.6211
2.572634 92.009 -35.0101
2.591276 92.111 -35.3995
2.610054 92.214 -35.7894
2.628967 92.315 -36.1799
2.648018 92.417 -36.5709
2.667206 92.518 -36.9625
2.686534 92.619 -37.3546
2.706002 92.720 -37.7474
2.725610 92.821 -38.1408
2.745361 92.921 -38.5350
2.765255 93.021 -38.9299
2.785294 93.121 -39.3257
2.805477 93.221 -39.7224
2.825807 93.320 -40.1201
2.846284 93.420 -40.5189
2.866909 93.519 -40.9189
2.887684 93.618 -41.3203
2.908609 93.716 -41.7232
2.929686 93.815 -42.1276
2.950916 93.913 -42.5338
2.972299 94.011 -42.9416
2.993838 94.109 -43.3512
3.015532 94.207 -43.7624
3.037384 94.304 -44.1753
3.059394 94.401 -44.5896
3.081564 94.497 -45.0052
3.103894 94.593 -45.4221
3.126386 94.689 -45.8401
3.149041 94.784 -46.2591
3.171861 94.879 -46.6791
3.194845 94.974 -47.1000
3.217996 95.068 -47.5219
3.241315 95.162 -47.9447
3.264803 95.256 -48.3687
3.288461 95.349 -48.7940
3.312291 95.442 -49.2207
3.336293 95.534 -49.6493
3.360469 95.626 -50.0796
3.384820 95.718 -50.5117
3.409348 95.808 -50.9456
3.434054 95.899 -51.3810
3.458938 95.989 -51.8177
3.484003 96.078 -52.2555
3.509250 96.167 -52.6941
3.534679 96.255 -53.1334
3.560293 96.343 -53.5732
3.586092 96.431 -54.0135
3.612079 96.518 -54.4542
3.638253 96.604 -54.8956
3.664618 96.690 -55.3379
3.691173 96.775 -55.7815
3.717921 96.859 -56.2266
3.744862 96.943 -56.6732
3.771999 97.026 -57.1213
3.799332 97.109 -57.5706
3.826864 97.191 -58.0207
3.854595 97.272 -58.4711
3.882527 97.352 -58.9215
3.910661 97.432 -59.3713
3.938999 97.512 -59.8203
3.967543 97.590 -60.2682
3.996294 97.669 -60.7151
4.025252 97.746 -61.1610
4.054421 97.823 -61.6064
4.083801 97.899 -62.0516
4.113394 97.974 -62.4967
4.143201 98.049 -62.9416
4.173225 98.123 -63.3862
4.203466 98.196 -63.8301
4.233926 98.269 -64.2728
4.264606 98.341 -64.7139
4.295509 98.412 -65.1530
4.326636 98.483 -65.5898
4.357989 98.553 -66.0241
4.389569 98.623 -66.4558
4.421378 98.692 -66.8854
4.453417 98.761 -67.3129
4.485688 98.829 -67.7385
4.518193 98.896 -68.1623
4.550934 98.963 -68.5841
4.583912 99.029 -69.0038
4.617129 99.095 -69.4208
4.650587 99.160 -69.8350
4.684287 99.225 -70.2461
4.718231 99.290 -70.6537
4.752421 99.354 -71.0578
4.786859 99.419 -71.4584
4.821547 99.482 -71.8558
4.856485 99.546 -72.2500
4.891677 99.609 -72.6412
4.927125 99.672 -73.0295
4.962829 99.735 -73.4150
4.998791 99.798 -73.7976
5.035015 99.860 -74.1775
5.071500 99.923 -74.5544
5.108251 99.986 -74.9284
5.145267 100.049 -75.2994
5.182552 100.112 -75.6675
5.220107 100.174 -76.0327
5.257934 100.238 -76.3955
5.296035 100.301 -76.7561
5.334412 100.364 -77.1149
5.373067 100.427 -77.4723
5.412003 100.491 -77.8286
5.451221 100.555 -78.1840
5.490722 100.620 -78.5386
5.530510 100.684 -78.8924
5.570587 100.749 -79.2456
5.610953 100.815 -79.5983
5.651613 100.881 -79.9509
5.692567 100.947 -80.3040
5.733818 101.013 -80.6581
5.775367 101.079 -81.0136
5.817218 101.146 -81.3710
5.859372 101.214 -81.7305
5.901831 101.281 -82.0922
5.944598 101.349 -82.4563
5.987675 101.417 -82.8228
6.031065 101.485 -83.1921
6.074768 101.554 -83.5645
6.118788 101.622 -83.9405
6.163127 101.691 -84.3204
6.207788 101.759 -84.7046
6.252772 101.828 -85.0931
6.298082 101.897 -85.4862
6.343721 101.965 -85.8838
6.389690 102.033 -86.2858
6.435992 102.101 -86.6922
6.482630 102.169 -87.1030
6.529606 102.236 -87.5184
6.576922 102.303 -87.9384
6.624581 102.370 -88.3630
6.672585 102.436 -88.7922
6.720938 102.501 -89.2259
6.769640 102.566 -89.6636
6.818696 102.630 -90.1050
6.868107 102.693 -90.5497
6.917876 102.755 -90.9974
6.968006 102.817 -91.4479
7.018499 102.878 -91.9012
7.069358 102.938 -92.3570
7.120586 102.996 -92.8147
7.172184 103.054 -93.2739
7.224157 103.111 -93.7339
7.276506 103.167 -94.1941
7.329235 103.223 -94.6540
7.382345 103.277 -95.1135
7.435841 103.330 -95.5722
7.489724 103.382 -96.0298
7.543997 103.433 -96.4858
7.598664 103.484 -96.9395
7.653728 103.534 -97.3904
7.709189 103.583 -97.8381
7.765053 103.631 -98.2823
7.821322 103.679 -98.7231
7.877998 103.726 -99.1602
7.935086 103.773 -99.5933
7.992587 103.819 -100.0223
8.050504 103.865 -100.4469
8.108841 103.911 -100.8671
8.167601 103.957 -101.2829
8.226787 104.002 -101.6947
8.286402 104.048 -102.1026
8.346449 104.094 -102.5070
8.406931 104.140 -102.9080
8.467851 104.186 -103.3060
8.529212 104.232 -103.7013
8.591018 104.279 -104.0944
8.653272 104.326 -104.4858
8.715977 104.374 -104.8762
8.779137 104.422 -105.2662
8.842754 104.470 -105.6562
8.906833 104.519 -106.0466
8.971375 104.568 -106.4380
9.036386 104.617 -106.8308
9.101867 104.667 -107.2257
9.167823 104.716 -107.6230
9.234257 104.766 -108.0230
9.301172 104.816 -108.4260
9.368572 104.866 -108.8319
9.436460 104.915 -109.2408
9.504841 104.964 -109.6529
9.573717 105.013 -110.0679
9.643092 105.062 -110.4858
9.712970 105.110 -110.9062
9.783354 105.157 -111.3285
9.854248 105.204 -111.7524
9.925656 105.250 -112.1772
9.997581 105.295 -112.6026
10.070028 105.339 -113.0279
10.143000 105.383 -113.4524
10.216500 105.425 -113.8755
10.290533 105.467 -114.2964
10.365103 105.509 -114.7148
10.440212 105.549 -115.1302
10.515866 105.590 -115.5422
10.592069 105.629 -115.9503
10.668823 105.669 -116.3545
10.746134 105.708 -116.7545
10.824005 105.747 -117.1505
10.902440 105.786 -117.5428
10.981443 105.825 -117.9316
11.061020 105.864 -118.3173
11.141172 105.903 -118.7005
11.221906 105.943 -119.0818
11.303225 105.982 -119.4622
11.385133 106.022 -119.8422
11.467634 106.063 -120.2226
11.550734 106.103 -120.6041
11.634435 106.144 -120.9875
11.718742 106.185 -121.3734
11.803661 106.225 -121.7623
11.889195 106.265 -122.1546
11.975349 106.305 -122.5502
12.062128 106.345 -122.9494
12.149535 106.384 -123.3518
12.237576 106.421 -123.7572
12.326254 106.458 -124.1650
12.415575 106.494 -124.5745
12.505544 106.529 -124.9847
12.596164 106.563 -125.3950
12.687441 106.595 -125.8044
12.779379 106.627 -126.2117
12.871984 106.657 -126.6162
12.965260 106.686 -127.0169
13.059211 106.715 -127.4134
13.153843 106.742 -127.8050
13.249161 106.770 -128.1914
13.345170 106.796 -128.5726
13.441875 106.823 -128.9489
13.539280 106.849 -129.3208
13.637391 106.876 -129.6889
13.736214 106.902 -130.0542
13.835752 106.929 -130.4177
13.936011 106.957 -130.7807
14.036998 106.985 -131.1445
14.138716 107.012 -131.5102
14.241171 107.041 -131.8789
14.344368 107.069 -132.2515
14.448313 107.097 -132.6289
14.553011 107.124 -133.0112
14.658468 107.151 -133.3986
14.764689 107.177 -133.7909
14.871680 107.203 -134.1873
14.979446 107.227 -134.5871
15.087994 107.250 -134.9888
15.197328 107.271 -135.3913
15.307454 107.291 -135.7930
15.418378 107.310 -136.1923
15.530106 107.328 -136.5878
15.642643 107.345 -136.9783
15.755996 107.361 -137.3627
15.870171 107.377 -137.7403
15.985172 107.392 -138.1109
16.101007 107.407 -138.4746
16.217682 107.423 -138.8322
16.335201 107.440 -139.1845
16.453573 107.457 -139.5329
16.572803 107.476 -139.8791
16.692898 107.495 -140.2248
16.813862 107.515 -140.5718
16.935701 107.537 -140.9217
17.058424 107.559 -141.2758
17.182035 107.581 -141.6354
17.306543 107.604 -142.0009
17.431953 107.627 -142.3725
17.558273 107.649 -142.7499
17.685509 107.671 -143.1323
17.813665 107.693 -143.5186
17.942751 107.713 -143.9075
18.072771 107.733 -144.2975
18.203733 107.752 -144.6872
18.335646 107.770 -145.0753
18.468513 107.788 -145.4609
18.602345 107.805 -145.8434
18.737144 107.821 -146.2226
18.872921 107.838 -146.5988
19.009682 107.855 -146.9725
19.147434 107.871 -147.3446
19.286184 107.888 -147.7160
19.425940 107.904 -148.0874
19.566708 107.919 -148.4593
19.708496 107.934 -148.8317
19.851313 107.948 -149.2040
19.995163 107.961 -149.5751
20.140057 107.972 -149.9431
20.285999 107.982 -150.3058
20.433001 107.990 -150.6605
20.581066 107.996 -151.0046
20.730206 108.001 -151.3356
20.880424 108.006 -151.6518
21.031733 108.010 -151.9521
21.184137 108.015 -152.2366
21.337646 108.020 -152.5067
21.492268 108.027 -152.7651
21.648010 108.037 -153.0155
21.804880 108.048 -153.2626
21.962887 108.062 -153.5116
22.122040 108.078 -153.7677
22.282345 108.095 -154.0354
22.443811 108.114 -154.3187
22.606449 108.133 -154.6199
22.770266 108.151 -154.9398
22.935268 108.168 -155.2779
23.101467 108.183 -155.6320
23.268869 108.196 -155.9987
23.437485 108.205 -156.3738
23.607323 108.212 -156.7529
23.778391 108.216 -157.1316
23.950699 108.217 -157.5063
24.124256 108.217 -157.8745
24.299070 108.216 -158.2348
24.475151 108.214 -158.5875
24.652508 108.212 -158.9340
24.831150 108.211 -159.2767
25.011087 108.211 -159.6186
25.192327 108.211 -159.9629
25.374882 108.213 -160.3121
25.558758 108.214 -160.6679
25.743967 108.215 -161.0308
25.930519 108.216 -161.3999
26.118422 108.216 -161.7728
26.307686 108.214 -162.1465
26.498322 108.211 -162.5168
26.690340 108.207 -162.8796
26.883749 108.202 -163.2314
27.078560 108.197 -163.5692
27.274782 108.192 -163.8914
27.472427 108.188 -164.1978
27.671503 108.186 -164.4898
27.872023 108.186 -164.7701
28.073996 108.188 -165.0424
28.277431 108.192 -165.3112
28.482342 108.199 -165.5810
28.688736 108.207 -165.8555
28.896626 108.215 -166.1376
29.106022 108.224 -166.4281
29.316936 108.231 -166.7254
29.529379 108.236 -167.0258
29.743361 108.238 -167.3237
29.958893 108.237 -167.6120
30.175987 108.233 -167.8841
30.394655 108.228 -168.1354
30.614908 108.223 -168.3647
30.836756 108.218 -168.5755
31.060211 108.216 -168.7764
31.285286 108.217 -168.9798
31.511992 108.221 -169.1994
31.740341 108.225 -169.4470
31.970345 108.229 -169.7294
32.202015 108.229 -170.0459
32.435364 108.223 -170.3879
32.670403 108.210 -170.7408
32.907146 108.190 -171.0874
33.145607 108.165 -171.4127
33.385796 108.139 -171.7085
33.627724 108.113 -171.9762
33.871403 108.092 -172.2270
34.116848 108.077 -172.4786
34.364071 108.068 -172.7502
34.613087 108.064 -173.0566
34.863907 108.062 -173.4044
35.116547 108.060 -173.7918
35.371017 108.057 -174.2108
35.627331 108.053 -174.6524
35.885502 108.049 -175.1110
36.145542 108.044 -175.5856
36.407467 108.038 -176.0776
36.671291 108.030 -176.5858
36.937027 108.017 -177.0998
37.204689 107.997 -177.5973
37.474289 107.968 -178.0454
37.745842 107.934 -178.4090
38.019363 107.900 -178.6629
38.294868 107.873 -178.8036
38.572369 107.860 -178.8563
38.851879 107.866 -178.8696
39.133415 107.889 -178.9012
39.416992 107.922 -178.9964
39.702625 107.956 -179.1711
39.990326 107.983 -179.4066
40.280113 107.996 -179.6582
40.571999 107.996 -179.8732
40.866001 107.989 179.9862
41.162132 107.982 179.9258
41.460411 107.985 179.9148
41.760849 107.998 179.8964
42.063465 108.020 179.8105
42.368275 108.042 179.6182
42.675293 108.055 179.3167
42.984535 108.050 178.9386
43.296021 108.025 178.5375
43.609760 107.983 178.1676
43.925774 107.930 177.8645
44.244080 107.874 177.6345
44.564690 107.823 177.4567
44.887623 107.779 177.2974
45.212898 107.742 177.1277
45.540531 107.710 176.9370
45.870537 107.680 176.7334
46.202934 107.652 176.5345
46.537739 107.631 176.3516
46.874969 107.619 176.1794
47.214645 107.618 175.9957
47.556782 107.627 175.7723
47.901398 107.641 175.4922
48.248512 107.654 175.1598
48.598141 107.660 174.8004
48.950302 107.658 174.4491
49.305016 107.648 174.1356
49.662300 107.635 173.8730
50.022175 107.620 173.6563
50.384655 107.604 173.4707
50.749763 107.586 173.3026
51.117516 107.565 173.1472
51.487934 107.539 173.0086
51.861038 107.510 172.8909
52.236843 107.480 172.7898
52.615372 107.453 172.6877
52.996643 107.429 172.5582
53.380680 107.408 172.3752
53.767498 107.386 172.1245
54.157120 107.362 171.8084
54.549564 107.333 171.4441
54.944855 107.298 171.0577
55.343006 107.260 170.6777
55.744045 107.220 170.3304
56.147991 107.183 170.0359
56.554863 107.154 169.8025
56.964684 107.135 169.6205
57.377472 107.131 169.4617
57.793251 107.137 169.2888
58.212044 107.147 169.0744
58.633873 107.153 168.8188
59.058758 107.146 168.5521
59.486721 107.125 168.3191
59.917786 107.090 168.1544
60.351974 107.049 168.0643
60.789310 107.006 168.0248
61.229816 106.962 167.9971
61.673512 106.920 167.9453
62.120422 106.877 167.8468
62.570572 106.834 167.6907
63.023983 106.791 167.4734
63.480682 106.751 167.1963
63.940689 106.715 166.8685
64.404030 106.684 166.5079
64.870728 106.660 166.1375
65.340805 106.646 165.7785
65.814293 106.643 165.4462
66.291214 106.651 165.1487
66.771591 106.665 164.8892
67.255447 106.683 164.6689
67.742805 106.696 164.4900
68.233696 106.698 164.3620
68.728142 106.683 164.3038
69.226173 106.650 164.3334
69.727814 106.602 164.4440
70.233093 106.547 164.5836
70.742035 106.487 164.6622
71.254662 106.423 164.5870
71.771004 106.353 164.2953
72.291084 106.278 163.7558
72.814934 106.204 162.9455
73.342583 106.139 161.8362
73.874054 106.086 160.4106
74.409378 106.044 158.6880
74.948578 106.007 156.7335
75.491684 105.964 154.6586
76.038727 105.900 152.6428
76.589737 105.799 150.9708
77.144737 105.662 150.0198
77.703758 105.522 150.1152
78.266830 105.439 151.2742
78.833984 105.454 153.0721
79.405251 105.557 154.8914
79.980652 105.697 156.3560
80.560226 105.825 157.4641
81.143997 105.920 158.3718
81.732002 105.985 159.1657
82.324265 106.023 159.8233
82.920822 106.032 160.2999
83.521698 106.009 160.5927
84.126930 105.954 160.7368
84.736549 105.874 160.7770
85.350586 105.782 160.7526
85.969070 105.693 160.6840
86.592041 105.623 160.5591
87.219521 105.586 160.3330
87.851547 105.589 159.9464
88.488159 105.631 159.3478
89.129379 105.701 158.5120
89.775246 105.786 157.4511
90.425797 105.866 156.2167
91.081062 105.922 154.9041
91.741074 105.933 153.6756
92.405869 105.892 152.7595
93.075478 105.812 152.3636
93.749939 105.722 152.5436
94.429291 105.647 153.1740
95.113564 105.595 154.0622
95.802795 105.563 155.0434
96.497025 105.549 155.9723
97.196281 105.544 156.7129
97.900604 105.537 157.1798
98.610031 105.516 157.3666
99.324600 105.476 157.3375
100.044350 105.415 157.1988
100.769310 105.344 157.0505
101.499527 105.271 156.9448
102.235031 105.202 156.8910
102.975868 105.136 156.8834
103.722076 105.074 156.9071
104.473686 105.013 156.9349
105.230743 104.957 156.9323
105.993286 104.910 156.8674
106.761360 104.880 156.7260
107.534996 104.874 156.5313
108.314240 104.898 156.3452
109.099129 104.956 156.2397
109.889709 105.043 156.2575
110.686012 105.146 156.3741
111.488091 105.245 156.4823
112.295982 105.312 156.4058
113.109726 105.324 155.9201
113.929367 105.263 154.7852
114.754944 105.139 152.7826
115.586502 104.990 149.7118
116.424088 104.883 145.4223
117.267746 104.874 140.0131
118.117516 104.963 134.2387
118.973442 105.086 129.9692
119.835571 105.163 129.7361
120.703949 105.163 134.0372
121.578621 105.100 139.5950
122.459633 105.008 143.6106
123.347023 104.921 146.1428
124.240845 104.859 147.9696
125.141144 104.812 149.4711
126.047966 104.752 150.7138
126.961365 104.651 151.6833
127.881378 104.502 152.4173
128.808060 104.329 152.9723
129.741455 104.164 153.3599
130.681610 104.030 153.6089
131.628586 103.938 153.8227
132.582428 103.884 154.0898
133.543182 103.857 154.3889
134.510895 103.837 154.6323
135.485611 103.805 154.7579
136.467392 103.758 154.7447
137.456284 103.707 154.5862
138.452347 103.665 154.2955
139.455627 103.641 153.9208
140.466187 103.635 153.5400
141.484070 103.636 153.2448
142.509323 103.631 153.1290
143.542007 103.613 153.2617
144.582169 103.589 153.6471
145.629868 103.570 154.2194
146.685165 103.568 154.8930
147.748108 103.588 155.6085
148.818756 103.628 156.3265
149.897156 103.674 157.0046
150.983368 103.706 157.6046
152.077454 103.698 158.1388
153.179474 103.644 158.6714
154.289474 103.562 159.1992
155.407516 103.479 159.5484
156.533661 103.410 159.4796
157.667969 103.349 158.9252
158.810501 103.288 158.0549
159.961304 103.224 157.1228
161.120453 103.157 156.3214
162.287994 103.087 155.7305
163.464005 103.013 155.3401
164.648529 102.937 155.0900
165.841644 102.865 154.9158
167.043396 102.802 154.7825
168.253860 102.758 154.6850
169.473099 102.733 154.6300
170.701172 102.722 154.6213
171.938141 102.712 154.6537
173.184082 102.691 154.7192
174.439041 102.653 154.8126
175.703094 102.600 154.9188
176.976318 102.539 155.0079
178.258759 102.479 155.0493
179.550491 102.427 155.0197
180.851593 102.383 154.9020
182.162125 102.348 154.6968
183.482147 102.318 154.4332
184.811737 102.292 154.1631
186.150955 102.271 153.9522
187.499878 102.252 153.8695
188.858582 102.237 153.9581
190.227127 102.221 154.1953
191.605591 102.201 154.5029
192.994049 102.169 154.8146
194.392563 102.124 155.0950
195.801208 102.072 155.3231
197.220062 102.018 155.4923
198.649200 101.966 155.6120
200.088699 101.919 155.6994
201.538620 101.874 155.7677
202.999054 101.833 155.8217
204.470062 101.793 155.8614
205.951736 101.755 155.8868
207.444153 101.720 155.9008
208.947372 101.687 155.9098
210.461487 101.655 155.9215
211.986572 101.621 155.9444
213.522720 101.585 155.9844
215.069992 101.546 156.0450
216.628479 101.507 156.1287
218.198257 101.467 156.2361
219.779419 101.428 156.3636
221.372025 101.393 156.5034
222.976181 101.360 156.6464
224.591965 101.328 156.7843
226.219452 101.298 156.9119
227.858734 101.267 157.0268
229.509888 101.237 157.1306
231.173004 101.205 157.2271
232.848175 101.172 157.3199
234.535492 101.139 157.4108
236.235031 101.105 157.5002
237.946884 101.071 157.5891
239.671143 101.038 157.6800
241.407898 101.006 157.7762
243.157242 100.974 157.8808
244.919266 100.941 157.9960
246.694046 100.906 158.1226
248.481689 100.871 158.2604
250.282288 100.834 158.4088
252.095932 100.798 158.5677
253.922729 100.762 158.7358
255.762756 100.729 158.9086
257.616119 100.699 159.0794
259.482910 100.672 159.2422
261.363220 100.648 159.3947
263.257172 100.625 159.5379
265.164856 100.601 159.6757
267.086365 100.576 159.8120
269.021790 100.548 159.9518
270.971222 100.519 160.0998
272.934784 100.489 160.2576
274.912567 100.459 160.4235
276.904694 100.431 160.5942
278.911255 100.404 160.7672
280.932373 100.378 160.9405
282.968140 100.355 161.1124
285.018646 100.335 161.2787
287.084015 100.315 161.4326
289.164337 100.297 161.5680
291.259735 100.279 161.6837
293.370331 100.258 161.7850
295.496216 100.236 161.8818
297.637512 100.211 161.9842
299.794312 100.183 162.0982
301.966736 100.154 162.2248
304.154907 100.123 162.3610
306.358948 100.092 162.5027
308.578949 100.061 162.6468
310.815033 100.031 162.7913
313.067322 100.000 162.9349
315.335938 99.970 163.0787
317.621002 99.939 163.2264
319.922607 99.909 163.3839
322.240906 99.879 163.5559
324.575989 99.851 163.7437
326.928009 99.824 163.9440
329.297058 99.799 164.1508
331.683289 99.775 164.3574
334.086792 99.752 164.5583
336.507721 99.728 164.7503
338.946198 99.705 164.9337
341.402344 99.681 165.1120
343.876282 99.656 165.2903
346.368164 99.631 165.4734
348.878082 99.605 165.6642
351.406189 99.580 165.8630
353.952637 99.555 166.0676
356.517517 99.530 166.2759
359.100983 99.504 166.4864
361.703186 99.479 166.6981
364.324249 99.453 166.9097
366.964294 99.428 167.1201
369.623474 99.403 167.3290
372.301910 99.379 167.5379
374.999756 99.356 167.7479
377.717163 99.334 167.9605
380.454254 99.313 168.1767
383.211182 99.292 168.3967
385.988098 99.271 168.6196
388.785126 99.251 168.8447
391.602417 99.231 169.0713
394.440125 99.211 169.2992
397.298401 99.193 169.5294
400.177399 99.174 169.7634
403.077240 99.156 170.0011
405.998108 99.138 170.2397
408.940125 99.120 170.4753
411.903473 99.100 170.7076
414.888306 99.079 170.9412
417.894745 99.058 171.1818
420.922974 99.038 171.4333
423.973145 99.018 171.6953
427.045441 99.000 171.9638
430.139984 98.984 172.2325
433.256958 98.969 172.4962
436.396515 98.956 172.7535
439.558838 98.944 173.0062
442.744049 98.933 173.2552
445.952362 98.923 173.4987
449.183929 98.915 173.7315
452.438904 98.908 173.9474
455.717468 98.899 174.1436
459.019775 98.889 174.3249
462.346008 98.875 174.5032
465.696350 98.858 174.6916
469.070984 98.839 174.8972
472.470062 98.819 175.1207
475.893768 98.799 175.3583
479.342285 98.780 175.6035
482.815796 98.762 175.8500
486.314484 98.744 176.0956
489.838531 98.725 176.3445
493.388092 98.706 176.6048
496.963379 98.688 176.8809
500.564575 98.671 177.1682
504.191864 98.656 177.4586
507.845459 98.642 177.7451
511.525513 98.629 178.0254
515.232239 98.615 178.3007
518.965820 98.600 178.5749
522.726440 98.584 178.8531
526.514343 98.568 179.1398
530.329712 98.553 179.4364
534.172729 98.539 179.7407
538.043579 98.526 -179.9511
541.942444 98.515 -179.6403
545.869568 98.504 -179.3258
549.825134 98.494 -179.0079
553.809387 98.485 -178.6903
557.822510 98.476 -178.3775
561.864746 98.468 -178.0718
565.936279 98.459 -177.7712
570.037292 98.451 -177.4704
574.168030 98.442 -177.1648
578.328674 98.433 -176.8524
582.519470 98.425 -176.5341
586.740662 98.416 -176.2108
590.992432 98.407 -175.8818
595.275024 98.398 -175.5459
599.588623 98.389 -175.2043
603.933472 98.381 -174.8597
608.309814 98.374 -174.5142
612.717896 98.368 -174.1683
617.157898 98.361 -173.8199
621.630066 98.354 -173.4639
626.134644 98.347 -173.0944
630.671875 98.342 -172.7089
635.242004 98.338 -172.3112
639.845215 98.338 -171.9071
644.481812 98.339 -171.4985
649.151978 98.343 -171.0848
653.856018 98.350 -170.6683
658.594116 98.359 -170.2572
663.366577 98.371 -169.8628
668.173584 98.384 -169.4936
673.015442 98.396 -169.1488
677.892395 98.407 -168.8195
682.804688 98.415 -168.4951
687.752563 98.421 -168.1674
692.736328 98.425 -167.8310
697.756165 98.429 -167.4819
702.812378 98.432 -167.1196
707.905273 98.437 -166.7475
713.035034 98.442 -166.3705
718.201965 98.449 -165.9921
723.406372 98.457 -165.6130
728.648499 98.466 -165.2320
733.928589 98.475 -164.8475
739.246948 98.484 -164.4584
744.603821 98.494 -164.0632
749.999512 98.505 -163.6608
755.434326 98.516 -163.2515
760.908508 98.529 -162.8357
766.422363 98.543 -162.4139
771.976196 98.558 -161.9861
777.570251 98.575 -161.5524
783.204834 98.592 -161.1132
788.880249 98.611 -160.6685
794.596802 98.631 -160.2173
800.354797 98.654 -159.7590
806.154480 98.679 -159.2960
811.996216 98.708 -158.8345
817.880249 98.741 -158.3825
823.806946 98.777 -157.9487
829.776611 98.815 -157.5401
835.789490 98.854 -157.1581
841.845947 98.891 -156.7944
847.946289 98.927 -156.4371
854.090881 98.961 -156.0772
860.279968 98.993 -155.7111
866.513916 99.025 -155.3380
872.793030 99.057 -154.9570
879.117676 99.090 -154.5694
885.488098 99.124 -154.1789
891.904724 99.159 -153.7883
898.367859 99.195 -153.3979
904.877808 99.232 -153.0060
911.434937 99.271 -152.6114
918.039551 99.311 -152.2149
924.692017 99.354 -151.8186
931.392700 99.398 -151.4261
938.141968 99.444 -151.0417
944.940125 99.492 -150.6676
951.787537 99.540 -150.3030
958.684570 99.588 -149.9454
965.631592 99.636 -149.5927
972.628967 99.685 -149.2426
979.677063 99.734 -148.8937
986.776184 99.784 -148.5452
993.926758 99.835 -148.1951
1001.129150 99.885 -147.8391
1008.383728 99.937 -147.4733
1015.690918 99.992 -147.0988
1023.051025 100.049 -146.7214
1030.464478 100.111 -146.3498
1037.931641 100.176 -145.9956
1045.452881 100.245 -145.6702
1053.028687 100.315 -145.3776
1060.659424 100.385 -145.1135
1068.345459 100.453 -144.8684
1076.087158 100.519 -144.6325
1083.884888 100.585 -144.4001
1091.739136 100.649 -144.1707
1099.650269 100.713 -143.9461
1107.618774 100.777 -143.7277
1115.645020 100.840 -143.5158
1123.729492 100.902 -143.3099
1131.872559 100.964 -143.1095
1140.074585 101.026 -142.9137
1148.336060 101.087 -142.7214
1156.657349 101.148 -142.5308
1165.038940 101.209 -142.3396
1173.481323 101.271 -142.1445
1181.984863 101.333 -141.9442
1190.550049 101.398 -141.7429
1199.177246 101.466 -141.5509
1207.866943 101.536 -141.3804
1216.619629 101.606 -141.2378
1225.435791 101.674 -141.1200
1234.315796 101.741 -141.0184
1243.260132 101.805 -140.9247
1252.269287 101.867 -140.8323
1261.343750 101.927 -140.7380
1270.484009 101.986 -140.6413
1279.690430 102.043 -140.5410
1288.963623 102.099 -140.4357
1298.303955 102.155 -140.3255
1307.712036 102.212 -140.2123
1317.188232 102.268 -140.0993
1326.733154 102.324 -139.9887
1336.347168 102.379 -139.8802
1346.030884 102.433 -139.7712
1355.784790 102.485 -139.6579
1365.609375 102.537 -139.5364
1375.505127 102.587 -139.4017
1385.472656 102.638 -139.2481
1395.512329 102.690 -139.0739
1405.624756 102.746 -138.8840
1415.810547 102.806 -138.6901
1426.070068 102.871 -138.5078
1436.403931 102.937 -138.3477
1446.812744 103.004 -138.2116
1457.296997 103.071 -138.0944
1467.857178 103.137 -137.9889
1478.493896 103.202 -137.8895
1489.207642 103.266 -137.7921
1499.999023 103.329 -137.6938
1510.868652 103.392 -137.5922
1521.817017 103.454 -137.4852
1532.844727 103.517 -137.3705
1543.952393 103.580 -137.2458
1555.140503 103.645 -137.1095
1566.409668 103.713 -136.9653
1577.760498 103.785 -136.8237
1589.193604 103.861 -136.6989
1600.709595 103.939 -136.6004
1612.308960 104.016 -136.5293
1623.992432 104.093 -136.4806
1635.760498 104.168 -136.4470
1647.613892 104.241 -136.4224
1659.553223 104.313 -136.4022
1671.578979 104.384 -136.3831
1683.691895 104.454 -136.3640
1695.892578 104.523 -136.3466
1708.181763 104.593 -136.3330
1720.559937 104.661 -136.3237
1733.027832 104.729 -136.3158
1745.586060 104.794 -136.3042
1758.235352 104.860 -136.2818
1770.976196 104.925 -136.2428
1783.809448 104.994 -136.1876
1796.735718 105.066 -136.1251
1809.755615 105.141 -136.0698
1822.869873 105.220 -136.0326
1836.079102 105.300 -136.0174
1849.384033 105.380 -136.0226
1862.785400 105.460 -136.0449
1876.283936 105.537 -136.0796
1889.880249 105.614 -136.1213
1903.575073 105.689 -136.1641
1917.369141 105.763 -136.2021
1931.263184 105.837 -136.2311
1945.257935 105.914 -136.2522
1959.354126 105.993 -136.2742
1973.552368 106.076 -136.3111
1987.853516 106.161 -136.3727
2002.258301 106.246 -136.4619
2016.767456 106.330 -136.5755
2031.381836 106.413 -136.7079
2046.102051 106.493 -136.8537
2060.928955 106.572 -137.0087
2075.863281 106.648 -137.1720
2090.905762 106.723 -137.3438
2106.057373 106.794 -137.5231
2121.318848 106.863 -137.7053
2136.690918 106.928 -137.8811
2152.174316 106.990 -138.0394
2167.769775 107.050 -138.1731
2183.478271 107.111 -138.2830
2199.300537 107.174 -138.3745
2215.237549 107.237 -138.4508
2231.290039 107.302 -138.5112
2247.458984 107.369 -138.5531
2263.745117 107.440 -138.5737
2280.149170 107.514 -138.5720
2296.672119 107.594 -138.5505
2313.314697 107.683 -138.5163
2330.077881 107.781 -138.4845
2346.962646 107.889 -138.4777
2363.969727 108.005 -138.5200
2381.100098 108.128 -138.6274
2398.354492 108.254 -138.8046
2415.733887 108.379 -139.0470
2433.239258 108.503 -139.3448
2450.871582 108.625 -139.6885
2468.631592 108.745 -140.0715
2486.520264 108.863 -140.4894
2504.538574 108.979 -140.9384
2522.687500 109.094 -141.4144
2540.968018 109.208 -141.9170
2559.380859 109.325 -142.4538
2577.927246 109.442 -143.0412
2596.607910 109.559 -143.6964
2615.424072 109.673 -144.4302
2634.376465 109.780 -145.2433
2653.466309 109.877 -146.1260
2672.694336 109.962 -147.0598
2692.061768 110.033 -148.0222
2711.569580 110.092 -148.9927
2731.218750 110.139 -149.9594
2751.010254 110.177 -150.9185
2770.945312 110.206 -151.8690
2791.024658 110.227 -152.8094
2811.249512 110.239 -153.7358
2831.621094 110.243 -154.6440
2852.140137 110.238 -155.5305
2872.807861 110.225 -156.3911
2893.625488 110.204 -157.2188
2914.593994 110.176 -158.0025
2935.714355 110.142 -158.7326
2956.987793 110.105 -159.4068
2978.415283 110.066 -160.0300
2999.998047 110.026 -160.6103
3021.737305 109.986 -161.1542
3043.634033 109.946 -161.6642
3065.689453 109.904 -162.1385
3087.904785 109.863 -162.5739
3110.281006 109.824 -162.9725
3132.819336 109.789 -163.3449
3155.520996 109.757 -163.7060
3178.387207 109.728 -164.0701
3201.419189 109.701 -164.4470
3224.617920 109.673 -164.8414
3247.984863 109.641 -165.2523
3271.520996 109.604 -165.6713
3295.227783 109.559 -166.0810
3319.106445 109.507 -166.4590
3343.157959 109.448 -166.7869
3367.383789 109.386 -167.0540
3391.785156 109.321 -167.2565
3416.363525 109.256 -167.3936
3441.119873 109.193 -167.4643
3466.055664 109.132 -167.4666
3491.172119 109.078 -167.4019
3516.470703 109.032 -167.2803
3541.952393 108.997 -167.1205
3567.618896 108.973 -166.9440
3593.471436 108.959 -166.7708
3619.511230 108.953 -166.6172
3645.739746 108.955 -166.4939
3672.158203 108.960 -166.4020
3698.768066 108.967 -166.3342
3725.570801 108.975 -166.2811
3752.567871 108.985 -166.2379
3779.760498 108.996 -166.2038
3807.150146 109.009 -166.1783
3834.738281 109.021 -166.1557
3862.526367 109.034 -166.1251
3890.515869 109.048 -166.0767
3918.708252 109.066 -166.0089
3947.104736 109.090 -165.9280
3975.707031 109.120 -165.8456
4004.516602 109.157 -165.7758
4033.534912 109.201 -165.7319
4062.763672 109.249 -165.7211
4092.204102 109.301 -165.7439
4121.857910 109.357 -165.7990
4151.726562 109.415 -165.8885
4181.811523 109.475 -166.0170
4212.114746 109.537 -166.1862
4242.637695 109.598 -166.3909
4273.381836 109.658 -166.6221
4304.348633 109.719 -166.8738
4335.539551 109.782 -167.1468
4366.956543 109.847 -167.4477
4398.601074 109.915 -167.7875
4430.475098 109.984 -168.1767
4462.580078 110.054 -168.6204
4494.917969 110.122 -169.1180
4527.490234 110.189 -169.6692
4560.298340 110.253 -170.2764
4593.344238 110.313 -170.9419
4626.629395 110.367 -171.6621
4660.155762 110.415 -172.4278
4693.925293 110.455 -173.2297
4727.939453 110.489 -174.0629
4762.200195 110.517 -174.9277
4796.708984 110.539 -175.8292
4831.467773 110.554 -176.7724
4866.478516 110.560 -177.7566
4901.743164 110.556 -178.7770
4937.263184 110.540 -179.8285
4973.040527 110.512 179.0936
5009.077148 110.469 177.9987
5045.375000 110.410 176.9034
5081.936035 110.335 175.8279
5118.761719 110.245 174.7910
5155.854492 110.142 173.8055
5193.215820 110.027 172.8773
5230.848145 109.903 172.0090
5268.752930 109.769 171.2042
5306.932617 109.627 170.4671
5345.388672 109.477 169.7995
5384.123535 109.321 169.2017
5423.139160 109.160 168.6781
5462.437500 108.992 168.2371
5502.020508 108.821 167.8871
5541.890625 108.648 167.6318
5582.049316 108.476 167.4666
5622.499023 108.306 167.3812
5663.242188 108.140 167.3654
5704.280273 107.978 167.4100
5745.615723 107.819 167.5065
5787.250977 107.664 167.6484
5829.187988 107.511 167.8362
5871.428711 107.359 168.0768
5913.975586 107.209 168.3797
5956.830566 107.063 168.7509
5999.996094 106.921 169.1906
6043.474609 106.786 169.6953
6087.268066 106.659 170.2599
6131.378906 106.540 170.8755
6175.809570 106.430 171.5320
6220.562012 106.328 172.2227
6265.638672 106.233 172.9477
6311.041992 106.147 173.7115
6356.774414 106.069 174.5172
6402.838379 106.002 175.3639
6449.235840 105.946 176.2475
6495.969727 105.903 177.1608
6543.041992 105.874 178.0925
6590.455566 105.858 179.0311
6638.212891 105.856 179.9689
6686.315918 105.866 -179.0957
6734.767578 105.890 -178.1626
6783.570312 105.929 -177.2335
6832.727051 105.984 -176.3137
6882.239746 106.056 -175.4136
6932.111328 106.146 -174.5490
6982.344238 106.256 -173.7380
7032.941406 106.385 -172.9964
7083.904785 106.532 -172.3364
7135.237793 106.698 -171.7691
7186.942871 106.884 -171.3094
7239.022461 107.090 -170.9765
7291.479492 107.316 -170.7975
7344.316406 107.562 -170.8068
7397.536133 107.825 -171.0412
7451.141602 108.101 -171.5339
7505.135742 108.385 -172.3127
7559.520996 108.671 -173.4015
7614.300293 108.953 -174.8202
7669.476562 109.223 -176.5843
7725.052734 109.472 -178.7039
7781.031738 109.689 178.8214
7837.416504 109.862 176.0112
7894.209473 109.979 172.9077
7951.414062 110.031 169.5734
8009.033203 110.009 166.0875
8067.069824 109.909 162.5391
8125.527344 109.732 159.0179
8184.408203 109.478 155.6082
8243.715820 109.153 152.3888
8303.453125 108.761 149.4308
8363.623047 108.312 146.7952
8424.229492 107.814 144.5305
8485.275391 107.278 142.6685
8546.763672 106.717 141.2202
8608.697266 106.141 140.1774
8671.079102 105.560 139.5201
8733.913086 104.980 139.2233
8797.202148 104.408 139.2618
8860.950195 103.848 139.6123
8925.160156 103.305 140.2483
8989.835938 102.783 141.1379
9054.980469 102.283 142.2466
9120.596680 101.807 143.5425
9186.688477 101.355 145.0008
9253.258789 100.927 146.6061
9320.311523 100.522 148.3466
9387.850586 100.141 150.2075
9455.878906 99.784 152.1703
9524.400391 99.452 154.2166
9593.417969 99.142 156.3337
9662.935547 98.855 158.5171
9732.957031 98.589 160.7657
9803.486328 98.345 163.0737
9874.526367 98.124 165.4292
9946.081055 97.926 167.8185
10018.154297 97.748 170.2328
10090.750000 97.592 172.6715
10163.872070 97.456 175.1343
10237.523438 97.341 177.6160
10311.708984 97.249 -179.8943
10386.431641 97.179 -177.4068
10461.696289 97.130 -174.9245
10537.505859 97.102 -172.4458
10613.865234 97.096 -169.9729
10690.777344 97.115 -167.5154
10768.247070 97.157 -165.0872
10846.278320 97.225 -162.6984
10924.875000 97.317 -160.3542
11004.041016 97.435 -158.0611
11083.781250 97.581 -155.8324
11164.098633 97.755 -153.6885
11244.998047 97.959 -151.6495
11326.484375 98.193 -149.7323
11408.560547 98.458 -147.9574
11491.231445 98.755 -146.3551
11574.501953 99.084 -144.9654
11658.375977 99.443 -143.8318
11742.857422 99.831 -142.9979
11827.951172 100.245 -142.5101
11913.661133 100.677 -142.4200
11999.992188 101.121 -142.7798
12086.949219 101.564 -143.6312
12174.536133 101.993 -144.9996
12262.757812 102.393 -146.8915
12351.619141 102.746 -149.2921
12441.124023 103.035 -152.1594
12531.277344 103.246 -155.4186
12622.083984 103.364 -158.9645
12713.548828 103.382 -162.6701
12805.676758 103.296 -166.3984
12898.471680 103.108 -170.0102
12991.939453 102.823 -173.3719
13086.083984 102.454 -176.3659
13180.911133 102.015 -178.9013
13276.425781 101.523 179.0818
13372.631836 100.998 177.6142
13469.535156 100.457 176.7018
13567.140625 99.916 176.3265
13665.454102 99.391 176.4482
13764.479492 98.895 177.0128
13864.222656 98.439 177.9630
13964.688477 98.029 179.2393
14065.882812 97.675 -179.2214
14167.809570 97.382 -177.4845
14270.475586 97.155 -175.6131
14373.885742 97.000 -173.6731
14478.044922 96.923 -171.7406
14582.958984 96.928 -169.9055
14688.632812 97.022 -168.2724
14795.072266 97.205 -166.9647
14902.283203 97.477 -166.1287
15010.271484 97.829 -165.9249
15119.041992 98.243 -166.5131
15228.600586 98.690 -168.0349
15338.953125 99.131 -170.5896
15450.105469 99.520 -174.2049
15562.063477 99.806 -178.8133
15674.833008 99.943 175.7603
15788.418945 99.892 169.7938
15902.828125 99.632 163.6392
16018.066406 99.160 157.6699
16134.139648 98.492 152.2185
16251.054688 97.659 147.5342
16368.816406 96.697 143.7689
16487.431641 95.648 140.9815
16606.906250 94.550 139.1502
16727.246094 93.439 138.1912
16848.458984 92.345 137.9816
16970.550781 91.288 138.3791
17093.527344 90.284 139.2392
17217.394531 89.340 140.4327
17342.158203 88.458 141.8509
17467.826172 87.635 143.4021
17594.404297 86.867 145.0118
17721.900391 86.149 146.6238
17850.320312 85.472 148.1959
17979.671875 84.829 149.7000
18109.960938 84.206 151.1252
18241.193359 83.590 152.4718
18373.376953 82.972 153.7404
18506.517578 82.346 154.9375
18640.623047 81.709 156.0825
18775.701172 81.057 157.2079
18911.757812 80.387 158.3587
19048.800781 79.698 159.5863
19186.835938 78.989 160.9396
19325.871094 78.265 162.4561
19465.914062 77.542 164.1468
19606.972656 76.848 165.9696
19749.052734 76.231 167.7868
19892.162109 75.757 169.3323
20036.308594 75.497 170.2480
