* Measurement data measured by REW V5.31
* Source: EXCL: Microphone (USB Sound Device        ), MICROPHONE (Master Volume), L, volume: 0.390
* Format: 256k Log Swept Sine, 1 sweep at -4.0 dBFS with no timing reference
* Dated: Aug 27, 2024 1:09:09 AM
* REW Settings:
*  C-weighting compensation: Off
*  Target level: 75.0 dB
* Note: L Simgot EW300 Silver 1Foa
* Measurement: Simgot EW300 USBSilver Fm
* Smoothing: 1/12 octave
* Frequency Step: 96 ppo
* Start Frequency: 0.36621094 Hz
*
* Freq(Hz) SPL(dB) Phase(degrees)
0.366211 91.812 -54.5658
0.368865 91.814 -54.6252
0.371538 91.817 -54.7140
0.374230 91.821 -54.8256
0.376942 91.825 -54.9540
0.379673 91.830 -55.0949
0.382424 91.835 -55.2454
0.385196 91.840 -55.4040
0.387987 91.845 -55.5695
0.390798 91.850 -55.7414
0.393630 91.855 -55.9195
0.396483 91.860 -56.1036
0.399356 91.866 -56.2938
0.402250 91.871 -56.4899
0.405165 91.876 -56.6920
0.408101 91.882 -56.9002
0.411058 91.887 -57.1144
0.414037 91.892 -57.3347
0.417037 91.898 -57.5612
0.420059 91.904 -57.7939
0.423103 91.909 -58.0327
0.426169 91.915 -58.2778
0.429257 91.920 -58.5292
0.432368 91.926 -58.7868
0.435501 91.932 -59.0507
0.438656 91.938 -59.3209
0.441835 91.943 -59.5974
0.445037 91.949 -59.8803
0.448262 91.955 -60.1695
0.451510 91.961 -60.4650
0.454782 91.967 -60.7669
0.458077 91.973 -61.0751
0.461397 91.979 -61.3896
0.464740 91.986 -61.7104
0.468108 91.992 -62.0375
0.471500 91.998 -62.3709
0.474917 92.004 -62.7105
0.478358 92.011 -63.0563
0.481825 92.017 -63.4083
0.485316 92.023 -63.7665
0.488833 92.030 -64.1307
0.492375 92.036 -64.5009
0.495943 92.043 -64.8771
0.499537 92.049 -65.2592
0.503157 92.056 -65.6472
0.506803 92.063 -66.0409
0.510475 92.069 -66.4403
0.514175 92.076 -66.8454
0.517900 92.083 -67.2559
0.521653 92.090 -67.6719
0.525434 92.097 -68.0931
0.529241 92.104 -68.5196
0.533076 92.111 -68.9512
0.536939 92.118 -69.3878
0.540830 92.125 -69.8292
0.544749 92.132 -70.2753
0.548696 92.140 -70.7260
0.552673 92.147 -71.1812
0.556677 92.154 -71.6407
0.560711 92.162 -72.1043
0.564774 92.169 -72.5719
0.568867 92.177 -73.0433
0.572989 92.184 -73.5183
0.577141 92.192 -73.9969
0.581324 92.200 -74.4788
0.585536 92.207 -74.9638
0.589779 92.215 -75.4517
0.594053 92.223 -75.9424
0.598358 92.231 -76.4357
0.602694 92.239 -76.9314
0.607061 92.247 -77.4292
0.611460 92.255 -77.9290
0.615891 92.263 -78.4306
0.620354 92.271 -78.9337
0.624849 92.279 -79.4382
0.629377 92.288 -79.9439
0.633938 92.296 -80.4506
0.638532 92.305 -80.9579
0.643159 92.313 -81.4658
0.647819 92.322 -81.9741
0.652514 92.330 -82.4824
0.657242 92.339 -82.9907
0.662005 92.348 -83.4986
0.666802 92.356 -84.0061
0.671634 92.365 -84.5128
0.676501 92.374 -85.0187
0.681403 92.383 -85.5234
0.686341 92.392 -86.0269
0.691314 92.401 -86.5289
0.696324 92.410 -87.0293
0.701370 92.420 -87.5280
0.706452 92.429 -88.0250
0.711571 92.437 -88.5204
0.716728 92.446 -89.0145
0.721921 92.454 -89.5080
0.727153 92.461 -90.0018
0.732422 92.467 -90.4975
0.737729 92.472 -90.9967
0.743075 92.476 -91.5011
0.748460 92.479 -92.0124
0.753883 92.482 -92.5314
0.759346 92.484 -93.0590
0.764849 92.485 -93.5954
0.770391 92.487 -94.1408
0.775974 92.488 -94.6952
0.781597 92.489 -95.2587
0.787261 92.491 -95.8310
0.792966 92.491 -96.4122
0.798712 92.492 -97.0020
0.804500 92.493 -97.6002
0.810329 92.493 -98.2066
0.816201 92.493 -98.8211
0.822116 92.494 -99.4434
0.828073 92.493 -100.0733
0.834074 92.493 -100.7104
0.840118 92.492 -101.3546
0.846206 92.491 -102.0056
0.852338 92.490 -102.6630
0.858514 92.488 -103.3265
0.864735 92.486 -103.9958
0.871001 92.484 -104.6706
0.877313 92.481 -105.3505
0.883670 92.478 -106.0351
0.890074 92.475 -106.7240
0.896524 92.471 -107.4169
0.903020 92.466 -108.1133
0.909564 92.461 -108.8128
0.916155 92.456 -109.5150
0.922794 92.450 -110.2194
0.929481 92.443 -110.9256
0.936216 92.436 -111.6332
0.943000 92.428 -112.3415
0.949834 92.419 -113.0503
0.956717 92.410 -113.7589
0.963649 92.399 -114.4669
0.970632 92.388 -115.1739
0.977666 92.377 -115.8792
0.984750 92.364 -116.5825
0.991886 92.351 -117.2831
0.999074 92.336 -117.9807
1.006314 92.321 -118.6746
1.013606 92.304 -119.3644
1.020951 92.286 -120.0496
1.028349 92.268 -120.7296
1.035801 92.248 -121.4041
1.043307 92.227 -122.0725
1.050867 92.205 -122.7344
1.058482 92.181 -123.3896
1.066152 92.156 -124.0380
1.073878 92.130 -124.6797
1.081660 92.102 -125.3153
1.089498 92.074 -125.9463
1.097393 92.044 -126.5744
1.105345 92.014 -127.2025
1.113355 91.982 -127.8332
1.121423 91.950 -128.4692
1.129549 91.918 -129.1125
1.137734 91.885 -129.7648
1.145979 91.852 -130.4272
1.154283 91.818 -131.1005
1.162647 91.784 -131.7852
1.171072 91.749 -132.4820
1.179558 91.713 -133.1912
1.188106 91.676 -133.9130
1.196715 91.638 -134.6479
1.205387 91.599 -135.3960
1.214122 91.559 -136.1576
1.222920 91.517 -136.9326
1.231782 91.474 -137.7214
1.240708 91.429 -138.5238
1.249699 91.382 -139.3398
1.258754 91.333 -140.1693
1.267876 91.282 -141.0121
1.277063 91.229 -141.8679
1.286318 91.173 -142.7364
1.295639 91.115 -143.6169
1.305027 91.053 -144.5090
1.314484 90.989 -145.4118
1.324009 90.922 -146.3245
1.333604 90.851 -147.2459
1.343268 90.776 -148.1749
1.353002 90.698 -149.1100
1.362806 90.615 -150.0497
1.372681 90.528 -150.9921
1.382628 90.437 -151.9354
1.392647 90.341 -152.8774
1.402739 90.240 -153.8159
1.412904 90.133 -154.7486
1.423142 90.020 -155.6734
1.433455 89.902 -156.5888
1.443843 89.776 -157.4941
1.454305 89.643 -158.3899
1.464844 89.502 -159.2785
1.475459 89.351 -160.1639
1.486150 89.190 -161.0509
1.496920 89.019 -161.9443
1.507767 88.836 -162.8482
1.518693 88.643 -163.7657
1.529698 88.439 -164.6995
1.540783 88.224 -165.6519
1.551948 88.000 -166.6245
1.563194 87.767 -167.6192
1.574521 87.525 -168.6375
1.585931 87.276 -169.6809
1.597423 87.020 -170.7510
1.608999 86.758 -171.8492
1.620658 86.491 -172.9771
1.632402 86.221 -174.1362
1.644232 85.947 -175.3279
1.656146 85.671 -176.5537
1.668147 85.395 -177.8151
1.680235 85.119 -179.1133
1.692411 84.845 179.5504
1.704675 84.574 178.1749
1.717028 84.307 176.7590
1.729470 84.047 175.3019
1.742003 83.793 173.8029
1.754626 83.548 172.2610
1.767341 83.314 170.6753
1.780147 83.091 169.0440
1.793047 82.881 167.3640
1.806040 82.685 165.6292
1.819128 82.502 163.8288
1.832310 82.331 161.9453
1.845587 82.173 159.9523
1.858961 82.024 157.8142
1.872432 81.884 155.4861
1.886001 81.751 152.9119
1.899667 81.626 150.0215
1.913433 81.508 146.7250
1.927299 81.398 142.9062
1.941265 81.296 138.4131
1.955332 81.202 133.0498
1.969501 81.118 126.5735
1.983773 81.043 118.7124
1.998148 80.980 109.2357
2.012627 80.928 98.1081
2.027212 80.889 85.7009
2.041902 80.863 72.8629
2.056698 80.852 60.6346
2.071602 80.857 49.7788
2.086614 80.879 40.5697
2.101734 80.918 32.9144
2.116964 80.978 26.5620
2.132304 81.058 21.2402
2.147756 81.162 16.7106
2.163320 81.290 12.7820
2.178996 81.447 9.3054
2.194786 81.635 6.1671
2.210690 81.856 3.2824
2.226710 82.113 0.5917
2.242845 82.406 -1.9445
2.259098 82.734 -4.3505
2.275468 83.095 -6.6415
2.291957 83.486 -8.8271
2.308566 83.903 -10.9142
2.325295 84.342 -12.9085
2.342145 84.800 -14.8148
2.359117 85.271 -16.6380
2.376212 85.751 -18.3829
2.393431 86.235 -20.0543
2.410775 86.720 -21.6572
2.428244 87.200 -23.1965
2.445840 87.670 -24.6771
2.463564 88.128 -26.1047
2.481416 88.567 -27.4848
2.499397 88.986 -28.8241
2.517509 89.382 -30.1300
2.535752 89.752 -31.4113
2.554127 90.097 -32.6780
2.572635 90.417 -33.9404
2.591277 90.715 -35.2078
2.610055 90.993 -36.4860
2.628968 91.253 -37.7772
2.648019 91.496 -39.0803
2.667208 91.726 -40.3923
2.686535 91.942 -41.7084
2.706003 92.145 -43.0236
2.725612 92.338 -44.3326
2.745363 92.521 -45.6306
2.765257 92.695 -46.9128
2.785295 92.862 -48.1754
2.805478 93.023 -49.4147
2.825808 93.178 -50.6282
2.846285 93.330 -51.8146
2.866910 93.478 -52.9739
2.887685 93.623 -54.1081
2.908611 93.766 -55.2214
2.929688 93.906 -56.3205
2.950917 94.041 -57.4132
2.972301 94.172 -58.5069
2.993839 94.297 -59.6066
3.015534 94.416 -60.7143
3.037386 94.528 -61.8298
3.059396 94.635 -62.9508
3.081565 94.734 -64.0739
3.103896 94.829 -65.1946
3.126388 94.917 -66.3083
3.149043 95.001 -67.4103
3.171862 95.080 -68.4958
3.194847 95.154 -69.5607
3.217998 95.225 -70.6016
3.241317 95.291 -71.6166
3.264805 95.354 -72.6058
3.288463 95.413 -73.5718
3.312293 95.468 -74.5193
3.336295 95.518 -75.4540
3.360471 95.563 -76.3806
3.384822 95.602 -77.3019
3.409350 95.637 -78.2188
3.434056 95.666 -79.1299
3.458940 95.691 -80.0330
3.484005 95.711 -80.9241
3.509252 95.728 -81.7990
3.534681 95.741 -82.6528
3.560295 95.751 -83.4805
3.586094 95.759 -84.2775
3.612081 95.763 -85.0397
3.638255 95.765 -85.7647
3.664620 95.764 -86.4517
3.691175 95.760 -87.1019
3.717923 95.752 -87.7173
3.744864 95.741 -88.3005
3.772001 95.726 -88.8532
3.799335 95.708 -89.3766
3.826866 95.688 -89.8711
3.854597 95.666 -90.3358
3.882529 95.644 -90.7691
3.910664 95.622 -91.1682
3.939002 95.600 -91.5290
3.967546 95.580 -91.8460
3.996296 95.562 -92.1135
4.025255 95.546 -92.3275
4.054423 95.532 -92.4886
4.083804 95.519 -92.6053
4.113396 95.509 -92.6894
4.143204 95.500 -92.7516
4.173227 95.493 -92.8001
4.203468 95.489 -92.8394
4.233928 95.488 -92.8716
4.264609 95.491 -92.8965
4.295512 95.500 -92.9125
4.326639 95.514 -92.9172
4.357992 95.535 -92.9073
4.389572 95.562 -92.8798
4.421380 95.597 -92.8328
4.453419 95.639 -92.7664
4.485691 95.688 -92.6835
4.518196 95.744 -92.5896
4.550936 95.805 -92.4916
4.583914 95.872 -92.3976
4.617131 95.944 -92.3162
4.650589 96.020 -92.2550
4.684289 96.100 -92.2211
4.718233 96.183 -92.2195
4.752424 96.270 -92.2529
4.786862 96.361 -92.3217
4.821549 96.455 -92.4247
4.856488 96.553 -92.5603
4.891680 96.654 -92.7275
4.927127 96.758 -92.9258
4.962831 96.862 -93.1555
4.998794 96.967 -93.4175
5.035017 97.071 -93.7131
5.071503 97.174 -94.0438
5.108253 97.274 -94.4109
5.145270 97.372 -94.8153
5.182555 97.467 -95.2565
5.220110 97.559 -95.7327
5.257937 97.650 -96.2405
5.296038 97.737 -96.7759
5.334415 97.821 -97.3341
5.373071 97.901 -97.9110
5.412006 97.977 -98.5032
5.451224 98.048 -99.1089
5.490725 98.114 -99.7277
5.530514 98.175 -100.3599
5.570590 98.231 -101.0057
5.610957 98.282 -101.6639
5.651616 98.328 -102.3310
5.692570 98.369 -103.0023
5.733821 98.405 -103.6722
5.775370 98.437 -104.3358
5.817221 98.464 -104.9891
5.859375 98.487 -105.6298
5.901834 98.505 -106.2574
5.944602 98.519 -106.8721
5.987679 98.528 -107.4733
6.031068 98.533 -108.0596
6.074771 98.536 -108.6281
6.118792 98.535 -109.1756
6.163131 98.533 -109.6985
6.207792 98.529 -110.1940
6.252776 98.524 -110.6602
6.298086 98.517 -111.0967
6.343725 98.510 -111.5043
6.389694 98.502 -111.8845
6.435996 98.495 -112.2390
6.482634 98.489 -112.5692
6.529610 98.485 -112.8762
6.576926 98.483 -113.1604
6.624585 98.484 -113.4224
6.672590 98.489 -113.6629
6.720942 98.496 -113.8845
6.769645 98.508 -114.0914
6.818700 98.522 -114.2883
6.868111 98.541 -114.4808
6.917881 98.564 -114.6732
6.968010 98.591 -114.8688
7.018504 98.622 -115.0696
7.069362 98.657 -115.2776
7.120590 98.696 -115.4953
7.172189 98.737 -115.7261
7.224161 98.782 -115.9736
7.276511 98.828 -116.2415
7.329239 98.875 -116.5320
7.382350 98.924 -116.8464
7.435845 98.974 -117.1846
7.489729 99.024 -117.5459
7.544002 99.073 -117.9291
7.598669 99.122 -118.3333
7.653732 99.169 -118.7577
7.709194 99.214 -119.2017
7.765058 99.256 -119.6642
7.821327 99.296 -120.1431
7.878004 99.333 -120.6352
7.935091 99.366 -121.1368
7.992592 99.397 -121.6440
8.050510 99.424 -122.1541
8.108847 99.447 -122.6646
8.167607 99.467 -123.1735
8.226793 99.484 -123.6783
8.286408 99.498 -124.1760
8.346454 99.509 -124.6633
8.406936 99.518 -125.1373
8.467856 99.525 -125.5959
8.529218 99.530 -126.0382
8.591024 99.533 -126.4635
8.653278 99.536 -126.8716
8.715983 99.539 -127.2621
8.779143 99.542 -127.6349
8.842760 99.545 -127.9903
8.906839 99.550 -128.3292
8.971381 99.556 -128.6535
9.036392 99.563 -128.9657
9.101873 99.572 -129.2684
9.167829 99.583 -129.5641
9.234263 99.597 -129.8547
9.301178 99.612 -130.1425
9.368578 99.630 -130.4301
9.436467 99.649 -130.7201
9.504847 99.669 -131.0150
9.573723 99.691 -131.3168
9.643099 99.713 -131.6263
9.712976 99.734 -131.9446
9.783361 99.755 -132.2717
9.854255 99.773 -132.6080
9.925663 99.789 -132.9534
9.997588 99.801 -133.3073
10.070035 99.811 -133.6685
10.143007 99.817 -134.0353
10.216507 99.820 -134.4059
10.290540 99.820 -134.7787
10.365109 99.817 -135.1522
10.440219 99.812 -135.5247
10.515873 99.804 -135.8945
10.592076 99.795 -136.2599
10.668830 99.785 -136.6196
10.746141 99.773 -136.9727
10.824012 99.760 -137.3188
10.902447 99.747 -137.6577
10.981451 99.733 -137.9894
11.061027 99.719 -138.3141
11.141180 99.705 -138.6324
11.221913 99.692 -138.9454
11.303232 99.678 -139.2542
11.385140 99.665 -139.5598
11.467641 99.652 -139.8633
11.550741 99.640 -140.1656
11.634442 99.628 -140.4678
11.718750 99.616 -140.7704
11.803669 99.605 -141.0743
11.889203 99.594 -141.3793
11.975357 99.583 -141.6855
12.062136 99.572 -141.9926
12.149543 99.560 -142.3002
12.237583 99.548 -142.6077
12.326262 99.536 -142.9144
12.415583 99.524 -143.2197
12.505552 99.511 -143.5229
12.596172 99.497 -143.8239
12.687449 99.483 -144.1221
12.779387 99.469 -144.4178
12.871992 99.455 -144.7114
12.965268 99.441 -145.0031
13.059220 99.428 -145.2938
13.153852 99.415 -145.5846
13.249170 99.402 -145.8763
13.345179 99.390 -146.1699
13.441884 99.379 -146.4664
13.539289 99.368 -146.7664
13.637401 99.357 -147.0704
13.736223 99.346 -147.3785
13.835761 99.334 -147.6904
13.936021 99.322 -148.0056
14.037007 99.309 -148.3230
14.138725 99.296 -148.6416
14.241180 99.281 -148.9600
14.344377 99.265 -149.2769
14.448323 99.249 -149.5909
14.553021 99.232 -149.9010
14.658478 99.214 -150.2064
14.764700 99.197 -150.5067
14.871691 99.179 -150.8019
14.979457 99.163 -151.0928
15.088005 99.147 -151.3802
15.197339 99.133 -151.6653
15.307465 99.119 -151.9498
15.418389 99.106 -152.2352
15.530117 99.095 -152.5231
15.642655 99.084 -152.8146
15.756008 99.073 -153.1107
15.870182 99.063 -153.4118
15.985184 99.053 -153.7179
16.101019 99.042 -154.0283
16.217694 99.031 -154.3420
16.335214 99.020 -154.6576
16.453586 99.008 -154.9735
16.572815 98.995 -155.2882
16.692909 98.982 -155.6002
16.813872 98.969 -155.9084
16.935713 98.957 -156.2120
17.058436 98.945 -156.5110
17.182048 98.933 -156.8054
17.306556 98.922 -157.0961
17.431967 98.912 -157.3840
17.558286 98.903 -157.6703
17.685521 98.894 -157.9562
17.813677 98.886 -158.2427
17.942762 98.878 -158.5306
18.072783 98.871 -158.8202
18.203746 98.863 -159.1114
18.335658 98.855 -159.4038
18.468526 98.846 -159.6965
18.602356 98.838 -159.9886
18.737156 98.828 -160.2789
18.872934 98.819 -160.5667
19.009695 98.809 -160.8510
19.147447 98.800 -161.1313
19.286197 98.790 -161.4076
19.425953 98.780 -161.6798
19.566721 98.770 -161.9484
19.708510 98.760 -162.2136
19.851326 98.750 -162.4760
19.995177 98.740 -162.7358
20.140070 98.730 -162.9933
20.286013 98.720 -163.2483
20.433014 98.709 -163.5009
20.581080 98.698 -163.7506
20.730219 98.687 -163.9974
20.880439 98.676 -164.2412
21.031747 98.665 -164.4821
21.184152 98.655 -164.7203
21.337661 98.645 -164.9564
21.492282 98.635 -165.1909
21.648024 98.625 -165.4245
21.804895 98.617 -165.6577
21.962902 98.608 -165.8910
22.122054 98.599 -166.1248
22.282360 98.591 -166.3593
22.443827 98.583 -166.5946
22.606464 98.575 -166.8309
22.770280 98.567 -167.0686
22.935283 98.559 -167.3081
23.101481 98.552 -167.5500
23.268884 98.545 -167.7952
23.437500 98.538 -168.0444
23.607338 98.531 -168.2983
23.778406 98.524 -168.5573
23.950714 98.516 -168.8210
24.124271 98.508 -169.0891
24.299086 98.500 -169.3602
24.475167 98.490 -169.6331
24.652524 98.480 -169.9062
24.831166 98.469 -170.1783
25.011103 98.458 -170.4482
25.192344 98.446 -170.7155
25.374898 98.435 -170.9801
25.558775 98.424 -171.2423
25.743984 98.413 -171.5029
25.930536 98.402 -171.7625
26.118439 98.391 -172.0215
26.307704 98.381 -172.2800
26.498341 98.370 -172.5380
26.690359 98.359 -172.7946
26.883768 98.348 -173.0490
27.078579 98.336 -173.3003
27.274801 98.324 -173.5477
27.472446 98.312 -173.7908
27.671522 98.300 -174.0294
27.872042 98.289 -174.2636
28.074014 98.277 -174.4941
28.277450 98.266 -174.7219
28.482360 98.255 -174.9480
28.688755 98.245 -175.1736
28.896645 98.234 -175.4001
29.106042 98.225 -175.6285
29.316957 98.215 -175.8596
29.529400 98.205 -176.0939
29.743382 98.194 -176.3312
29.958915 98.184 -176.5710
30.176009 98.172 -176.8123
30.394677 98.160 -177.0540
30.614929 98.148 -177.2947
30.836778 98.134 -177.5338
31.060234 98.121 -177.7708
31.285309 98.107 -178.0057
31.512015 98.094 -178.2389
31.740364 98.080 -178.4712
31.970368 98.066 -178.7030
32.202039 98.053 -178.9351
32.435388 98.039 -179.1675
32.670428 98.026 -179.4007
32.907171 98.012 -179.6348
33.145630 97.999 -179.8699
33.385817 97.985 179.8935
33.627745 97.972 179.6556
33.871425 97.959 179.4165
34.116871 97.945 179.1769
34.364096 97.930 178.9380
34.613113 97.916 178.7009
34.863934 97.901 178.4669
35.116572 97.886 178.2364
35.371041 97.871 178.0095
35.627354 97.856 177.7856
35.885525 97.841 177.5637
36.145566 97.827 177.3430
36.407492 97.812 177.1227
36.671316 97.798 176.9029
36.937051 97.783 176.6838
37.204712 97.768 176.4662
37.474313 97.752 176.2502
37.745867 97.736 176.0364
38.019389 97.721 175.8245
38.294893 97.705 175.6143
38.572394 97.688 175.4054
38.851905 97.672 175.1978
39.133442 97.656 174.9912
39.417019 97.639 174.7855
39.702651 97.622 174.5806
39.990353 97.605 174.3763
40.280140 97.588 174.1729
40.572026 97.570 173.9702
40.866028 97.552 173.7688
41.162160 97.534 173.5692
41.460438 97.515 173.3721
41.760877 97.497 173.1780
42.063494 97.478 172.9872
42.368303 97.459 172.7998
42.675322 97.441 172.6159
42.984565 97.422 172.4352
43.296048 97.404 172.2574
43.609789 97.386 172.0824
43.925804 97.369 171.9095
44.244108 97.352 171.7386
44.564719 97.335 171.5688
44.887654 97.319 171.3994
45.212928 97.304 171.2291
45.540560 97.290 171.0568
45.870565 97.275 170.8810
46.202962 97.261 170.7011
46.537768 97.247 170.5168
46.875000 97.232 170.3288
47.214676 97.218 170.1378
47.556813 97.202 169.9450
47.901429 97.187 169.7514
48.248542 97.171 169.5577
48.598171 97.154 169.3645
48.950334 97.138 169.1720
49.305048 97.120 168.9803
49.662333 97.103 168.7895
50.022206 97.085 168.5994
50.384688 97.068 168.4099
50.749796 97.049 168.2209
51.117550 97.031 168.0326
51.487969 97.011 167.8457
51.861072 96.992 167.6609
52.236879 96.972 167.4792
52.615409 96.952 167.3010
52.996681 96.932 167.1266
53.380717 96.911 166.9553
53.767536 96.892 166.7863
54.157158 96.872 166.6188
54.549603 96.853 166.4524
54.944892 96.834 166.2869
55.343045 96.815 166.1219
55.744084 96.796 165.9571
56.148028 96.778 165.7913
56.554900 96.760 165.6234
56.964720 96.742 165.4523
57.377510 96.724 165.2777
57.793291 96.706 165.0999
58.212085 96.687 164.9200
58.633914 96.667 164.7393
59.058799 96.647 164.5589
59.486764 96.626 164.3802
59.917829 96.604 164.2043
60.352019 96.581 164.0317
60.789354 96.558 163.8627
61.229859 96.535 163.6971
61.673556 96.511 163.5344
62.120468 96.487 163.3745
62.570618 96.463 163.2175
63.024031 96.438 163.0637
63.480729 96.414 162.9133
63.940736 96.389 162.7658
64.404077 96.364 162.6209
64.870776 96.339 162.4781
65.340856 96.314 162.3375
65.814343 96.289 162.1992
66.291261 96.264 162.0635
66.771635 96.239 161.9305
67.255489 96.214 161.8000
67.742850 96.189 161.6720
68.233743 96.164 161.5464
68.728193 96.140 161.4228
69.226226 96.115 161.3006
69.727867 96.091 161.1793
70.233144 96.067 161.0585
70.742083 96.043 160.9377
71.254709 96.020 160.8168
71.771050 95.996 160.6952
72.291132 95.973 160.5729
72.814984 95.949 160.4499
73.342631 95.926 160.3268
73.874102 95.902 160.2039
74.409424 95.879 160.0812
74.948626 95.856 159.9579
75.491734 95.833 159.8336
76.038779 95.810 159.7081
76.589787 95.787 159.5818
77.144788 95.764 159.4546
77.703811 95.742 159.3262
78.266885 95.720 159.1959
78.834039 95.697 159.0627
79.405303 95.675 158.9260
79.980706 95.652 158.7855
80.560280 95.629 158.6411
81.144053 95.605 158.4930
81.732056 95.580 158.3414
82.324320 95.554 158.1868
82.920876 95.527 158.0305
83.521755 95.497 157.8746
84.126988 95.466 157.7216
84.736607 95.434 157.5745
85.350643 95.400 157.4360
85.969129 95.366 157.3076
86.592097 95.331 157.1902
87.219579 95.297 157.0826
87.851608 95.263 156.9824
88.488217 95.230 156.8865
89.129439 95.198 156.7930
89.775308 95.166 156.7017
90.425856 95.134 156.6138
91.081119 95.103 156.5301
91.741131 95.072 156.4506
92.405925 95.041 156.3749
93.075536 95.010 156.3019
93.750000 94.980 156.2307
94.429351 94.949 156.1599
95.113625 94.919 156.0889
95.802858 94.889 156.0177
96.497085 94.858 155.9465
97.196342 94.827 155.8763
97.900667 94.796 155.8082
98.610096 94.764 155.7437
99.324665 94.733 155.6841
100.044413 94.701 155.6309
100.769376 94.669 155.5853
101.499592 94.637 155.5479
102.235100 94.607 155.5179
102.975938 94.576 155.4937
103.722144 94.548 155.4718
104.473757 94.520 155.4478
105.230817 94.493 155.4172
105.993363 94.467 155.3762
106.761435 94.441 155.3231
107.535072 94.414 155.2581
108.314315 94.387 155.1834
109.099206 94.358 155.1024
109.889783 94.328 155.0185
110.686090 94.297 154.9349
111.488167 94.264 154.8544
112.296056 94.230 154.7802
113.109800 94.194 154.7146
113.929440 94.157 154.6605
114.755020 94.117 154.6214
115.586582 94.075 154.6013
116.424170 94.032 154.6027
117.267827 93.988 154.6244
118.117598 93.946 154.6614
118.973527 93.907 154.7053
119.835658 93.871 154.7451
120.704037 93.838 154.7703
121.578708 93.807 154.7767
122.459718 93.778 154.7678
123.347111 93.749 154.7510
124.240935 93.721 154.7337
125.141236 93.694 154.7228
126.048061 93.666 154.7229
126.961458 93.639 154.7355
127.881473 93.612 154.7574
128.808154 93.586 154.7829
129.741551 93.559 154.8066
130.681712 93.531 154.8250
131.628686 93.502 154.8369
132.582521 93.471 154.8422
133.543269 93.439 154.8412
134.510979 93.406 154.8348
135.485701 93.372 154.8250
136.467486 93.337 154.8152
137.456386 93.303 154.8099
138.452451 93.269 154.8124
139.455735 93.236 154.8245
140.466288 93.203 154.8463
141.484165 93.170 154.8779
142.509418 93.137 154.9186
143.542100 93.103 154.9665
144.582265 93.067 155.0187
145.629968 93.030 155.0718
146.685262 92.993 155.1236
147.748204 92.955 155.1738
148.818849 92.920 155.2231
149.897251 92.885 155.2729
150.983469 92.852 155.3261
152.077557 92.820 155.3885
153.179574 92.787 155.4670
154.289576 92.753 155.5667
155.407622 92.719 155.6862
156.533770 92.685 155.8156
157.668078 92.652 155.9410
158.810606 92.619 156.0517
159.961413 92.587 156.1443
161.120559 92.554 156.2218
162.288105 92.521 156.2907
163.464112 92.487 156.3582
164.648640 92.452 156.4311
165.841752 92.416 156.5162
167.043510 92.379 156.6191
168.253976 92.342 156.7435
169.473213 92.306 156.8893
170.701286 92.273 157.0542
171.938258 92.243 157.2328
173.184194 92.216 157.4172
174.439158 92.194 157.5984
175.703216 92.175 157.7682
176.976434 92.160 157.9203
178.258878 92.146 158.0506
179.550615 92.135 158.1580
180.851713 92.123 158.2426
182.162239 92.110 158.3062
183.482262 92.096 158.3516
184.811850 92.080 158.3824
186.151073 92.061 158.4033
187.500000 92.040 158.4191
188.858702 92.017 158.4348
190.227250 91.991 158.4547
191.605715 91.964 158.4814
192.994169 91.935 158.5165
194.392685 91.905 158.5603
195.801334 91.874 158.6136
197.220191 91.843 158.6772
198.649330 91.811 158.7520
200.088825 91.779 158.8385
201.538751 91.748 158.9359
202.999184 91.718 159.0417
204.470200 91.690 159.1520
205.951875 91.663 159.2621
207.444287 91.636 159.3685
208.947514 91.610 159.4698
210.461634 91.582 159.5676
211.986726 91.553 159.6653
213.522869 91.523 159.7679
215.070144 91.491 159.8810
216.628631 91.458 160.0085
218.198411 91.425 160.1515
219.779567 91.393 160.3069
221.372180 91.363 160.4691
222.976334 91.334 160.6318
224.592112 91.305 160.7909
226.219600 91.278 160.9450
227.858880 91.250 161.0948
229.510039 91.223 161.2424
231.173164 91.196 161.3899
232.848340 91.169 161.5390
234.535655 91.142 161.6896
236.235197 91.115 161.8401
237.947054 91.088 161.9888
239.671317 91.060 162.1347
241.408074 91.032 162.2793
243.157416 91.003 162.4259
244.919435 90.974 162.5782
246.694223 90.943 162.7389
248.481871 90.912 162.9092
250.282473 90.881 163.0914
252.096123 90.851 163.2878
253.922915 90.824 163.4988
255.762945 90.798 163.7192
257.616309 90.776 163.9395
259.483103 90.757 164.1495
261.363424 90.738 164.3435
263.257372 90.719 164.5229
265.165043 90.700 164.6945
267.086538 90.678 164.8661
269.021957 90.656 165.0440
270.971401 90.633 165.2316
272.934972 90.611 165.4290
274.912771 90.589 165.6341
276.904902 90.569 165.8447
278.911469 90.550 166.0588
280.932577 90.532 166.2750
282.968330 90.517 166.4905
285.018835 90.504 166.7006
287.084199 90.493 166.8977
289.164530 90.482 167.0751
291.259935 90.470 167.2305
293.370525 90.456 167.3687
295.496408 90.439 167.5001
297.637697 90.419 167.6359
299.794503 90.397 167.7838
301.966937 90.373 167.9466
304.155114 90.350 168.1225
306.359147 90.326 168.3071
308.579152 90.303 168.4955
310.815244 90.280 168.6841
313.067539 90.256 168.8721
315.336156 90.233 169.0615
317.621211 90.209 169.2568
319.922826 90.184 169.4629
322.241118 90.160 169.6815
324.576210 90.136 169.9114
326.928223 90.113 170.1490
329.297280 90.092 170.3900
331.683504 90.072 170.6304
334.087019 90.053 170.8676
336.507952 90.035 171.0995
338.946427 90.016 171.3263
341.402572 89.997 171.5496
343.876516 89.977 171.7728
346.368387 89.957 171.9996
348.878315 89.936 172.2322
351.406431 89.915 172.4709
353.952867 89.895 172.7146
356.517756 89.875 172.9616
359.101230 89.855 173.2104
361.703426 89.835 173.4606
364.324478 89.816 173.7120
366.964523 89.796 173.9652
369.623699 89.777 174.2206
372.302145 89.758 174.4783
375.000000 89.740 174.7381
377.717405 89.721 174.9998
380.454501 89.704 175.2631
383.211431 89.687 175.5280
385.988339 89.670 175.7944
388.785369 89.653 176.0631
391.602668 89.637 176.3345
394.440383 89.621 176.6089
397.298660 89.606 176.8858
400.177650 89.591 177.1641
403.077502 89.576 177.4420
405.998368 89.561 177.7175
408.940400 89.547 177.9902
411.903750 89.533 178.2620
414.888575 89.518 178.5367
417.895028 89.502 178.8182
420.923268 89.487 179.1094
423.973452 89.473 179.4107
427.045738 89.459 179.7206
430.140287 89.448 -179.9647
433.257261 89.438 -179.6501
436.396822 89.430 -179.3389
439.559133 89.423 -179.0316
442.744360 89.418 -178.7283
445.952668 89.413 -178.4309
449.184225 89.410 -178.1445
452.439199 89.407 -177.8754
455.717760 89.403 -177.6265
459.020079 89.397 -177.3945
462.346327 89.388 -177.1685
465.696680 89.376 -176.9360
469.071310 89.363 -176.6895
472.470394 89.348 -176.4268
475.894109 89.334 -176.1509
479.342634 89.321 -175.8672
482.816148 89.307 -175.5814
486.314833 89.294 -175.2957
489.838871 89.279 -175.0057
493.388445 89.264 -174.7037
496.963741 89.249 -174.3856
500.564945 89.236 -174.0551
504.192245 89.224 -173.7205
507.845830 89.215 -173.3892
511.525890 89.206 -173.0641
515.232618 89.197 -172.7436
518.966206 89.187 -172.4234
522.726849 89.176 -172.0984
526.514743 89.165 -171.7643
530.330086 89.154 -171.4195
534.173076 89.145 -171.0664
538.043915 89.137 -170.7100
541.942803 89.129 -170.3530
545.869944 89.123 -169.9947
549.825542 89.118 -169.6345
553.809805 89.113 -169.2739
557.822939 89.109 -168.9163
561.865154 89.106 -168.5632
565.936660 89.103 -168.2141
570.037671 89.099 -167.8657
574.168399 89.095 -167.5145
578.329060 89.090 -167.1585
582.519870 89.086 -166.7979
586.741049 89.081 -166.4329
590.992817 89.077 -166.0613
595.275394 89.073 -165.6809
599.589005 89.069 -165.2924
603.933874 89.067 -164.8997
608.310228 89.066 -164.5066
612.718295 89.065 -164.1146
617.158304 89.064 -163.7216
621.630488 89.062 -163.3218
626.135079 89.061 -162.9091
630.672311 89.061 -162.4810
635.242423 89.062 -162.0417
639.845651 89.066 -161.5977
644.482237 89.072 -161.1512
649.152421 89.080 -160.7017
653.856447 89.090 -160.2502
658.594560 89.104 -159.8039
663.367008 89.120 -159.3730
668.174039 89.137 -158.9658
673.015903 89.154 -158.5815
677.892854 89.169 -158.2124
682.805145 89.181 -157.8492
687.753032 89.192 -157.4847
692.736774 89.200 -157.1136
697.756631 89.208 -156.7314
702.812863 89.216 -156.3362
707.905735 89.224 -155.9302
713.035511 89.233 -155.5175
718.202461 89.243 -155.1013
723.406852 89.254 -154.6819
728.648956 89.265 -154.2587
733.929047 89.276 -153.8304
739.247399 89.289 -153.3970
744.604290 89.301 -152.9582
750.000000 89.315 -152.5141
755.434809 89.329 -152.0649
760.909001 89.344 -151.6115
766.422861 89.360 -151.1541
771.976677 89.377 -150.6934
777.570739 89.395 -150.2296
783.205337 89.414 -149.7626
788.880766 89.434 -149.2906
794.597321 89.455 -148.8109
800.355301 89.478 -148.3209
806.155005 89.504 -147.8229
811.996736 89.533 -147.3232
817.880799 89.566 -146.8315
823.807501 89.602 -146.3571
829.777150 89.639 -145.9074
835.790057 89.677 -145.4840
841.846536 89.713 -145.0797
847.946903 89.747 -144.6838
854.091476 89.780 -144.2886
860.280575 89.811 -143.8904
866.514523 89.842 -143.4872
872.793644 89.872 -143.0759
879.118267 89.903 -142.6566
885.488720 89.935 -142.2327
891.905336 89.968 -141.8077
898.368450 90.002 -141.3812
904.878398 90.036 -140.9512
911.435520 90.072 -140.5168
918.040157 90.110 -140.0803
924.692655 90.149 -139.6451
931.393359 90.191 -139.2151
938.142619 90.234 -138.7938
944.940787 90.278 -138.3825
951.788218 90.323 -137.9796
958.685268 90.368 -137.5824
965.632296 90.413 -137.1882
972.629666 90.459 -136.7947
979.677741 90.505 -136.4015
986.776890 90.553 -136.0092
993.927482 90.600 -135.6166
1001.129891 90.649 -135.2192
1008.384491 90.698 -134.8130
1015.691660 90.751 -134.3991
1023.051781 90.806 -133.9827
1030.465236 90.865 -133.5717
1037.932411 90.928 -133.1774
1045.453698 90.994 -132.8118
1053.029486 91.060 -132.4805
1060.660172 91.126 -132.1802
1068.346153 91.189 -131.9025
1076.087829 91.250 -131.6379
1083.885605 91.309 -131.3792
1091.739887 91.367 -131.1236
1099.651084 91.424 -130.8703
1107.619609 91.479 -130.6184
1115.645878 91.534 -130.3665
1123.730308 91.587 -130.1126
1131.873321 91.639 -129.8552
1140.075341 91.691 -129.5923
1148.336797 91.741 -129.3224
1156.658119 91.791 -129.0430
1165.039741 91.842 -128.7509
1173.482099 91.893 -128.4424
1181.985634 91.946 -128.1156
1190.550789 92.002 -127.7740
1199.178011 92.062 -127.4269
1207.867749 92.126 -127.0841
1216.620457 92.193 -126.7510
1225.436590 92.262 -126.4246
1234.316609 92.332 -126.0992
1243.260976 92.405 -125.7712
1252.270157 92.481 -125.4413
1261.344623 92.562 -125.1163
1270.484846 92.648 -124.8080
1279.691303 92.738 -124.5283
1288.964474 92.831 -124.2872
1298.304842 92.927 -124.0924
1307.712894 93.023 -123.9485
1317.189120 93.118 -123.8556
1326.734016 93.210 -123.8080
1336.348077 93.297 -123.7950
1346.031806 93.380 -123.8036
1355.785708 93.459 -123.8210
1365.610290 93.534 -123.8359
1375.506065 93.606 -123.8383
1385.473549 93.677 -123.8192
1395.513261 93.748 -123.7747
1405.625726 93.821 -123.7080
1415.811469 93.897 -123.6302
1426.071023 93.975 -123.5556
1436.404921 94.054 -123.4943
1446.813703 94.133 -123.4479
1457.297912 94.210 -123.4126
1467.858093 94.284 -123.3837
1478.494798 94.357 -123.3577
1489.208581 94.426 -123.3318
1500.000000 94.492 -123.3029
1510.869618 94.555 -123.2681
1521.818002 94.613 -123.2245
1532.845723 94.666 -123.1702
1543.953355 94.717 -123.1039
1555.141477 94.765 -123.0260
1566.410674 94.814 -122.9412
1577.761531 94.864 -122.8605
1589.194642 94.916 -122.7971
1600.710601 94.968 -122.7599
1612.310010 95.020 -122.7491
1623.993473 95.069 -122.7596
1635.761599 95.116 -122.7841
1647.615002 95.160 -122.8160
1659.554299 95.202 -122.8501
1671.580114 95.243 -122.8818
1683.693072 95.282 -122.9093
1695.893807 95.320 -122.9331
1708.182952 95.357 -122.9540
1720.561150 95.392 -122.9708
1733.029045 95.425 -122.9792
1745.587288 95.454 -122.9725
1758.236533 95.482 -122.9428
1770.977440 95.509 -122.8833
1783.810673 95.538 -122.7931
1796.736900 95.571 -122.6796
1809.756796 95.609 -122.5558
1822.871040 95.652 -122.4329
1836.080315 95.699 -122.3169
1849.385310 95.750 -122.2112
1862.786718 95.806 -122.1198
1876.285239 95.867 -122.0484
1889.881575 95.934 -122.0035
1903.576436 96.007 -121.9920
1917.370535 96.085 -122.0196
1931.264593 96.168 -122.0904
1945.259332 96.256 -122.2078
1959.355483 96.347 -122.3767
1973.553781 96.438 -122.6015
1987.854965 96.525 -122.8805
2002.259781 96.608 -123.2040
2016.768981 96.683 -123.5573
2031.383320 96.750 -123.9250
2046.103561 96.811 -124.2937
2060.930471 96.865 -124.6531
2075.864823 96.914 -124.9971
2090.907395 96.959 -125.3221
2106.058972 96.998 -125.6240
2121.320344 97.033 -125.8961
2136.692305 97.065 -126.1287
2152.175658 97.093 -126.3120
2167.771210 97.122 -126.4414
2183.479774 97.155 -126.5229
2199.302169 97.192 -126.5702
2215.239219 97.236 -126.5997
2231.291755 97.287 -126.6279
2247.460615 97.345 -126.6714
2263.746641 97.409 -126.7458
2280.150683 97.477 -126.8637
2296.673595 97.549 -127.0333
2313.316238 97.621 -127.2580
2330.079481 97.692 -127.5387
2346.964198 97.762 -127.8765
2363.971268 97.829 -128.2713
2381.101578 97.890 -128.7173
2398.356022 97.944 -129.2028
2415.735498 97.991 -129.7128
2433.240913 98.029 -130.2324
2450.873180 98.060 -130.7487
2468.633217 98.086 -131.2529
2486.521951 98.106 -131.7386
2504.540314 98.122 -132.1991
2522.689246 98.135 -132.6277
2540.969692 98.148 -133.0203
2559.382606 98.163 -133.3818
2577.928947 98.180 -133.7268
2596.609683 98.202 -134.0741
2615.425787 98.225 -134.4399
2634.378241 98.248 -134.8342
2653.468031 98.270 -135.2581
2672.696154 98.287 -135.7042
2692.063613 98.301 -136.1597
2711.571415 98.311 -136.6121
2731.220579 98.319 -137.0559
2751.012130 98.326 -137.4930
2770.947098 98.331 -137.9280
2791.026522 98.335 -138.3647
2811.251451 98.337 -138.8049
2831.622938 98.337 -139.2487
2852.142045 98.335 -139.6959
2872.809842 98.329 -140.1443
2893.627406 98.319 -140.5880
2914.595823 98.306 -141.0161
2935.716186 98.289 -141.4185
2956.989596 98.271 -141.7913
2978.417161 98.252 -142.1375
3000.000000 98.234 -142.4623
3021.739237 98.216 -142.7701
3043.636005 98.198 -143.0613
3065.691446 98.179 -143.3319
3087.906710 98.162 -143.5762
3110.282955 98.147 -143.7932
3132.821347 98.135 -143.9896
3155.523062 98.128 -144.1772
3178.389283 98.124 -144.3680
3201.421202 98.124 -144.5715
3224.620020 98.125 -144.7947
3247.986946 98.127 -145.0413
3271.523198 98.127 -145.3095
3295.230004 98.125 -145.5906
3319.108599 98.121 -145.8719
3343.160228 98.115 -146.1434
3367.386145 98.109 -146.4012
3391.787613 98.103 -146.6454
3416.365904 98.098 -146.8768
3441.122300 98.095 -147.0944
3466.058091 98.092 -147.2938
3491.174576 98.092 -147.4724
3516.473066 98.097 -147.6340
3541.954880 98.106 -147.7886
3567.621345 98.121 -147.9487
3593.473800 98.141 -148.1262
3619.513592 98.164 -148.3305
3645.742080 98.189 -148.5674
3672.160630 98.214 -148.8358
3698.770620 98.238 -149.1280
3725.573436 98.261 -149.4369
3752.570477 98.285 -149.7606
3779.763150 98.309 -150.1028
3807.152872 98.333 -150.4683
3834.741071 98.355 -150.8580
3862.529185 98.375 -151.2679
3890.518664 98.393 -151.6935
3918.710966 98.411 -152.1354
3947.107561 98.429 -152.6001
3975.709929 98.448 -153.0968
4004.519563 98.467 -153.6361
4033.537962 98.486 -154.2268
4062.766641 98.501 -154.8716
4092.207123 98.513 -155.5655
4121.860942 98.519 -156.3014
4151.729646 98.519 -157.0743
4181.814790 98.512 -157.8814
4212.117944 98.498 -158.7180
4242.640687 98.475 -159.5736
4273.384610 98.443 -160.4352
4304.351317 98.403 -161.2927
4335.542421 98.356 -162.1425
4366.959549 98.304 -162.9869
4398.604338 98.246 -163.8327
4430.478438 98.182 -164.6866
4462.583511 98.111 -165.5498
4494.921231 98.032 -166.4172
4527.493283 97.944 -167.2819
4560.301365 97.848 -168.1384
4593.347189 97.742 -168.9803
4626.632476 97.625 -169.7964
4660.158962 97.498 -170.5702
4693.928395 97.362 -171.2856
4727.942535 97.218 -171.9320
4762.203156 97.069 -172.5063
4796.712043 96.916 -173.0129
4831.470996 96.761 -173.4596
4866.481826 96.605 -173.8511
4901.746360 96.447 -174.1892
4937.266434 96.287 -174.4767
4973.043902 96.127 -174.7173
5009.080628 95.964 -174.9114
5045.378492 95.798 -175.0525
5081.939384 95.629 -175.1305
5118.765212 95.459 -175.1371
5155.857894 95.289 -175.0701
5193.219366 95.122 -174.9352
5230.851574 94.957 -174.7411
5268.756481 94.795 -174.4952
5306.936062 94.636 -174.2029
5345.392309 94.481 -173.8703
5384.127225 94.328 -173.5031
5423.142830 94.176 -173.1009
5462.441159 94.024 -172.6564
5502.024259 93.873 -172.1600
5541.894195 93.723 -171.6057
5582.053045 93.577 -170.9952
5622.502902 93.437 -170.3361
5663.245876 93.303 -169.6367
5704.284090 93.176 -168.9049
5745.619684 93.056 -168.1503
5787.254813 92.943 -167.3807
5829.191647 92.834 -166.5980
5871.432373 92.728 -165.7963
5913.979192 92.627 -164.9668
5956.834323 92.530 -164.1029
6000.000000 92.439 -163.2035
6043.478473 92.355 -162.2706
6087.272010 92.278 -161.3081
6131.382892 92.210 -160.3219
6175.813420 92.150 -159.3188
6220.565910 92.097 -158.3012
6265.642695 92.051 -157.2650
6311.046124 92.011 -156.2020
6356.778566 91.978 -155.1052
6402.842404 91.955 -153.9720
6449.240040 91.942 -152.8035
6495.973891 91.942 -151.6042
6543.046396 91.956 -150.3836
6590.460007 91.984 -149.1519
6638.217197 92.027 -147.9160
6686.320456 92.085 -146.6786
6734.772290 92.159 -145.4418
6783.575226 92.251 -144.2098
6832.731809 92.361 -142.9912
6882.244600 92.490 -141.7988
6932.116181 92.640 -140.6511
6982.349153 92.809 -139.5685
7032.946133 92.999 -138.5692
7083.909760 93.209 -137.6675
7135.242690 93.439 -136.8776
7186.947600 93.692 -136.2173
7239.027185 93.968 -135.7100
7291.484160 94.267 -135.3865
7344.321260 94.589 -135.2856
7397.541239 94.930 -135.4491
7451.146872 95.287 -135.9159
7505.140954 95.654 -136.7211
7559.526299 96.026 -137.8973
7614.305743 96.396 -139.4744
7669.482141 96.754 -141.4777
7725.058371 97.092 -143.9263
7781.037328 97.397 -146.8263
7837.421932 97.656 -150.1611
7894.215122 97.855 -153.8863
7951.419859 97.984 -157.9299
8009.039125 98.034 -162.1958
8067.075924 98.001 -166.5713
8125.533282 97.884 -170.9387
8184.414245 97.684 -175.1843
8243.721885 97.408 -179.2034
8303.459292 97.061 177.0949
8363.629581 96.655 173.7837
8424.235888 96.198 170.9155
8485.281374 95.706 168.5186
8546.769221 95.190 166.5955
8608.702634 94.663 165.1256
8671.084842 94.134 164.0750
8733.919097 93.613 163.4045
8797.208675 93.105 163.0762
8860.956876 92.614 163.0549
8925.167022 92.146 163.3038
8989.842461 91.704 163.7816
9054.986566 91.290 164.4463
9120.602731 90.904 165.2600
9186.694378 90.546 166.1951
9253.264952 90.214 167.2349
9320.317925 89.907 168.3688
9387.856790 89.626 169.5859
9455.885071 89.370 170.8749
9524.406312 89.140 172.2278
9593.424086 88.935 173.6436
9662.941992 88.756 175.1275
9732.963653 88.608 176.6824
9803.492719 88.494 178.2971
9874.532869 88.418 179.9436
9946.087805 88.383 -178.4190
10018.161257 88.388 -176.8334
10090.756983 88.433 -175.3365
10163.878768 88.515 -173.9603
10237.530423 88.634 -172.7347
10311.715789 88.788 -171.6890
10386.438732 88.974 -170.8508
10461.703149 89.193 -170.2467
10537.512962 89.442 -169.9105
10613.872125 89.719 -169.8914
10690.784618 90.020 -170.2539
10768.254450 90.336 -171.0678
10846.285661 90.651 -172.3903
10924.882318 90.948 -174.2517
11004.048518 91.206 -176.6477
11083.788390 91.404 -179.5314
11164.106090 91.524 177.1913
11245.005805 91.548 173.6625
11326.491752 91.471 170.0582
11408.568180 91.295 166.5598
11491.239368 91.032 163.3188
11574.509626 90.703 160.4316
11658.383294 90.326 157.9344
11742.864745 89.922 155.8137
11827.958384 89.503 154.0269
11913.668646 89.077 152.5219
12000.000000 88.648 151.2531
12086.956947 88.216 150.1949
12174.544019 87.778 149.3433
12262.765784 87.336 148.7068
12351.626840 86.890 148.2940
12441.131819 86.445 148.1068
12531.285389 86.004 148.1417
12622.092249 85.571 148.3915
12713.557132 85.152 148.8424
12805.684808 84.750 149.4722
12898.480079 84.367 150.2549
12991.947783 84.007 151.1673
13086.092792 83.669 152.1899
13180.920015 83.354 153.3027
13276.434395 83.063 154.4849
13372.640911 82.796 155.7196
13469.544580 82.551 156.9966
13567.150452 82.329 158.3071
13665.463617 82.131 159.6401
13764.489200 81.955 160.9859
13864.232362 81.803 162.3391
13964.698305 81.677 163.6953
14065.892266 81.578 165.0450
14167.819519 81.510 166.3748
14270.485380 81.476 167.6704
14373.895200 81.480 168.9130
14478.054370 81.526 170.0734
14582.968320 81.619 171.1129
14688.642520 81.764 171.9862
14795.082478 81.965 172.6363
14902.293745 82.227 172.9886
15010.281908 82.550 172.9537
15119.052599 82.932 172.4319
15228.611486 83.367 171.3170
15338.964283 83.841 169.5045
15450.116741 84.330 166.9055
15562.074656 84.808 163.4626
15674.843864 85.239 159.1627
15788.430244 85.587 154.0485
15902.839718 85.820 148.2281
16018.078250 85.908 141.8759
16134.151848 85.833 135.2179
16251.066563 85.588 128.5048
16368.828491 85.178 121.9805
16487.443769 84.618 115.8505
16606.918584 83.933 110.2612
16727.259161 83.149 105.2927
16848.471777 82.295 100.9650
16970.562748 81.398 97.2466
17093.538442 80.480 94.0680
17217.405268 79.558 91.3388
17342.169684 78.643 88.9636
17467.838194 77.739 86.8538
17594.417350 76.844 84.9400
17721.913751 75.950 83.1801
17850.334044 75.048 81.5596
17979.684923 74.128 80.0889
18109.973131 73.181 78.7991
18241.205462 72.200 77.7333
18373.388756 71.180 76.9388
18506.529905 70.118 76.4662
18640.635849 69.015 76.3664
18775.713581 67.869 76.6846
18911.770141 66.684 77.4586
19048.812624 65.460 78.7161
19186.848172 64.200 80.4733
19325.883983 62.912 82.7346
19465.927305 61.610 85.4825
19606.985439 60.330 88.6340
19749.065738 59.145 91.9457
19892.175609 58.186 94.8983
20036.322514 57.634 96.7098
