* Measurement data measured by REW V5.30.5
* Source: EXCL: Microphone (Realtek(R) Audio), MICROPHONE (Master Volume), L, volume: 1.000
* Format: 256k Log Swept Sine, 1 sweep at -16.0 dBFS with no timing reference
* Dated: Feb 1, 2024 11:24:48 AM
* REW Settings:
*  C-weighting compensation: Off
*  Target level: 75.0 dB
* Note: Simgot EA500LM Gold L
* Measurement: L Feb 1 gold
* Smoothing: 1/12 octave
* Frequency Step: 96 ppo
* Start Frequency: 0.36621094 Hz
*
* Freq(Hz) SPL(dB) Phase(degrees)
0.366211 78.616 143.5914
0.368865 78.613 143.5358
0.371538 78.610 143.4525
0.374230 78.605 143.3482
0.376942 78.600 143.2284
0.379673 78.595 143.0973
0.382424 78.589 142.9575
0.385196 78.583 142.8107
0.387987 78.577 142.6579
0.390798 78.571 142.4994
0.393630 78.565 142.3356
0.396483 78.559 142.1666
0.399356 78.553 141.9924
0.402250 78.547 141.8129
0.405165 78.541 141.6281
0.408101 78.534 141.4380
0.411058 78.528 141.2425
0.414037 78.522 141.0415
0.417037 78.515 140.8349
0.420059 78.509 140.6228
0.423103 78.502 140.4049
0.426169 78.496 140.1814
0.429257 78.489 139.9520
0.432367 78.483 139.7168
0.435501 78.476 139.4756
0.438656 78.469 139.2284
0.441835 78.462 138.9752
0.445037 78.456 138.7158
0.448262 78.449 138.4502
0.451510 78.442 138.1784
0.454782 78.435 137.9003
0.458077 78.428 137.6158
0.461397 78.421 137.3248
0.464740 78.413 137.0273
0.468108 78.406 136.7233
0.471500 78.399 136.4126
0.474917 78.392 136.0953
0.478358 78.384 135.7713
0.481825 78.377 135.4404
0.485316 78.369 135.1028
0.488833 78.362 134.7582
0.492375 78.354 134.4067
0.495943 78.347 134.0483
0.499537 78.339 133.6828
0.503157 78.331 133.3102
0.506803 78.324 132.9306
0.510475 78.316 132.5438
0.514174 78.308 132.1498
0.517900 78.300 131.7487
0.521653 78.292 131.3402
0.525433 78.284 130.9245
0.529241 78.276 130.5016
0.533076 78.267 130.0713
0.536939 78.259 129.6337
0.540830 78.251 129.1887
0.544749 78.242 128.7364
0.548696 78.234 128.2767
0.552673 78.226 127.8096
0.556677 78.217 127.3352
0.560711 78.208 126.8534
0.564774 78.200 126.3642
0.568867 78.191 125.8676
0.572989 78.182 125.3638
0.577141 78.173 124.8525
0.581324 78.164 124.3340
0.585536 78.155 123.8082
0.589779 78.146 123.2751
0.594053 78.137 122.7348
0.598358 78.128 122.1872
0.602694 78.119 121.6326
0.607061 78.109 121.0707
0.611460 78.100 120.5019
0.615891 78.090 119.9259
0.620354 78.081 119.3430
0.624849 78.071 118.7532
0.629377 78.062 118.1564
0.633938 78.052 117.5528
0.638532 78.042 116.9425
0.643159 78.032 116.3255
0.647819 78.022 115.7018
0.652514 78.012 115.0715
0.657242 78.002 114.4346
0.662005 77.992 113.7913
0.666802 77.982 113.1416
0.671634 77.971 112.4856
0.676501 77.961 111.8232
0.681403 77.951 111.1546
0.686341 77.940 110.4797
0.691314 77.930 109.7987
0.696324 77.919 109.1116
0.701369 77.909 108.4182
0.706452 77.899 107.7186
0.711571 77.889 107.0125
0.716727 77.881 106.2996
0.721921 77.874 105.5795
0.727153 77.869 104.8513
0.732422 77.867 104.1140
0.737729 77.869 103.3663
0.743075 77.875 102.6072
0.748460 77.883 101.8357
0.753883 77.894 101.0510
0.759346 77.906 100.2531
0.764849 77.920 99.4416
0.770391 77.935 98.6167
0.775974 77.951 97.7785
0.781597 77.969 96.9273
0.787261 77.987 96.0634
0.792965 78.006 95.1871
0.798712 78.026 94.2987
0.804499 78.047 93.3988
0.810329 78.070 92.4876
0.816201 78.093 91.5657
0.822116 78.117 90.6335
0.828073 78.142 89.6916
0.834073 78.168 88.7404
0.840118 78.195 87.7805
0.846205 78.223 86.8125
0.852337 78.253 85.8369
0.858514 78.283 84.8543
0.864735 78.314 83.8652
0.871001 78.347 82.8704
0.877313 78.380 81.8704
0.883670 78.414 80.8657
0.890074 78.450 79.8571
0.896523 78.487 78.8451
0.903020 78.524 77.8303
0.909564 78.563 76.8133
0.916155 78.603 75.7947
0.922793 78.644 74.7751
0.929480 78.686 73.7549
0.936216 78.729 72.7348
0.943000 78.773 71.7152
0.949833 78.818 70.6967
0.956716 78.864 69.6795
0.963649 78.912 68.6644
0.970632 78.960 67.6515
0.977666 79.010 66.6413
0.984750 79.060 65.6341
0.991886 79.112 64.6302
0.999074 79.165 63.6299
1.006313 79.219 62.6335
1.013605 79.274 61.6411
1.020950 79.330 60.6529
1.028349 79.387 59.6690
1.035801 79.445 58.6896
1.043306 79.504 57.7145
1.050867 79.564 56.7439
1.058482 79.626 55.7776
1.066152 79.688 54.8155
1.073878 79.752 53.8573
1.081659 79.816 52.9025
1.089498 79.883 51.9506
1.097393 79.950 51.0008
1.105345 80.020 50.0524
1.113355 80.091 49.1046
1.121422 80.164 48.1569
1.129549 80.240 47.2091
1.137734 80.318 46.2611
1.145978 80.398 45.3131
1.154283 80.481 44.3653
1.162647 80.565 43.4181
1.171072 80.652 42.4719
1.179558 80.741 41.5270
1.188106 80.833 40.5838
1.196715 80.926 39.6428
1.205387 81.021 38.7043
1.214122 81.119 37.7687
1.222920 81.218 36.8365
1.231781 81.319 35.9081
1.240708 81.422 34.9838
1.249698 81.526 34.0639
1.258754 81.632 33.1490
1.267875 81.739 32.2393
1.277063 81.848 31.3352
1.286317 81.958 30.4370
1.295638 82.069 29.5451
1.305027 82.182 28.6598
1.314484 82.295 27.7813
1.324009 82.409 26.9100
1.333603 82.524 26.0460
1.343267 82.639 25.1898
1.353001 82.755 24.3414
1.362805 82.871 23.5012
1.372681 82.988 22.6693
1.382628 83.104 21.8460
1.392647 83.220 21.0313
1.402739 83.336 20.2254
1.412904 83.452 19.4284
1.423142 83.567 18.6403
1.433455 83.681 17.8610
1.443842 83.795 17.0903
1.454305 83.908 16.3279
1.464843 84.021 15.5733
1.475458 84.133 14.8259
1.486150 84.246 14.0850
1.496919 84.359 13.3501
1.507766 84.472 12.6210
1.518692 84.585 11.8973
1.529697 84.699 11.1789
1.540782 84.814 10.4657
1.551947 84.929 9.7576
1.563193 85.044 9.0546
1.574521 85.160 8.3566
1.585931 85.276 7.6635
1.597423 85.393 6.9752
1.608998 85.510 6.2917
1.620658 85.627 5.6129
1.632402 85.745 4.9386
1.644231 85.863 4.2687
1.656146 85.981 3.6032
1.668147 86.099 2.9418
1.680235 86.217 2.2845
1.692410 86.336 1.6311
1.704674 86.454 0.9815
1.717027 86.572 0.3354
1.729469 86.691 -0.3072
1.742002 86.809 -0.9467
1.754625 86.927 -1.5831
1.767340 87.045 -2.2168
1.780147 87.162 -2.8478
1.793046 87.279 -3.4766
1.806040 87.396 -4.1035
1.819127 87.513 -4.7288
1.832309 87.629 -5.3529
1.845587 87.745 -5.9761
1.858961 87.860 -6.5988
1.872431 87.975 -7.2211
1.886000 88.090 -7.8429
1.899666 88.204 -8.4642
1.913432 88.318 -9.0847
1.927298 88.431 -9.7041
1.941264 88.545 -10.3223
1.955331 88.658 -10.9390
1.969500 88.770 -11.5540
1.983772 88.883 -12.1669
1.998147 88.995 -12.7776
2.012626 89.106 -13.3858
2.027211 89.218 -13.9913
2.041901 89.329 -14.5940
2.056697 89.440 -15.1936
2.071601 89.551 -15.7901
2.086613 89.661 -16.3832
2.101733 89.771 -16.9728
2.116963 89.881 -17.5590
2.132303 89.991 -18.1416
2.147755 90.101 -18.7207
2.163318 90.211 -19.2966
2.178995 90.320 -19.8696
2.194785 90.429 -20.4400
2.210689 90.538 -21.0086
2.226709 90.646 -21.5758
2.242844 90.754 -22.1419
2.259097 90.861 -22.7073
2.275467 90.968 -23.2720
2.291956 91.074 -23.8359
2.308565 91.179 -24.3988
2.325294 91.285 -24.9607
2.342144 91.389 -25.5212
2.359116 91.494 -26.0802
2.376211 91.597 -26.6374
2.393430 91.701 -27.1927
2.410774 91.804 -27.7458
2.428243 91.907 -28.2965
2.445839 92.009 -28.8447
2.463562 92.111 -29.3903
2.481415 92.213 -29.9331
2.499396 92.315 -30.4731
2.517508 92.416 -31.0104
2.535750 92.517 -31.5452
2.554126 92.618 -32.0777
2.572634 92.719 -32.6083
2.591276 92.819 -33.1376
2.610054 92.918 -33.6660
2.628967 93.017 -34.1936
2.648018 93.116 -34.7206
2.667206 93.214 -35.2469
2.686534 93.311 -35.7725
2.706002 93.408 -36.2973
2.725610 93.505 -36.8209
2.745361 93.601 -37.3434
2.765255 93.696 -37.8644
2.785294 93.791 -38.3839
2.805477 93.886 -38.9016
2.825807 93.980 -39.4174
2.846284 94.075 -39.9312
2.866909 94.168 -40.4431
2.887684 94.262 -40.9530
2.908609 94.355 -41.4612
2.929686 94.448 -41.9680
2.950916 94.541 -42.4738
2.972299 94.633 -42.9790
2.993838 94.725 -43.4838
3.015532 94.816 -43.9882
3.037384 94.906 -44.4924
3.059394 94.996 -44.9960
3.081564 95.086 -45.4989
3.103894 95.175 -46.0009
3.126386 95.263 -46.5017
3.149041 95.352 -47.0010
3.171861 95.439 -47.4986
3.194845 95.527 -47.9942
3.217996 95.614 -48.4877
3.241315 95.701 -48.9790
3.264803 95.788 -49.4682
3.288461 95.874 -49.9554
3.312291 95.960 -50.4410
3.336293 96.045 -50.9253
3.360469 96.130 -51.4086
3.384820 96.214 -51.8910
3.409348 96.298 -52.3725
3.434054 96.382 -52.8532
3.458938 96.465 -53.3329
3.484003 96.547 -53.8114
3.509250 96.629 -54.2887
3.534679 96.711 -54.7644
3.560293 96.792 -55.2386
3.586092 96.873 -55.7110
3.612079 96.954 -56.1818
3.638253 97.034 -56.6510
3.664618 97.114 -57.1188
3.691173 97.194 -57.5856
3.717921 97.273 -58.0514
3.744862 97.352 -58.5165
3.771999 97.430 -58.9809
3.799332 97.508 -59.4444
3.826864 97.585 -59.9069
3.854595 97.662 -60.3682
3.882527 97.738 -60.8279
3.910661 97.814 -61.2860
3.938999 97.890 -61.7421
3.967543 97.965 -62.1962
3.996294 98.040 -62.6482
4.025252 98.115 -63.0984
4.054421 98.189 -63.5467
4.083801 98.263 -63.9936
4.113394 98.336 -64.4391
4.143201 98.409 -64.8833
4.173225 98.481 -65.3261
4.203466 98.554 -65.7675
4.233926 98.625 -66.2072
4.264606 98.697 -66.6450
4.295509 98.767 -67.0809
4.326636 98.838 -67.5146
4.357989 98.908 -67.9462
4.389569 98.978 -68.3756
4.421378 99.048 -68.8031
4.453417 99.117 -69.2288
4.485688 99.186 -69.6528
4.518193 99.255 -70.0751
4.550934 99.323 -70.4956
4.583912 99.391 -70.9143
4.617129 99.458 -71.3310
4.650587 99.525 -71.7456
4.684287 99.592 -72.1578
4.718231 99.659 -72.5676
4.752421 99.726 -72.9751
4.786859 99.792 -73.3802
4.821547 99.858 -73.7830
4.856485 99.924 -74.1837
4.891677 99.990 -74.5824
4.927125 100.055 -74.9791
4.962829 100.121 -75.3738
4.998791 100.186 -75.7666
5.035015 100.251 -76.1574
5.071500 100.316 -76.5462
5.108251 100.380 -76.9329
5.145267 100.445 -77.3177
5.182552 100.510 -77.7006
5.220107 100.575 -78.0816
5.257934 100.639 -78.4609
5.296035 100.704 -78.8388
5.334412 100.769 -79.2153
5.373067 100.833 -79.5908
5.412003 100.898 -79.9653
5.451221 100.963 -80.3390
5.490722 101.027 -80.7119
5.530510 101.092 -81.0841
5.570587 101.157 -81.4557
5.610953 101.222 -81.8267
5.651613 101.287 -82.1976
5.692567 101.353 -82.5684
5.733818 101.418 -82.9396
5.775367 101.483 -83.3114
5.817218 101.548 -83.6841
5.859372 101.614 -84.0578
5.901831 101.679 -84.4326
5.944598 101.745 -84.8086
5.987675 101.811 -85.1859
6.031065 101.876 -85.5647
6.074768 101.942 -85.9453
6.118788 102.007 -86.3279
6.163127 102.073 -86.7127
6.207788 102.138 -87.1001
6.252772 102.203 -87.4901
6.298082 102.268 -87.8828
6.343721 102.333 -88.2782
6.389690 102.398 -88.6763
6.435992 102.462 -89.0772
6.482630 102.526 -89.4807
6.529606 102.590 -89.8871
6.576922 102.653 -90.2963
6.624581 102.716 -90.7084
6.672585 102.778 -91.1234
6.720938 102.840 -91.5413
6.769640 102.901 -91.9617
6.818696 102.962 -92.3845
6.868107 103.022 -92.8093
6.917876 103.081 -93.2360
6.968006 103.140 -93.6645
7.018499 103.198 -94.0948
7.069358 103.255 -94.5266
7.120586 103.311 -94.9597
7.172184 103.367 -95.3936
7.224157 103.421 -95.8280
7.276506 103.475 -96.2625
7.329235 103.529 -96.6967
7.382345 103.581 -97.1306
7.435841 103.633 -97.5639
7.489724 103.684 -97.9965
7.543997 103.734 -98.4279
7.598664 103.783 -98.8578
7.653728 103.832 -99.2860
7.709189 103.881 -99.7120
7.765053 103.928 -100.1359
7.821322 103.975 -100.5576
7.877998 104.022 -100.9769
7.935086 104.068 -101.3939
7.992587 104.114 -101.8084
8.050504 104.160 -102.2204
8.108841 104.205 -102.6298
8.167601 104.250 -103.0367
8.226787 104.295 -103.4414
8.286402 104.340 -103.8441
8.346449 104.384 -104.2449
8.406931 104.429 -104.6442
8.467851 104.474 -105.0421
8.529212 104.519 -105.4389
8.591018 104.563 -105.8349
8.653272 104.608 -106.2305
8.715977 104.653 -106.6261
8.779137 104.698 -107.0222
8.842754 104.743 -107.4189
8.906833 104.788 -107.8166
8.971375 104.834 -108.2156
9.036386 104.879 -108.6161
9.101867 104.924 -109.0184
9.167823 104.969 -109.4229
9.234257 105.014 -109.8296
9.301172 105.058 -110.2386
9.368572 105.103 -110.6500
9.436460 105.147 -111.0638
9.504841 105.191 -111.4798
9.573717 105.234 -111.8981
9.643092 105.277 -112.3185
9.712970 105.319 -112.7407
9.783354 105.361 -113.1645
9.854248 105.402 -113.5896
9.925656 105.443 -114.0156
9.997581 105.483 -114.4423
10.070028 105.523 -114.8693
10.143000 105.561 -115.2961
10.216500 105.600 -115.7225
10.290533 105.637 -116.1480
10.365103 105.674 -116.5723
10.440212 105.711 -116.9953
10.515866 105.747 -117.4164
10.592069 105.782 -117.8357
10.668823 105.817 -118.2527
10.746134 105.852 -118.6674
10.824005 105.887 -119.0798
10.902440 105.921 -119.4899
10.981443 105.955 -119.8975
11.061020 105.989 -120.3029
11.141172 106.023 -120.7060
11.221906 106.056 -121.1071
11.303225 106.090 -121.5062
11.385133 106.124 -121.9036
11.467634 106.157 -122.2995
11.550734 106.191 -122.6939
11.634435 106.224 -123.0872
11.718742 106.258 -123.4794
11.803661 106.291 -123.8707
11.889195 106.325 -124.2612
11.975349 106.358 -124.6510
12.062128 106.391 -125.0401
12.149535 106.425 -125.4286
12.237576 106.458 -125.8166
12.326254 106.491 -126.2040
12.415575 106.524 -126.5907
12.505544 106.557 -126.9769
12.596164 106.589 -127.3626
12.687441 106.622 -127.7476
12.779379 106.654 -128.1321
12.871984 106.687 -128.5162
12.965260 106.719 -128.8999
13.059211 106.751 -129.2834
13.153843 106.783 -129.6667
13.249161 106.815 -130.0500
13.345170 106.846 -130.4335
13.441875 106.878 -130.8174
13.539280 106.909 -131.2017
13.637391 106.940 -131.5866
13.736214 106.971 -131.9722
13.835752 107.001 -132.3586
13.936011 107.031 -132.7457
14.036998 107.061 -133.1335
14.138716 107.090 -133.5218
14.241171 107.118 -133.9106
14.344368 107.146 -134.2996
14.448313 107.174 -134.6885
14.553011 107.201 -135.0773
14.658468 107.227 -135.4655
14.764689 107.252 -135.8530
14.871680 107.277 -136.2396
14.979446 107.301 -136.6252
15.087994 107.325 -137.0096
15.197328 107.348 -137.3928
15.307454 107.370 -137.7748
15.418378 107.392 -138.1558
15.530106 107.414 -138.5359
15.642643 107.435 -138.9151
15.755996 107.455 -139.2937
15.870171 107.475 -139.6716
15.985172 107.495 -140.0490
16.101007 107.513 -140.4257
16.217682 107.531 -140.8016
16.335201 107.548 -141.1765
16.453573 107.565 -141.5500
16.572803 107.581 -141.9216
16.692898 107.596 -142.2909
16.813862 107.610 -142.6574
16.935701 107.624 -143.0205
17.058424 107.637 -143.3799
17.182035 107.650 -143.7353
17.306543 107.663 -144.0866
17.431953 107.675 -144.4337
17.558273 107.687 -144.7770
17.685509 107.700 -145.1168
17.813665 107.713 -145.4538
17.942751 107.726 -145.7887
18.072771 107.739 -146.1223
18.203733 107.753 -146.4554
18.335646 107.768 -146.7890
18.468513 107.782 -147.1236
18.602345 107.797 -147.4599
18.737144 107.812 -147.7984
18.872921 107.828 -148.1395
19.009682 107.843 -148.4831
19.147434 107.858 -148.8295
19.286184 107.874 -149.1786
19.425940 107.889 -149.5301
19.566708 107.903 -149.8840
19.708496 107.918 -150.2399
19.851313 107.932 -150.5977
19.995163 107.946 -150.9568
20.140057 107.959 -151.3169
20.285999 107.972 -151.6774
20.433001 107.984 -152.0375
20.581066 107.996 -152.3963
20.730206 108.006 -152.7528
20.880424 108.017 -153.1058
21.031733 108.026 -153.4543
21.184137 108.035 -153.7973
21.337646 108.044 -154.1340
21.492268 108.053 -154.4641
21.648010 108.062 -154.7877
21.804880 108.071 -155.1056
21.962887 108.081 -155.4187
22.122040 108.091 -155.7287
22.282345 108.103 -156.0372
22.443811 108.115 -156.3461
22.606449 108.127 -156.6568
22.770266 108.139 -156.9706
22.935268 108.152 -157.2880
23.101467 108.164 -157.6093
23.268869 108.175 -157.9337
23.437485 108.186 -158.2608
23.607323 108.196 -158.5894
23.778391 108.205 -158.9187
23.950699 108.213 -159.2482
24.124256 108.220 -159.5779
24.299070 108.227 -159.9084
24.475151 108.233 -160.2405
24.652508 108.239 -160.5756
24.831150 108.244 -160.9149
25.011087 108.248 -161.2594
25.192327 108.250 -161.6093
25.374882 108.251 -161.9641
25.558758 108.250 -162.3224
25.743967 108.247 -162.6822
25.930519 108.242 -163.0408
26.118422 108.234 -163.3952
26.307686 108.225 -163.7424
26.498322 108.214 -164.0800
26.690340 108.201 -164.4061
26.883749 108.188 -164.7195
27.078560 108.176 -165.0199
27.274782 108.164 -165.3079
27.472427 108.153 -165.5850
27.671503 108.143 -165.8533
27.872023 108.136 -166.1159
28.073996 108.132 -166.3766
28.277431 108.130 -166.6397
28.482342 108.131 -166.9099
28.688736 108.134 -167.1914
28.896626 108.138 -167.4880
29.106022 108.144 -167.8018
29.316936 108.150 -168.1332
29.529379 108.154 -168.4799
29.743361 108.157 -168.8377
29.958893 108.158 -169.2004
30.175987 108.156 -169.5610
30.394655 108.152 -169.9126
30.614908 108.147 -170.2497
30.836756 108.141 -170.5694
31.060211 108.135 -170.8714
31.285286 108.131 -171.1586
31.511992 108.129 -171.4359
31.740341 108.129 -171.7089
31.970345 108.130 -171.9830
32.202015 108.133 -172.2618
32.435364 108.135 -172.5466
32.670403 108.136 -172.8362
32.907146 108.136 -173.1278
33.145607 108.135 -173.4179
33.385796 108.132 -173.7035
33.627724 108.128 -173.9830
33.871403 108.124 -174.2566
34.116848 108.119 -174.5256
34.364071 108.113 -174.7920
34.613087 108.108 -175.0576
34.863907 108.101 -175.3228
35.116547 108.094 -175.5872
35.371017 108.087 -175.8499
35.627331 108.079 -176.1104
35.885502 108.071 -176.3700
36.145542 108.064 -176.6317
36.407467 108.058 -176.9001
36.671291 108.052 -177.1801
36.937027 108.046 -177.4748
37.204689 108.039 -177.7844
37.474289 108.030 -178.1052
37.745842 108.018 -178.4304
38.019363 108.003 -178.7518
38.294868 107.986 -179.0623
38.572369 107.969 -179.3575
38.851879 107.951 -179.6368
39.133415 107.935 -179.9028
39.416992 107.920 179.8402
39.702625 107.906 179.5882
39.990326 107.894 179.3384
40.280113 107.883 179.0897
40.571999 107.872 178.8414
40.866001 107.862 178.5924
41.162132 107.853 178.3401
41.460411 107.845 178.0811
41.760849 107.836 177.8115
42.063465 107.827 177.5291
42.368275 107.815 177.2338
42.675293 107.800 176.9285
42.984535 107.781 176.6190
43.296021 107.758 176.3129
43.609760 107.731 176.0195
43.925774 107.701 175.7476
44.244080 107.669 175.5032
44.564690 107.638 175.2872
44.887623 107.609 175.0932
45.212898 107.585 174.9083
45.540531 107.566 174.7167
45.870537 107.550 174.5057
46.202934 107.535 174.2706
46.537739 107.519 174.0171
46.874969 107.502 173.7576
47.214645 107.484 173.5046
47.556782 107.466 173.2634
47.901398 107.452 173.0291
48.248512 107.440 172.7899
48.598141 107.430 172.5345
48.950302 107.420 172.2597
49.305016 107.406 171.9728
49.662300 107.388 171.6887
50.022175 107.365 171.4236
50.384655 107.340 171.1884
50.749763 107.313 170.9863
51.117516 107.286 170.8139
51.487934 107.261 170.6643
51.861038 107.237 170.5295
52.236843 107.216 170.4009
52.615372 107.197 170.2691
52.996643 107.180 170.1242
53.380680 107.164 169.9579
53.767498 107.148 169.7650
54.157120 107.132 169.5441
54.549564 107.114 169.2959
54.944855 107.094 169.0227
55.343006 107.072 168.7277
55.744045 107.047 168.4173
56.147991 107.018 168.1013
56.554863 106.986 167.7911
56.964684 106.953 167.4952
57.377472 106.921 167.2150
57.793251 106.889 166.9451
58.212044 106.858 166.6787
58.633873 106.827 166.4138
59.058758 106.794 166.1566
59.486721 106.759 165.9177
59.917786 106.721 165.7059
60.351974 106.683 165.5240
60.789310 106.645 165.3690
61.229816 106.608 165.2359
61.673512 106.572 165.1187
62.120422 106.538 165.0092
62.570572 106.506 164.8962
63.023983 106.475 164.7698
63.480682 106.442 164.6283
63.940689 106.407 164.4815
64.404030 106.369 164.3468
64.870728 106.329 164.2400
65.340805 106.290 164.1700
65.814293 106.254 164.1407
66.291214 106.222 164.1550
66.771591 106.198 164.2131
67.255447 106.183 164.3041
67.742805 106.179 164.4018
68.233696 106.185 164.4725
68.728142 106.197 164.4938
69.226173 106.206 164.4692
69.727814 106.212 164.4234
70.233093 106.213 164.3828
70.742035 106.214 164.3546
71.254662 106.216 164.3225
71.771004 106.219 164.2640
72.291084 106.221 164.1693
72.814934 106.221 164.0428
73.342583 106.220 163.8858
73.874054 106.218 163.6824
74.409378 106.211 163.4135
74.948578 106.195 163.0862
75.491684 106.163 162.7460
76.038727 106.118 162.4513
76.589737 106.067 162.2353
77.144737 106.019 162.0886
77.703758 105.976 161.9760
78.266830 105.940 161.8636
78.833984 105.910 161.7299
79.405251 105.885 161.5620
79.980652 105.862 161.3526
80.560226 105.841 161.1023
81.143997 105.819 160.8180
81.732002 105.799 160.5079
82.324265 105.777 160.1795
82.920822 105.754 159.8440
83.521698 105.729 159.5193
84.126930 105.700 159.2274
84.736549 105.670 158.9861
85.350586 105.639 158.8040
85.969070 105.609 158.6788
86.592041 105.581 158.5996
87.219521 105.556 158.5478
87.851547 105.534 158.4975
88.488159 105.512 158.4244
89.129379 105.486 158.3201
89.775246 105.452 158.2006
90.425797 105.409 158.0976
91.081062 105.359 158.0389
91.741074 105.304 158.0366
92.405869 105.247 158.0891
93.075478 105.190 158.1892
93.749939 105.134 158.3217
94.429291 105.082 158.4561
95.113564 105.035 158.5506
95.802795 104.994 158.5695
96.497025 104.956 158.4970
97.196281 104.924 158.3336
97.900604 104.900 158.0901
98.610031 104.884 157.7903
99.324600 104.877 157.4708
100.044350 104.880 157.1694
100.769310 104.890 156.9105
101.499527 104.903 156.7015
102.235031 104.912 156.5374
102.975868 104.911 156.4036
103.722076 104.893 156.2798
104.473686 104.861 156.1456
105.230743 104.818 155.9775
105.993286 104.776 155.7466
106.761360 104.744 155.4432
107.534996 104.733 155.1056
108.314240 104.752 154.7964
109.099129 104.804 154.5533
109.889709 104.877 154.3907
110.686012 104.946 154.3475
111.488091 104.986 154.4820
112.295982 104.982 154.7924
113.109726 104.928 155.1531
113.929367 104.816 155.3440
114.754944 104.647 155.1221
115.586502 104.430 154.2522
116.424088 104.182 152.5505
117.267746 103.914 150.0223
118.117516 103.628 147.0585
118.973442 103.327 144.5569
119.835571 103.040 143.5643
120.703949 102.825 144.3022
121.578621 102.720 145.8644
122.459633 102.706 147.4039
123.347023 102.737 148.8314
124.240845 102.772 150.3431
125.141144 102.790 151.9799
126.047966 102.776 153.5893
126.961365 102.732 154.9677
127.881378 102.672 155.9286
128.808060 102.616 156.3233
129.741455 102.576 156.1495
130.681610 102.563 155.5997
131.628586 102.582 154.9496
132.582428 102.632 154.4285
133.543182 102.707 154.1483
134.510895 102.794 154.0689
135.485611 102.874 154.0646
136.467392 102.930 154.0628
137.456284 102.961 154.0692
138.452347 102.979 154.0948
139.455627 102.998 154.1223
140.466187 103.024 154.1311
141.484070 103.057 154.1270
142.509323 103.091 154.1255
143.542007 103.119 154.1299
144.582169 103.137 154.1365
145.629868 103.142 154.1393
146.685165 103.137 154.1319
147.748108 103.125 154.1152
148.818756 103.110 154.0983
149.897156 103.095 154.0868
150.983368 103.080 154.0699
152.077454 103.062 154.0286
153.179474 103.037 153.9648
154.289474 103.003 153.9021
155.407516 102.963 153.8585
156.533661 102.918 153.8400
157.667969 102.870 153.8424
158.810501 102.816 153.8520
159.961304 102.752 153.8579
161.120453 102.676 153.8610
162.287994 102.591 153.8677
163.464005 102.507 153.8784
164.648529 102.437 153.8736
165.841644 102.387 153.8251
167.043396 102.355 153.7365
168.253860 102.336 153.6588
169.473099 102.322 153.6546
170.701172 102.313 153.7477
171.938141 102.305 153.9039
173.184082 102.294 154.0660
174.439041 102.276 154.2032
175.703094 102.248 154.3198
176.976318 102.211 154.4327
178.258759 102.170 154.5470
179.550491 102.130 154.6412
180.851593 102.095 154.6753
182.162125 102.062 154.6212
183.482147 102.029 154.4947
184.811737 101.996 154.3415
186.150955 101.962 154.2037
187.499878 101.930 154.1020
188.858582 101.898 154.0359
190.227127 101.867 153.9931
191.605591 101.835 153.9621
192.994049 101.802 153.9431
194.392563 101.766 153.9487
195.801208 101.730 153.9963
197.220062 101.693 154.0945
198.649200 101.655 154.2352
200.088699 101.616 154.3965
201.538620 101.577 154.5511
202.999054 101.537 154.6788
204.470062 101.498 154.7747
205.951736 101.460 154.8464
207.444153 101.423 154.9047
208.947372 101.387 154.9565
210.461487 101.352 155.0056
211.986572 101.316 155.0559
213.522720 101.278 155.1122
215.069992 101.238 155.1789
216.628479 101.198 155.2590
218.198257 101.158 155.3531
219.779419 101.121 155.4598
221.372025 101.086 155.5762
222.976181 101.054 155.6975
224.591965 101.025 155.8174
226.219452 100.996 155.9312
227.858734 100.968 156.0374
229.509888 100.939 156.1380
231.173004 100.909 156.2357
232.848175 100.879 156.3321
234.535492 100.848 156.4276
236.235031 100.817 156.5226
237.946884 100.786 156.6187
239.671143 100.753 156.7184
241.407898 100.720 156.8248
243.157242 100.684 156.9393
244.919266 100.648 157.0610
246.694046 100.610 157.1886
248.481689 100.571 157.3235
250.282288 100.531 157.4696
252.095932 100.491 157.6307
253.922729 100.454 157.8079
255.762756 100.421 157.9948
257.616119 100.394 158.1776
259.482910 100.370 158.3464
261.363220 100.346 158.5012
263.257172 100.321 158.6459
265.164856 100.295 158.7825
267.086365 100.267 158.9124
269.021790 100.240 159.0411
270.971222 100.212 159.1780
272.934784 100.184 159.3290
274.912567 100.155 159.4935
276.904694 100.127 159.6665
278.911255 100.100 159.8431
280.932373 100.076 160.0198
282.968140 100.054 160.1943
285.018646 100.035 160.3625
287.084015 100.017 160.5176
289.164337 100.000 160.6534
291.259735 99.980 160.7688
293.370331 99.958 160.8691
295.496216 99.934 160.9642
297.637512 99.907 161.0631
299.794312 99.878 161.1706
301.966736 99.849 161.2866
304.154907 99.820 161.4090
306.358948 99.792 161.5366
308.578949 99.764 161.6701
310.815033 99.736 161.8103
313.067322 99.708 161.9578
315.335938 99.679 162.1133
317.621002 99.649 162.2790
319.922607 99.617 162.4565
322.240906 99.586 162.6448
324.575989 99.555 162.8390
326.928009 99.526 163.0329
329.297058 99.499 163.2223
331.683289 99.474 163.4072
334.086792 99.450 163.5901
336.507721 99.427 163.7737
338.946198 99.405 163.9575
341.402344 99.383 164.1393
343.876282 99.360 164.3191
346.368164 99.335 164.4987
348.878082 99.310 164.6801
351.406189 99.284 164.8648
353.952637 99.258 165.0544
356.517517 99.232 165.2504
359.100983 99.207 165.4526
361.703186 99.183 165.6599
364.324249 99.159 165.8694
366.964294 99.136 166.0785
369.623474 99.113 166.2860
372.301910 99.091 166.4935
374.999756 99.069 166.7034
377.717163 99.046 166.9167
380.454254 99.023 167.1331
383.211182 99.000 167.3513
385.988098 98.978 167.5713
388.785126 98.956 167.7928
391.602417 98.934 168.0153
394.440125 98.913 168.2380
397.298401 98.893 168.4608
400.177399 98.873 168.6840
403.077240 98.854 168.9061
405.998108 98.835 169.1246
408.940125 98.817 169.3385
411.903473 98.798 169.5508
414.888306 98.779 169.7672
417.894745 98.760 169.9943
420.922974 98.740 170.2365
423.973145 98.721 170.4942
427.045441 98.703 170.7638
430.139984 98.687 171.0384
433.256958 98.672 171.3102
436.396515 98.660 171.5739
439.558838 98.648 171.8289
442.744049 98.638 172.0770
445.952362 98.630 172.3179
449.183929 98.623 172.5487
452.438904 98.616 172.7645
455.717468 98.607 172.9625
459.019775 98.597 173.1462
462.346008 98.582 173.3255
465.696350 98.565 173.5116
469.070984 98.545 173.7126
472.470062 98.524 173.9308
475.893768 98.503 174.1630
479.342285 98.484 174.4008
482.815796 98.465 174.6355
486.314484 98.447 174.8647
489.838531 98.429 175.0945
493.388092 98.411 175.3354
496.963379 98.392 175.5933
500.564575 98.375 175.8657
504.191864 98.360 176.1455
507.845459 98.346 176.4255
511.525513 98.332 176.7018
515.232239 98.318 176.9740
518.965820 98.303 177.2438
522.726440 98.286 177.5140
526.514343 98.269 177.7888
530.329712 98.253 178.0713
534.172729 98.238 178.3610
538.043579 98.225 178.6556
541.942444 98.213 178.9551
545.869568 98.202 179.2605
549.825134 98.192 179.5710
553.809387 98.183 179.8830
557.822510 98.175 -179.8076
561.864746 98.167 -179.5027
565.936279 98.160 -179.2018
570.037292 98.152 -178.9019
574.168030 98.143 -178.5994
578.328674 98.133 -178.2920
582.519470 98.123 -177.9793
586.740662 98.113 -177.6612
590.992432 98.102 -177.3363
595.275024 98.092 -177.0031
599.588623 98.083 -176.6635
603.933472 98.076 -176.3226
608.309814 98.070 -175.9835
612.717896 98.064 -175.6469
617.157898 98.058 -175.3104
621.630066 98.052 -174.9682
626.134644 98.045 -174.6132
630.671875 98.039 -174.2436
635.242004 98.035 -173.8641
639.845215 98.033 -173.4809
644.481812 98.034 -173.0947
649.151978 98.037 -172.7026
653.856018 98.043 -172.3055
658.594116 98.051 -171.9108
663.366577 98.062 -171.5305
668.173584 98.074 -171.1737
673.015442 98.085 -170.8401
677.892395 98.094 -170.5215
682.804688 98.102 -170.2080
687.752563 98.107 -169.8922
692.736328 98.111 -169.5685
697.756165 98.114 -169.2323
702.812378 98.117 -168.8815
707.905273 98.120 -168.5184
713.035034 98.125 -168.1486
718.201965 98.131 -167.7778
723.406372 98.137 -167.4085
728.648499 98.145 -167.0387
733.928589 98.153 -166.6645
739.246948 98.161 -166.2839
744.603821 98.171 -165.8965
749.999512 98.181 -165.5028
755.434326 98.193 -165.1037
760.908508 98.207 -164.6990
766.422363 98.222 -164.2886
771.976196 98.237 -163.8727
777.570251 98.253 -163.4536
783.204834 98.269 -163.0336
788.880249 98.286 -162.6117
794.596802 98.305 -162.1838
800.354797 98.325 -161.7462
806.154480 98.349 -161.2993
811.996216 98.376 -160.8495
817.880249 98.407 -160.4056
823.806946 98.442 -159.9772
829.776611 98.478 -159.5721
835.789490 98.515 -159.1930
841.845947 98.550 -158.8351
847.946289 98.584 -158.4887
854.090881 98.617 -158.1457
860.279968 98.648 -157.8017
866.513916 98.679 -157.4536
872.793030 98.711 -157.0978
879.117676 98.743 -156.7338
885.488098 98.776 -156.3649
891.904724 98.811 -155.9938
898.367859 98.847 -155.6195
904.877808 98.885 -155.2395
911.434937 98.923 -154.8538
918.039551 98.964 -154.4657
924.692017 99.006 -154.0791
931.392700 99.049 -153.6980
938.141968 99.095 -153.3265
944.940125 99.142 -152.9666
951.787537 99.189 -152.6169
958.684570 99.236 -152.2741
965.631592 99.283 -151.9354
972.628967 99.330 -151.5979
979.677063 99.377 -151.2603
986.776184 99.425 -150.9232
993.926758 99.474 -150.5859
1001.129150 99.523 -150.2452
1008.383728 99.574 -149.8977
1015.690918 99.628 -149.5441
1023.051025 99.685 -149.1889
1030.464478 99.745 -148.8398
1037.931641 99.810 -148.5080
1045.452881 99.877 -148.2059
1053.028687 99.945 -147.9387
1060.659424 100.013 -147.7021
1068.345459 100.078 -147.4867
1076.087158 100.141 -147.2829
1083.884888 100.203 -147.0845
1091.739136 100.263 -146.8898
1099.650269 100.323 -146.6983
1107.618774 100.382 -146.5087
1115.645020 100.441 -146.3193
1123.729492 100.499 -146.1289
1131.872559 100.557 -145.9369
1140.074585 100.615 -145.7433
1148.336060 100.672 -145.5482
1156.657349 100.731 -145.3513
1165.038940 100.790 -145.1516
1173.481323 100.851 -144.9470
1181.984863 100.914 -144.7381
1190.550049 100.979 -144.5314
1199.177246 101.048 -144.3389
1207.866943 101.120 -144.1736
1216.619629 101.191 -144.0422
1225.435791 101.261 -143.9423
1234.315796 101.328 -143.8656
1243.260132 101.392 -143.8030
1252.269287 101.454 -143.7455
1261.343750 101.514 -143.6879
1270.484009 101.571 -143.6282
1279.690430 101.626 -143.5655
1288.963623 101.680 -143.4989
1298.303955 101.732 -143.4285
1307.712036 101.785 -143.3554
1317.188232 101.837 -143.2815
1326.733154 101.889 -143.2072
1336.347168 101.940 -143.1310
1346.030884 101.989 -143.0506
1355.784790 102.037 -142.9631
1365.609375 102.084 -142.8660
1375.505127 102.131 -142.7560
1385.472656 102.177 -142.6287
1395.512329 102.226 -142.4832
1405.624756 102.279 -142.3244
1415.810547 102.335 -142.1632
1426.070068 102.395 -142.0134
1436.403931 102.458 -141.8839
1446.812744 102.521 -141.7754
1457.296997 102.584 -141.6831
1467.857178 102.645 -141.6014
1478.493896 102.705 -141.5262
1489.207642 102.765 -141.4543
1499.999023 102.823 -141.3829
1510.868652 102.880 -141.3082
1521.817017 102.936 -141.2267
1532.844727 102.993 -141.1359
1543.952393 103.050 -141.0344
1555.140503 103.109 -140.9222
1566.409668 103.170 -140.8040
1577.760498 103.236 -140.6905
1589.193604 103.306 -140.5956
1600.709595 103.377 -140.5279
1612.308960 103.448 -140.4872
1623.992432 103.518 -140.4675
1635.760498 103.587 -140.4613
1647.613892 103.653 -140.4630
1659.553223 103.718 -140.4683
1671.578979 103.781 -140.4741
1683.691895 103.844 -140.4795
1695.892578 103.906 -140.4855
1708.181763 103.967 -140.4937
1720.559937 104.028 -140.5036
1733.027832 104.087 -140.5125
1745.586060 104.144 -140.5154
1758.235352 104.201 -140.5056
1770.976196 104.258 -140.4777
1783.809448 104.318 -140.4331
1796.735718 104.381 -140.3817
1809.755615 104.447 -140.3380
1822.869873 104.517 -140.3129
1836.079102 104.588 -140.3097
1849.384033 104.659 -140.3269
1862.785400 104.730 -140.3610
1876.283936 104.799 -140.4072
1889.880249 104.867 -140.4599
1903.575073 104.934 -140.5132
1917.369141 105.000 -140.5616
1931.263184 105.066 -140.6020
1945.257935 105.135 -140.6362
1959.354126 105.205 -140.6732
1973.552368 105.279 -140.7266
1987.853516 105.354 -140.8069
2002.258301 105.429 -140.9171
2016.767456 105.502 -141.0544
2031.381836 105.573 -141.2132
2046.102051 105.641 -141.3870
2060.928955 105.706 -141.5708
2075.863281 105.768 -141.7615
2090.905762 105.827 -141.9572
2106.057373 105.882 -142.1543
2121.318848 105.934 -142.3460
2136.690918 105.982 -142.5228
2152.174316 106.028 -142.6753
2167.769775 106.073 -142.8004
2183.478271 106.120 -142.9045
2199.300537 106.167 -142.9993
2215.237549 106.216 -143.0942
2231.290039 106.264 -143.1919
2247.458984 106.310 -143.2890
2263.745117 106.354 -143.3763
2280.149170 106.395 -143.4404
2296.672119 106.434 -143.4658
2313.314697 106.473 -143.4385
2330.077881 106.516 -143.3509
2346.962646 106.566 -143.2079
2363.969727 106.628 -143.0246
2381.100098 106.701 -142.8208
2398.354492 106.787 -142.6172
2415.733887 106.886 -142.4339
2433.239258 106.996 -142.2909
2450.871582 107.117 -142.2071
2468.631592 107.246 -142.1984
2486.520264 107.380 -142.2737
2504.538574 107.516 -142.4322
2522.687500 107.651 -142.6646
2540.968018 107.786 -142.9600
2559.380859 107.921 -143.3147
2577.927246 108.055 -143.7347
2596.607910 108.189 -144.2294
2615.424072 108.319 -144.8055
2634.376465 108.442 -145.4636
2653.466309 108.557 -146.1964
2672.694336 108.661 -146.9890
2692.061768 108.752 -147.8218
2711.569580 108.831 -148.6756
2731.218750 108.898 -149.5383
2751.010254 108.956 -150.4057
2770.945312 109.005 -151.2757
2791.024658 109.045 -152.1443
2811.249512 109.075 -153.0050
2831.621094 109.097 -153.8509
2852.140137 109.109 -154.6765
2872.807861 109.114 -155.4765
2893.625488 109.110 -156.2427
2914.593994 109.100 -156.9631
2935.714355 109.083 -157.6277
2956.987793 109.064 -158.2347
2978.415283 109.044 -158.7907
2999.998047 109.025 -159.3063
3021.737305 109.007 -159.7912
3043.634033 108.990 -160.2512
3065.689453 108.974 -160.6878
3087.904785 108.959 -161.1002
3110.281006 108.946 -161.4911
3132.819336 108.937 -161.8699
3155.520996 108.931 -162.2498
3178.387207 108.928 -162.6421
3201.419189 108.925 -163.0545
3224.617920 108.922 -163.4902
3247.984863 108.915 -163.9493
3271.520996 108.904 -164.4265
3295.227783 108.885 -164.9097
3319.106445 108.860 -165.3826
3343.157959 108.827 -165.8316
3367.383789 108.788 -166.2483
3391.785156 108.744 -166.6271
3416.363525 108.696 -166.9612
3441.119873 108.643 -167.2401
3466.055664 108.589 -167.4505
3491.172119 108.534 -167.5822
3516.470703 108.484 -167.6358
3541.952393 108.441 -167.6238
3567.618896 108.408 -167.5665
3593.471436 108.385 -167.4865
3619.511230 108.373 -167.4050
3645.739746 108.369 -167.3387
3672.158203 108.372 -167.2954
3698.768066 108.379 -167.2739
3725.570801 108.390 -167.2701
3752.567871 108.403 -167.2829
3779.760498 108.419 -167.3149
3807.150146 108.437 -167.3680
3834.738281 108.456 -167.4388
3862.526367 108.474 -167.5182
3890.515869 108.493 -167.5976
3918.708252 108.514 -167.6742
3947.104736 108.539 -167.7523
3975.707031 108.568 -167.8404
4004.516602 108.601 -167.9488
4033.534912 108.636 -168.0867
4062.763672 108.673 -168.2570
4092.204102 108.710 -168.4551
4121.857910 108.747 -168.6756
4151.726562 108.784 -168.9171
4181.811523 108.821 -169.1827
4212.114746 108.858 -169.4740
4242.637695 108.893 -169.7869
4273.381836 108.927 -170.1145
4304.348633 108.961 -170.4532
4335.539551 108.996 -170.8056
4366.956543 109.032 -171.1796
4398.601074 109.070 -171.5862
4430.475098 109.107 -172.0350
4462.580078 109.141 -172.5289
4494.917969 109.173 -173.0632
4527.490234 109.200 -173.6326
4560.298340 109.222 -174.2339
4593.344238 109.239 -174.8642
4626.629395 109.249 -175.5165
4660.155762 109.252 -176.1798
4693.925293 109.250 -176.8451
4727.939453 109.243 -177.5099
4762.200195 109.232 -178.1780
4796.708984 109.218 -178.8587
4831.467773 109.201 -179.5608
4866.478516 109.178 179.7129
4901.743164 109.149 178.9651
4937.263184 109.111 178.2001
4973.040527 109.064 177.4218
5009.077148 109.006 176.6391
5045.375000 108.937 175.8677
5081.936035 108.855 175.1265
5118.761719 108.763 174.4312
5155.854492 108.663 173.7910
5193.215820 108.556 173.2072
5230.848145 108.445 172.6767
5268.752930 108.329 172.1978
5306.932617 108.211 171.7696
5345.388672 108.090 171.3887
5384.123535 107.966 171.0513
5423.139160 107.840 170.7578
5462.437500 107.710 170.5140
5502.020508 107.578 170.3279
5541.890625 107.445 170.2046
5582.049316 107.311 170.1434
5622.499023 107.179 170.1400
5663.242188 107.049 170.1910
5704.280273 106.920 170.2934
5745.615723 106.795 170.4417
5787.250977 106.672 170.6301
5829.187988 106.551 170.8575
5871.428711 106.433 171.1284
5913.975586 106.316 171.4498
5956.830566 106.203 171.8265
5999.996094 106.095 172.2587
6043.474609 105.994 172.7437
6087.268066 105.899 173.2771
6131.378906 105.812 173.8503
6175.809570 105.733 174.4532
6220.562012 105.662 175.0789
6265.638672 105.598 175.7276
6311.041992 105.541 176.4038
6356.774414 105.492 177.1115
6402.838379 105.452 177.8504
6449.235840 105.423 178.6165
6495.969727 105.405 179.4025
6543.041992 105.400 -179.8024
6590.455566 105.407 -179.0086
6638.212891 105.427 -178.2232
6686.315918 105.458 -177.4482
6734.767578 105.502 -176.6841
6783.570312 105.559 -175.9332
6832.727051 105.631 -175.2014
6882.239746 105.719 -174.4994
6932.111328 105.824 -173.8431
6982.344238 105.946 -173.2514
7032.941406 106.085 -172.7405
7083.904785 106.240 -172.3224
7135.237793 106.411 -172.0082
7186.942871 106.598 -171.8119
7239.022461 106.801 -171.7524
7291.479492 107.020 -171.8550
7344.316406 107.254 -172.1510
7397.536133 107.500 -172.6724
7451.141602 107.752 -173.4463
7505.135742 108.005 -174.4931
7559.520996 108.255 -175.8282
7614.300293 108.493 -177.4622
7669.476562 108.713 -179.4007
7725.052734 108.908 178.3562
7781.031738 109.067 175.8176
7837.416504 109.181 173.0087
7894.209473 109.239 169.9747
7951.414062 109.235 166.7774
8009.033203 109.163 163.4917
8067.069824 109.020 160.1985
8125.527344 108.809 156.9756
8184.408203 108.531 153.8929
8243.715820 108.192 151.0129
8303.453125 107.798 148.3909
8363.623047 107.356 146.0736
8424.229492 106.874 144.0977
8485.275391 106.363 142.4860
8546.763672 105.831 141.2437
8608.697266 105.288 140.3600
8671.079102 104.742 139.8157
8733.913086 104.198 139.5889
8797.202148 103.661 139.6592
8860.950195 103.136 140.0085
8925.160156 102.625 140.6161
8989.835938 102.132 141.4543
9054.980469 101.660 142.4921
9120.596680 101.209 143.7009
9186.688477 100.780 145.0592
9253.258789 100.371 146.5543
9320.311523 99.984 148.1763
9387.850586 99.620 149.9114
9455.878906 99.278 151.7411
9524.400391 98.959 153.6459
9593.417969 98.661 155.6116
9662.935547 98.384 157.6331
9732.957031 98.126 159.7090
9803.486328 97.888 161.8342
9874.526367 97.670 163.9982
9946.081055 97.472 166.1884
10018.154297 97.293 168.3979
10090.750000 97.131 170.6276
10163.872070 96.986 172.8793
10237.523438 96.860 175.1489
10311.708984 96.751 177.4264
10386.431641 96.661 179.7025
10461.696289 96.589 -178.0242
10537.505859 96.534 -175.7502
10613.865234 96.497 -173.4747
10690.777344 96.480 -171.2041
10768.247070 96.482 -168.9483
10846.278320 96.503 -166.7133
10924.875000 96.544 -164.4995
11004.041016 96.606 -162.3075
11083.781250 96.690 -160.1443
11164.098633 96.798 -158.0237
11244.998047 96.930 -155.9591
11326.484375 97.088 -153.9607
11408.560547 97.273 -152.0407
11491.231445 97.486 -150.2189
11574.501953 97.731 -148.5248
11658.375977 98.006 -146.9909
11742.857422 98.313 -145.6501
11827.951172 98.651 -144.5394
11913.661133 99.019 -143.7059
11999.992188 99.412 -143.2036
12086.949219 99.824 -143.0853
12174.536133 100.246 -143.3977
12262.757812 100.667 -144.1800
12351.619141 101.075 -145.4612
12441.124023 101.455 -147.2511
12531.277344 101.789 -149.5309
12622.083984 102.062 -152.2503
12713.548828 102.259 -155.3310
12805.676758 102.368 -158.6723
12898.471680 102.382 -162.1537
12991.939453 102.298 -165.6399
13086.083984 102.117 -168.9918
13180.911133 101.849 -172.0828
13276.425781 101.505 -174.8089
13372.631836 101.100 -177.0922
13469.535156 100.651 -178.8819
13567.140625 100.176 179.8442
13665.454102 99.692 179.0795
13764.479492 99.214 178.7964
13864.222656 98.756 178.9558
13964.688477 98.330 179.5094
14065.882812 97.945 -179.5997
14167.809570 97.609 -178.4337
14270.475586 97.329 -177.0553
14373.885742 97.113 -175.5297
14478.044922 96.966 -173.9313
14582.958984 96.895 -172.3457
14688.632812 96.905 -170.8697
14795.072266 97.000 -169.6183
14902.283203 97.180 -168.7305
15010.271484 97.441 -168.3649
15119.041992 97.769 -168.6850
15228.600586 98.138 -169.8417
15338.953125 98.515 -171.9475
15450.105469 98.855 -175.0479
15562.063477 99.110 -179.0975
15674.833008 99.236 176.0506
15788.418945 99.193 170.6412
15902.828125 98.959 164.9933
16018.066406 98.527 159.4555
16134.139648 97.909 154.3504
16251.054688 97.131 149.9310
16368.816406 96.226 146.3616
16487.431641 95.232 143.7164
16606.906250 94.186 141.9873
16727.246094 93.123 141.1014
16848.458984 92.071 140.9452
16970.550781 91.050 141.3846
17093.527344 90.075 142.2838
17217.394531 89.153 143.5204
17342.158203 88.285 144.9926
17467.826172 87.469 146.6180
17594.404297 86.700 148.3351
17721.900391 85.971 150.0997
17850.320312 85.277 151.8780
17979.671875 84.608 153.6379
18109.960938 83.957 155.3470
18241.193359 83.314 156.9778
18373.376953 82.673 158.5269
18506.517578 82.029 160.0181
18640.623047 81.378 161.4899
18775.701172 80.716 162.9844
18911.757812 80.038 164.5465
19048.800781 79.342 166.2206
19186.835938 78.629 168.0458
19325.871094 77.904 170.0471
19465.914062 77.181 172.2177
19606.972656 76.489 174.4920
19749.052734 75.874 176.7050
19892.162109 75.402 178.5558
20036.308594 75.143 179.6416
