* Measurement data measured by REW V5.30.5
* Source: EXCL: Microphone (Realtek(R) Audio), MICROPHONE (Master Volume), L, volume: 1.000
* Format: 256k Log Swept Sine, 1 sweep at -10.0 dBFS with no timing reference
* Dated: Feb 12, 2024 1:34:14 AM
* REW Settings:
*  C-weighting compensation: Off
*  Target level: 75.0 dB
* Note: Softears Twilight L
* Measurement: L Softears Twilight
* Smoothing: 1/12 octave
* Frequency Step: 96 ppo
* Start Frequency: 1.0986328 Hz
*
* Freq(Hz) SPL(dB) Phase(degrees)
1.098633 71.198 59.3039
1.106594 71.280 58.6583
1.114613 71.400 57.7187
1.122690 71.547 56.5841
1.130825 71.712 55.3378
1.139020 71.887 54.0386
1.147273 72.069 52.7242
1.155587 72.256 51.4166
1.163961 72.445 50.1280
1.172395 72.637 48.8648
1.180891 72.830 47.6300
1.189448 73.025 46.4248
1.198068 73.221 45.2493
1.206749 73.419 44.1032
1.215494 73.618 42.9859
1.224302 73.819 41.8965
1.233174 74.021 40.8340
1.242110 74.225 39.7974
1.251111 74.430 38.7856
1.260177 74.636 37.7975
1.269308 74.844 36.8319
1.278506 75.054 35.8878
1.287771 75.265 34.9639
1.297103 75.478 34.0592
1.306502 75.692 33.1724
1.315969 75.908 32.3024
1.325505 76.125 31.4482
1.335111 76.344 30.6086
1.344785 76.565 29.7826
1.354530 76.787 28.9691
1.364346 77.010 28.1671
1.374232 77.236 27.3757
1.384191 77.462 26.5937
1.394221 77.690 25.8205
1.404324 77.919 25.0550
1.414500 78.149 24.2966
1.424751 78.379 23.5446
1.435075 78.608 22.7986
1.445474 78.834 22.0586
1.455948 79.058 21.3249
1.466499 79.276 20.5980
1.477126 79.489 19.8790
1.487830 79.698 19.1687
1.498611 79.902 18.4679
1.509471 80.104 17.7770
1.520409 80.303 17.0958
1.531427 80.500 16.4244
1.542524 80.696 15.7623
1.553702 80.891 15.1090
1.564960 81.084 14.4640
1.576301 81.276 13.8267
1.587723 81.467 13.1966
1.599229 81.657 12.5729
1.610817 81.846 11.9552
1.622490 82.034 11.3426
1.634247 82.221 10.7347
1.646089 82.407 10.1308
1.658018 82.592 9.5301
1.670032 82.777 8.9322
1.682134 82.960 8.3363
1.694323 83.143 7.7418
1.706601 83.325 7.1481
1.718968 83.507 6.5546
1.731424 83.688 5.9606
1.743971 83.868 5.3655
1.756608 84.048 4.7688
1.769338 84.227 4.1699
1.782159 84.406 3.5683
1.795073 84.585 2.9637
1.808081 84.762 2.3559
1.821183 84.940 1.7449
1.834380 85.116 1.1311
1.847673 85.291 0.5150
1.861062 85.466 -0.1027
1.874548 85.638 -0.7214
1.888132 85.810 -1.3404
1.901814 85.979 -1.9592
1.915595 86.148 -2.5775
1.929476 86.314 -3.1950
1.943458 86.480 -3.8113
1.957541 86.644 -4.4265
1.971726 86.806 -5.0403
1.986014 86.968 -5.6527
2.000406 87.128 -6.2638
2.014902 87.287 -6.8736
2.029502 87.445 -7.4821
2.044209 87.602 -8.0896
2.059022 87.758 -8.6962
2.073943 87.913 -9.3021
2.088971 88.068 -9.9075
2.104109 88.222 -10.5128
2.119356 88.375 -11.1184
2.134714 88.528 -11.7245
2.150183 88.680 -12.3317
2.165764 88.832 -12.9404
2.181458 88.983 -13.5511
2.197266 89.133 -14.1643
2.213188 89.283 -14.7805
2.229226 89.431 -15.3997
2.245379 89.579 -16.0220
2.261650 89.724 -16.6471
2.278039 89.869 -17.2746
2.294547 90.012 -17.9040
2.311174 90.154 -18.5349
2.327922 90.295 -19.1667
2.344791 90.434 -19.7992
2.361782 90.572 -20.4318
2.378897 90.709 -21.0642
2.396135 90.845 -21.6961
2.413498 90.980 -22.3273
2.430988 91.114 -22.9576
2.448604 91.247 -23.5869
2.466347 91.379 -24.2151
2.484219 91.510 -24.8424
2.502221 91.641 -25.4689
2.520353 91.770 -26.0951
2.538617 91.899 -26.7215
2.557013 92.027 -27.3490
2.575542 92.154 -27.9786
2.594205 92.280 -28.6109
2.613004 92.405 -29.2465
2.631939 92.528 -29.8856
2.651011 92.650 -30.5279
2.670221 92.771 -31.1728
2.689571 92.890 -31.8199
2.709061 93.008 -32.4683
2.728692 93.125 -33.1174
2.748465 93.240 -33.7665
2.768381 93.354 -34.4148
2.788442 93.468 -35.0618
2.808648 93.580 -35.7069
2.829001 93.691 -36.3497
2.849501 93.801 -36.9900
2.870150 93.910 -37.6277
2.890948 94.018 -38.2632
2.911897 94.126 -38.8971
2.932998 94.232 -39.5304
2.954252 94.337 -40.1642
2.975659 94.441 -40.7996
2.997222 94.543 -41.4371
3.018941 94.644 -42.0767
3.040818 94.744 -42.7181
3.062853 94.842 -43.3607
3.085048 94.939 -44.0037
3.107403 95.034 -44.6461
3.129921 95.128 -45.2871
3.152601 95.222 -45.9258
3.175447 95.314 -46.5613
3.198457 95.405 -47.1930
3.221634 95.495 -47.8203
3.244980 95.584 -48.4431
3.268494 95.672 -49.0617
3.292179 95.759 -49.6766
3.316035 95.844 -50.2890
3.340065 95.929 -50.9000
3.364268 96.012 -51.5102
3.388647 96.094 -52.1200
3.413202 96.174 -52.7291
3.437936 96.253 -53.3372
3.462848 96.331 -53.9435
3.487942 96.408 -54.5472
3.513217 96.483 -55.1472
3.538675 96.558 -55.7427
3.564318 96.632 -56.3329
3.590146 96.704 -56.9172
3.616162 96.776 -57.4953
3.642366 96.847 -58.0672
3.668760 96.917 -58.6335
3.695346 96.986 -59.1948
3.722124 97.054 -59.7520
3.749096 97.120 -60.3056
3.776263 97.186 -60.8556
3.803627 97.250 -61.4019
3.831190 97.314 -61.9440
3.858953 97.376 -62.4813
3.886916 97.438 -63.0132
3.915082 97.499 -63.5389
3.943453 97.559 -64.0577
3.972029 97.619 -64.5692
4.000812 97.678 -65.0732
4.029803 97.737 -65.5695
4.059005 97.794 -66.0587
4.088418 97.852 -66.5411
4.118044 97.908 -67.0170
4.147885 97.964 -67.4868
4.177943 98.019 -67.9505
4.208218 98.074 -68.4080
4.238712 98.128 -68.8593
4.269428 98.182 -69.3039
4.300366 98.236 -69.7417
4.331528 98.290 -70.1724
4.362916 98.344 -70.5957
4.394531 98.397 -71.0115
4.426376 98.451 -71.4198
4.458451 98.504 -71.8206
4.490759 98.558 -72.2143
4.523301 98.611 -72.6012
4.556078 98.664 -72.9817
4.589094 98.718 -73.3562
4.622348 98.771 -73.7249
4.655844 98.825 -74.0882
4.689582 98.879 -74.4462
4.723565 98.934 -74.7989
4.757793 98.989 -75.1463
4.792270 99.045 -75.4883
4.826997 99.101 -75.8248
4.861975 99.157 -76.1561
4.897207 99.215 -76.4826
4.932694 99.272 -76.8050
4.968439 99.330 -77.1240
5.004442 99.389 -77.4404
5.040707 99.449 -77.7548
5.077234 99.509 -78.0677
5.114026 99.570 -78.3794
5.151084 99.632 -78.6897
5.188411 99.694 -78.9988
5.226008 99.757 -79.3067
5.263878 99.821 -79.6138
5.302022 99.886 -79.9208
5.340443 99.951 -80.2285
5.379142 100.017 -80.5377
5.418121 100.084 -80.8491
5.457383 100.151 -81.1633
5.496930 100.219 -81.4807
5.536763 100.287 -81.8012
5.576884 100.356 -82.1248
5.617297 100.425 -82.4518
5.658002 100.495 -82.7824
5.699002 100.565 -83.1170
5.740300 100.636 -83.4561
5.781896 100.707 -83.8004
5.823794 100.777 -84.1501
5.865995 100.848 -84.5056
5.908503 100.919 -84.8670
5.951319 100.990 -85.2342
5.994444 101.061 -85.6072
6.037883 101.131 -85.9857
6.081636 101.201 -86.3697
6.125706 101.271 -86.7591
6.170095 101.341 -87.1541
6.214807 101.410 -87.5548
6.259841 101.478 -87.9611
6.305203 101.545 -88.3729
6.350893 101.612 -88.7901
6.396914 101.678 -89.2121
6.443269 101.744 -89.6383
6.489959 101.808 -90.0680
6.536988 101.871 -90.5009
6.584358 101.933 -90.9366
6.632071 101.994 -91.3750
6.680129 102.054 -91.8160
6.728536 102.113 -92.2590
6.777294 102.171 -92.7035
6.826405 102.228 -93.1483
6.875872 102.283 -93.5928
6.925697 102.337 -94.0363
6.975883 102.390 -94.4782
7.026433 102.442 -94.9184
7.077350 102.493 -95.3565
7.128635 102.543 -95.7921
7.180293 102.591 -96.2246
7.232324 102.639 -96.6531
7.284732 102.686 -97.0769
7.337521 102.732 -97.4957
7.390691 102.778 -97.9093
7.444247 102.823 -98.3175
7.498191 102.867 -98.7203
7.552526 102.911 -99.1176
7.607255 102.955 -99.5092
7.662380 102.998 -99.8950
7.717905 103.042 -100.2750
7.773832 103.085 -100.6493
7.830165 103.129 -101.0182
7.886906 103.173 -101.3823
7.944057 103.217 -101.7423
8.001623 103.262 -102.0985
8.059607 103.307 -102.4517
8.118010 103.353 -102.8021
8.176836 103.399 -103.1505
8.236089 103.446 -103.4975
8.295771 103.493 -103.8442
8.355886 103.541 -104.1914
8.416435 103.590 -104.5401
8.477425 103.639 -104.8909
8.538856 103.689 -105.2442
8.600732 103.739 -105.6007
8.663056 103.790 -105.9611
8.725832 103.841 -106.3258
8.789062 103.891 -106.6956
8.852752 103.942 -107.0706
8.916903 103.993 -107.4511
8.981518 104.043 -107.8369
9.046601 104.093 -108.2278
9.112157 104.143 -108.6239
9.178187 104.191 -109.0248
9.244697 104.239 -109.4302
9.311687 104.286 -109.8396
9.379164 104.332 -110.2523
9.447129 104.377 -110.6674
9.515587 104.421 -111.0841
9.584540 104.463 -111.5017
9.653994 104.505 -111.9196
9.723950 104.545 -112.3367
9.794415 104.584 -112.7522
9.865389 104.622 -113.1652
9.936877 104.659 -113.5749
10.008884 104.695 -113.9808
10.081413 104.731 -114.3822
10.154468 104.765 -114.7789
10.228051 104.799 -115.1702
10.302168 104.832 -115.5560
10.376822 104.865 -115.9361
10.452016 104.898 -116.3107
10.527756 104.931 -116.6800
10.604044 104.963 -117.0442
10.680885 104.996 -117.4038
10.758284 105.029 -117.7591
10.836243 105.062 -118.1108
10.914766 105.096 -118.4595
10.993859 105.129 -118.8058
11.073525 105.163 -119.1504
11.153769 105.197 -119.4937
11.234593 105.232 -119.8364
11.316004 105.267 -120.1788
11.398005 105.301 -120.5215
11.480599 105.336 -120.8647
11.563792 105.371 -121.2085
11.647588 105.406 -121.5531
11.731991 105.441 -121.8985
11.817006 105.475 -122.2447
11.902637 105.510 -122.5915
11.988889 105.544 -122.9388
12.075766 105.578 -123.2864
12.163272 105.611 -123.6341
12.251412 105.645 -123.9818
12.340191 105.678 -124.3295
12.429613 105.710 -124.6771
12.519683 105.743 -125.0246
12.610406 105.776 -125.3721
12.701786 105.808 -125.7198
12.793828 105.840 -126.0679
12.886538 105.872 -126.4167
12.979918 105.904 -126.7664
13.073977 105.935 -127.1172
13.168715 105.966 -127.4694
13.264141 105.997 -127.8229
13.360258 106.027 -128.1778
13.457072 106.057 -128.5340
13.554587 106.086 -128.8911
13.652809 106.114 -129.2487
13.751743 106.142 -129.6063
13.851394 106.169 -129.9631
13.951767 106.194 -130.3183
14.052867 106.219 -130.6711
14.154700 106.243 -131.0207
14.257271 106.267 -131.3663
14.360585 106.290 -131.7071
14.464648 106.312 -132.0427
14.569465 106.334 -132.3728
14.675041 106.356 -132.6973
14.781383 106.378 -133.0163
14.888494 106.400 -133.3305
14.996383 106.422 -133.6404
15.105053 106.445 -133.9472
15.214510 106.469 -134.2519
15.324760 106.493 -134.5557
15.435810 106.518 -134.8600
15.547665 106.544 -135.1659
15.660330 106.569 -135.4745
15.773811 106.595 -135.7867
15.888115 106.621 -136.1029
16.003246 106.647 -136.4236
16.119213 106.673 -136.7486
16.236019 106.698 -137.0776
16.353672 106.723 -137.4100
16.472178 106.746 -137.7449
16.591541 106.769 -138.0814
16.711771 106.791 -138.4185
16.832870 106.812 -138.7551
16.954849 106.832 -139.0904
17.077711 106.852 -139.4235
17.201464 106.871 -139.7539
17.326113 106.889 -140.0812
17.451664 106.906 -140.4053
17.578125 106.924 -140.7260
17.705503 106.941 -141.0434
17.833805 106.957 -141.3577
17.963036 106.974 -141.6689
18.093203 106.990 -141.9771
18.224314 107.006 -142.2820
18.356375 107.021 -142.5836
18.489393 107.036 -142.8816
18.623375 107.051 -143.1754
18.758327 107.066 -143.4648
18.894258 107.081 -143.7494
19.031174 107.095 -144.0291
19.169081 107.110 -144.3040
19.307987 107.125 -144.5743
19.447901 107.140 -144.8406
19.588829 107.156 -145.1037
19.730778 107.172 -145.3645
19.873755 107.189 -145.6239
20.017769 107.206 -145.8828
20.162827 107.223 -146.1420
20.308935 107.241 -146.4017
20.456102 107.258 -146.6621
20.604336 107.275 -146.9229
20.753643 107.293 -147.1836
20.904032 107.309 -147.4435
21.055511 107.326 -147.7020
21.208088 107.343 -147.9584
21.361771 107.359 -148.2126
21.516567 107.375 -148.4649
21.672485 107.392 -148.7159
21.829533 107.409 -148.9667
21.987719 107.427 -149.2186
22.147051 107.444 -149.4732
22.307537 107.462 -149.7317
22.469187 107.479 -149.9949
22.632008 107.496 -150.2630
22.796009 107.512 -150.5354
22.961199 107.527 -150.8108
23.127584 107.541 -151.0872
23.295176 107.553 -151.3623
23.463982 107.564 -151.6335
23.634012 107.573 -151.8987
23.805275 107.582 -152.1565
23.977777 107.591 -152.4060
24.151531 107.600 -152.6479
24.326544 107.609 -152.8833
24.502825 107.619 -153.1146
24.680382 107.630 -153.3442
24.859226 107.642 -153.5747
25.039366 107.655 -153.8085
25.220812 107.669 -154.0471
25.403572 107.683 -154.2914
25.587656 107.696 -154.5415
25.773075 107.710 -154.7971
25.959837 107.723 -155.0573
26.147953 107.736 -155.3215
26.337431 107.748 -155.5889
26.528282 107.760 -155.8595
26.720516 107.772 -156.1330
26.914145 107.783 -156.4093
27.109175 107.793 -156.6879
27.305618 107.803 -156.9678
27.503487 107.811 -157.2474
27.702787 107.819 -157.5242
27.903534 107.826 -157.7960
28.105734 107.833 -158.0604
28.309401 107.839 -158.3162
28.514542 107.846 -158.5635
28.721170 107.854 -158.8040
28.929296 107.864 -159.0408
29.138929 107.876 -159.2778
29.350082 107.889 -159.5189
29.562765 107.903 -159.7673
29.776989 107.917 -160.0243
29.992765 107.931 -160.2892
30.210106 107.944 -160.5594
30.429020 107.955 -160.8313
30.649521 107.966 -161.1011
30.871620 107.976 -161.3659
31.095329 107.986 -161.6245
31.320660 107.997 -161.8780
31.547623 108.008 -162.1290
31.776230 108.019 -162.3811
32.006493 108.032 -162.6373
32.238426 108.044 -162.8994
32.472038 108.055 -163.1667
32.707344 108.064 -163.4368
32.944355 108.072 -163.7059
33.183083 108.079 -163.9700
33.423542 108.084 -164.2262
33.665741 108.089 -164.4736
33.909698 108.094 -164.7131
34.155422 108.099 -164.9468
34.402927 108.105 -165.1770
34.652225 108.110 -165.4054
34.903328 108.115 -165.6319
35.156250 108.120 -165.8553
35.411007 108.124 -166.0739
35.667610 108.128 -166.2863
35.926071 108.133 -166.4930
36.186405 108.138 -166.6962
36.448627 108.144 -166.8992
36.712749 108.151 -167.1053
36.978786 108.158 -167.3163
37.246750 108.164 -167.5318
37.516655 108.169 -167.7493
37.788517 108.173 -167.9652
38.062347 108.175 -168.1760
38.338161 108.178 -168.3804
38.615974 108.181 -168.5789
38.895802 108.184 -168.7741
39.177658 108.188 -168.9689
39.461555 108.193 -169.1661
39.747509 108.197 -169.3668
40.035538 108.202 -169.5712
40.325653 108.206 -169.7792
40.617870 108.210 -169.9908
40.912205 108.213 -170.2065
41.208672 108.217 -170.4267
41.507286 108.219 -170.6510
41.808064 108.221 -170.8777
42.111023 108.223 -171.1049
42.416176 108.224 -171.3315
42.723541 108.226 -171.5591
43.033134 108.228 -171.7917
43.344971 108.232 -172.0337
43.659065 108.234 -172.2867
43.975437 108.236 -172.5467
44.294102 108.235 -172.8044
44.615074 108.234 -173.0491
44.938374 108.234 -173.2758
45.264015 108.238 -173.4913
45.592018 108.248 -173.7146
45.922398 108.264 -173.9707
46.255169 108.280 -174.2784
46.590351 108.292 -174.6389
46.927963 108.296 -175.0303
47.268024 108.287 -175.4134
47.610550 108.269 -175.7448
47.955555 108.246 -175.9950
48.303062 108.226 -176.1596
48.653088 108.213 -176.2602
49.005650 108.211 -176.3334
49.360764 108.218 -176.4128
49.718452 108.229 -176.5168
50.078732 108.242 -176.6455
50.441624 108.254 -176.7881
50.807144 108.265 -176.9340
51.175312 108.275 -177.0806
51.546150 108.287 -177.2328
51.919674 108.297 -177.3973
52.295906 108.306 -177.5765
52.674862 108.311 -177.7649
53.056564 108.312 -177.9515
53.441032 108.311 -178.1258
53.828289 108.308 -178.2827
54.218349 108.306 -178.4258
54.611237 108.307 -178.5654
55.006973 108.311 -178.7151
55.405575 108.318 -178.8868
55.807068 108.325 -179.0868
56.211468 108.332 -179.3150
56.618801 108.338 -179.5661
57.029083 108.342 -179.8320
57.442341 108.343 179.8954
57.858593 108.344 179.6233
58.277859 108.343 179.3573
58.700165 108.342 179.1016
59.125530 108.341 178.8584
59.553978 108.342 178.6276
59.985531 108.343 178.4077
60.420212 108.346 178.1976
60.858040 108.349 177.9965
61.299042 108.353 177.8029
61.743240 108.358 177.6129
62.190659 108.364 177.4196
62.641319 108.370 177.2151
63.095245 108.374 176.9945
63.552460 108.375 176.7583
64.012985 108.372 176.5123
64.476852 108.366 176.2646
64.944077 108.356 176.0219
65.414688 108.345 175.7876
65.888710 108.333 175.5607
66.366165 108.323 175.3381
66.847084 108.315 175.1168
67.331482 108.308 174.8965
67.819397 108.304 174.6799
68.310844 108.302 174.4703
68.805855 108.302 174.2691
69.304451 108.306 174.0760
69.806656 108.310 173.8908
70.312500 108.315 173.7150
70.822014 108.319 173.5497
71.335220 108.321 173.3937
71.852142 108.319 173.2447
72.372810 108.311 173.1041
72.897255 108.296 172.9791
73.425499 108.272 172.8832
73.957573 108.241 172.8358
74.493500 108.206 172.8578
75.033310 108.175 172.9569
75.577034 108.158 173.1051
76.124695 108.159 173.2324
76.676323 108.179 173.2567
77.231949 108.209 173.1298
77.791603 108.238 172.8594
78.355316 108.262 172.4910
78.923111 108.280 172.0721
79.495018 108.294 171.6325
80.071075 108.305 171.1866
80.651306 108.312 170.7457
81.235741 108.315 170.3263
81.824409 108.314 169.9458
82.417343 108.310 169.6144
83.014572 108.305 169.3298
83.616127 108.300 169.0833
84.222046 108.296 168.8668
84.832352 108.294 168.6700
85.447083 108.294 168.4757
86.066269 108.294 168.2639
86.689941 108.293 168.0288
87.318130 108.286 167.7858
87.950874 108.274 167.5621
88.588203 108.259 167.3788
89.230148 108.244 167.2426
89.876747 108.231 167.1478
90.528030 108.221 167.0820
91.184036 108.215 167.0308
91.844795 108.214 166.9776
92.510338 108.216 166.9008
93.180702 108.220 166.7800
93.855927 108.223 166.6114
94.536049 108.223 166.4095
95.221100 108.222 166.1858
95.911110 108.222 165.9324
96.606125 108.223 165.6375
97.306175 108.220 165.3093
98.011299 108.214 164.9723
98.721527 108.205 164.6459
99.436905 108.197 164.3364
100.157463 108.190 164.0431
100.883247 108.184 163.7646
101.614288 108.180 163.5011
102.350624 108.177 163.2541
103.092300 108.177 163.0264
103.839348 108.178 162.8197
104.591812 108.180 162.6337
105.349724 108.183 162.4637
106.113129 108.187 162.2998
106.882065 108.188 162.1302
107.656578 108.186 161.9470
108.436699 108.181 161.7463
109.222473 108.173 161.5260
110.013947 108.165 161.2838
110.811150 108.160 161.0179
111.614136 108.158 160.7331
112.422935 108.160 160.4468
113.237602 108.166 160.1912
114.058167 108.174 160.0052
114.884682 108.184 159.9227
115.717186 108.197 159.9613
116.555717 108.213 160.1089
117.400330 108.233 160.3148
118.251060 108.255 160.4935
119.107956 108.276 160.5396
119.971062 108.285 160.3751
120.840424 108.271 160.0069
121.716080 108.234 159.5202
122.598083 108.185 159.0063
123.486481 108.138 158.5127
124.381317 108.104 158.0505
125.282639 108.084 157.6244
126.190491 108.075 157.2538
127.104919 108.073 156.9643
128.025970 108.075 156.7619
128.953705 108.076 156.6227
129.888153 108.076 156.5077
130.829376 108.070 156.3839
131.777420 108.059 156.2326
132.732330 108.046 156.0442
133.694168 108.031 155.8120
134.662964 108.017 155.5378
135.638794 108.004 155.2382
136.621689 107.993 154.9363
137.611710 107.983 154.6519
138.608902 107.974 154.3972
139.613312 107.968 154.1741
140.625000 107.963 153.9747
141.644028 107.959 153.7870
142.670441 107.957 153.5968
143.704285 107.955 153.3853
144.745621 107.952 153.1368
145.794510 107.945 152.8496
146.850998 107.934 152.5370
147.915146 107.920 152.2172
148.987000 107.904 151.9069
150.066620 107.887 151.6177
151.154068 107.870 151.3570
152.249390 107.855 151.1284
153.352646 107.841 150.9294
154.463898 107.829 150.7503
155.583206 107.819 150.5788
156.710632 107.810 150.4062
157.846222 107.801 150.2269
158.990036 107.793 150.0364
160.142151 107.785 149.8311
161.302612 107.777 149.6076
162.471481 107.770 149.3647
163.648819 107.763 149.1064
164.834686 107.757 148.8402
166.029144 107.754 148.5775
167.232254 107.753 148.3342
168.444092 107.755 148.1260
169.664703 107.756 147.9575
170.894165 107.756 147.8188
172.132538 107.751 147.6951
173.379883 107.738 147.5730
174.636261 107.721 147.4393
175.901749 107.700 147.2824
177.176407 107.679 147.0975
178.460297 107.660 146.8882
179.753494 107.646 146.6620
181.056061 107.636 146.4216
182.368073 107.627 146.1668
183.689590 107.618 145.8981
185.020676 107.608 145.6187
186.361404 107.595 145.3347
187.711853 107.582 145.0541
189.072098 107.569 144.7823
190.442200 107.557 144.5204
191.822220 107.545 144.2674
193.212250 107.535 144.0206
194.612350 107.524 143.7775
196.022598 107.514 143.5366
197.443054 107.504 143.2987
198.873810 107.494 143.0669
200.314926 107.484 142.8448
201.766495 107.474 142.6344
203.228577 107.463 142.4332
204.701248 107.451 142.2335
206.184601 107.439 142.0249
207.678696 107.426 141.7990
209.183624 107.411 141.5540
210.699448 107.396 141.2943
212.226257 107.380 141.0271
213.764130 107.365 140.7605
215.313156 107.349 140.5020
216.873398 107.332 140.2574
218.444946 107.315 140.0293
220.027893 107.298 139.8152
221.622299 107.281 139.6081
223.228271 107.266 139.3995
224.845871 107.252 139.1833
226.475204 107.240 138.9581
228.116333 107.227 138.7262
229.769363 107.215 138.4911
231.434372 107.203 138.2542
233.111435 107.191 138.0134
234.800659 107.179 137.7652
236.502121 107.166 137.5075
238.215912 107.153 137.2425
239.942123 107.138 136.9770
241.680847 107.122 136.7205
243.432159 107.104 136.4810
245.196167 107.084 136.2594
246.972961 107.064 136.0506
248.762634 107.044 135.8480
250.565277 107.024 135.6488
252.380981 107.005 135.4549
254.209839 106.988 135.2682
256.051941 106.973 135.0856
257.907410 106.960 134.8983
259.776306 106.948 134.6970
261.658752 106.934 134.4768
263.554840 106.919 134.2400
265.464661 106.901 133.9944
267.388336 106.881 133.7500
269.325928 106.862 133.5149
271.277588 106.843 133.2930
273.243378 106.825 133.0842
275.223419 106.809 132.8858
277.217804 106.793 132.6931
279.226624 106.779 132.5003
281.250000 106.766 132.3020
283.288055 106.754 132.0935
285.340881 106.744 131.8720
287.408569 106.736 131.6362
289.491241 106.729 131.3854
291.589020 106.721 131.1223
293.701996 106.711 130.8535
295.830292 106.697 130.5863
297.973999 106.679 130.3253
300.133240 106.658 130.0709
302.308136 106.636 129.8208
304.498779 106.614 129.5709
306.705292 106.593 129.3178
308.927795 106.574 129.0606
311.166412 106.556 128.8018
313.421265 106.537 128.5453
315.692444 106.517 128.2950
317.980072 106.495 128.0544
320.284302 106.472 127.8260
322.605225 106.448 127.6105
324.942963 106.425 127.4060
327.297638 106.402 127.2084
329.669373 106.381 127.0120
332.058289 106.360 126.8118
334.464508 106.341 126.6053
336.888184 106.321 126.3935
339.329407 106.302 126.1786
341.788330 106.282 125.9622
344.265076 106.262 125.7447
346.759766 106.241 125.5269
349.272522 106.220 125.3110
351.803497 106.198 125.0984
354.352814 106.176 124.8890
356.920593 106.154 124.6811
359.506989 106.132 124.4710
362.112122 106.110 124.2556
364.736145 106.087 124.0364
367.379181 106.065 123.8183
370.041351 106.043 123.6056
372.722809 106.021 123.3989
375.423706 105.999 123.1958
378.144196 105.977 122.9944
380.884399 105.955 122.7946
383.644440 105.933 122.5977
386.424500 105.910 122.4039
389.224701 105.888 122.2116
392.045197 105.867 122.0187
394.886108 105.846 121.8250
397.747620 105.826 121.6332
400.629852 105.806 121.4474
403.532990 105.788 121.2689
406.457153 105.769 121.0947
409.402496 105.750 120.9199
412.369202 105.730 120.7416
415.357391 105.708 120.5606
418.367249 105.685 120.3802
421.398895 105.662 120.2043
424.452515 105.639 120.0362
427.528259 105.618 119.8769
430.626312 105.598 119.7240
433.746796 105.579 119.5726
436.889893 105.562 119.4169
440.055786 105.545 119.2533
443.244598 105.530 119.0809
446.456543 105.515 118.8995
449.691742 105.501 118.7071
452.950409 105.488 118.4997
456.232666 105.474 118.2740
459.538727 105.457 118.0335
462.868744 105.437 117.7884
466.222870 105.414 117.5502
469.601318 105.389 117.3253
473.004242 105.363 117.1137
476.431824 105.336 116.9116
479.884247 105.310 116.7136
483.361694 105.283 116.5160
486.864319 105.255 116.3193
490.392334 105.227 116.1290
493.945923 105.197 115.9517
497.525269 105.168 115.7898
501.130554 105.140 115.6397
504.761963 105.113 115.4944
508.419678 105.087 115.3476
512.103882 105.061 115.1963
515.814819 105.035 115.0410
519.552612 105.007 114.8851
523.317505 104.979 114.7333
527.109680 104.950 114.5900
530.929321 104.921 114.4570
534.776672 104.893 114.3312
538.651855 104.865 114.2086
542.555176 104.838 114.0884
546.486755 104.811 113.9730
550.446838 104.785 113.8628
554.435608 104.760 113.7557
558.453247 104.735 113.6478
562.500000 104.712 113.5370
566.576111 104.688 113.4243
570.681763 104.664 113.3134
574.817139 104.639 113.2086
578.982483 104.613 113.1122
583.178040 104.587 113.0234
587.403992 104.560 112.9416
591.660583 104.533 112.8678
595.947998 104.507 112.8041
600.266479 104.482 112.7486
604.616272 104.458 112.6970
608.997559 104.434 112.6454
613.410583 104.411 112.5931
617.855591 104.388 112.5427
622.332825 104.365 112.5003
626.842529 104.343 112.4721
631.384888 104.322 112.4599
635.960144 104.303 112.4592
640.568604 104.287 112.4637
645.210449 104.272 112.4708
649.885925 104.260 112.4801
654.595276 104.250 112.4890
659.338745 104.243 112.4901
664.116577 104.238 112.4737
668.929016 104.235 112.4336
673.776367 104.231 112.3718
678.658813 104.225 112.2965
683.576660 104.218 112.2164
688.530151 104.208 112.1376
693.519531 104.197 112.0653
698.545044 104.185 112.0037
703.606995 104.173 111.9543
708.705627 104.162 111.9150
713.841187 104.151 111.8817
719.013977 104.142 111.8513
724.224243 104.133 111.8232
729.472290 104.124 111.7982
734.758362 104.116 111.7767
740.082703 104.108 111.7592
745.445618 104.101 111.7462
750.847412 104.094 111.7383
756.288391 104.088 111.7357
761.768799 104.083 111.7379
767.288879 104.079 111.7437
772.848999 104.076 111.7523
778.449402 104.074 111.7634
784.090393 104.073 111.7771
789.772217 104.072 111.7953
795.495239 104.073 111.8214
801.259705 104.076 111.8579
807.065979 104.081 111.9031
812.914307 104.089 111.9505
818.804993 104.101 111.9910
824.738403 104.117 112.0151
830.714783 104.134 112.0154
836.734497 104.151 111.9908
842.797791 104.167 111.9487
848.905029 104.181 111.8990
855.056519 104.193 111.8490
861.252625 104.205 111.8024
867.493591 104.215 111.7627
873.779785 104.225 111.7335
880.111572 104.236 111.7143
886.489197 104.248 111.7008
892.913086 104.262 111.6895
899.383484 104.275 111.6803
905.900818 104.290 111.6751
912.465332 104.306 111.6749
919.077454 104.324 111.6780
925.737488 104.345 111.6818
932.445740 104.367 111.6825
939.202637 104.391 111.6760
946.008484 104.416 111.6608
952.863647 104.442 111.6380
959.768494 104.468 111.6100
966.723389 104.494 111.5797
973.728638 104.520 111.5499
980.784668 104.548 111.5215
987.891846 104.575 111.4942
995.050537 104.604 111.4701
1002.261108 104.633 111.4537
1009.523926 104.663 111.4488
1016.839355 104.697 111.4541
1024.207764 104.734 111.4646
1031.629639 104.775 111.4727
1039.105225 104.821 111.4669
1046.635010 104.870 111.4356
1054.219360 104.920 111.3744
1061.858643 104.971 111.2868
1069.553345 105.021 111.1800
1077.303711 105.071 111.0607
1085.110352 105.122 110.9320
1092.973511 105.173 110.7932
1100.893677 105.225 110.6423
1108.871216 105.277 110.4785
1116.906494 105.329 110.3022
1125.000000 105.380 110.1147
1133.152222 105.429 109.9179
1141.363525 105.478 109.7142
1149.634277 105.527 109.5056
1157.964966 105.574 109.2943
1166.356079 105.622 109.0826
1174.807983 105.670 108.8732
1183.321167 105.719 108.6661
1191.895996 105.770 108.4551
1200.532959 105.825 108.2291
1209.232544 105.880 107.9767
1217.995117 105.936 107.6933
1226.821167 105.989 107.3831
1235.711182 106.040 107.0551
1244.665649 106.088 106.7182
1253.685059 106.132 106.3798
1262.769775 106.175 106.0432
1271.920288 106.215 105.7091
1281.137207 106.255 105.3790
1290.420898 106.293 105.0543
1299.771851 106.331 104.7350
1309.190552 106.370 104.4186
1318.677490 106.408 104.1020
1328.233154 106.446 103.7830
1337.858032 106.482 103.4623
1347.552734 106.518 103.1424
1357.317627 106.552 102.8270
1367.153320 106.585 102.5198
1377.060303 106.617 102.2254
1387.039062 106.650 101.9488
1397.090088 106.685 101.6902
1407.213989 106.723 101.4438
1417.411255 106.766 101.1973
1427.682373 106.811 100.9362
1438.027954 106.859 100.6526
1448.448486 106.906 100.3465
1458.944580 106.952 100.0237
1469.516724 106.997 99.6902
1480.165405 107.041 99.3509
1490.891235 107.083 99.0097
1501.694824 107.125 98.6700
1512.576782 107.165 98.3350
1523.537598 107.205 98.0068
1534.577759 107.244 97.6876
1545.697998 107.284 97.3791
1556.898804 107.326 97.0814
1568.180786 107.372 96.7894
1579.544434 107.420 96.4918
1590.990479 107.472 96.1754
1602.519409 107.526 95.8327
1614.131958 107.579 95.4648
1625.828613 107.630 95.0772
1637.609985 107.680 94.6770
1649.476807 107.727 94.2698
1661.429565 107.772 93.8600
1673.468994 107.816 93.4506
1685.595581 107.859 93.0426
1697.810059 107.901 92.6344
1710.113037 107.943 92.2249
1722.505249 107.983 91.8149
1734.987183 108.021 91.4079
1747.559570 108.057 91.0089
1760.223145 108.092 90.6243
1772.978394 108.128 90.2591
1785.826172 108.165 89.9120
1798.766968 108.205 89.5737
1811.801636 108.249 89.2308
1824.930664 108.294 88.8738
1838.154907 108.341 88.5006
1851.474976 108.386 88.1137
1864.891479 108.430 87.7179
1878.405273 108.472 87.3190
1892.016968 108.512 86.9234
1905.727295 108.551 86.5381
1919.536987 108.588 86.1692
1933.446777 108.626 85.8203
1947.457275 108.665 85.4900
1961.569336 108.708 85.1689
1975.783691 108.754 84.8443
1990.101074 108.802 84.5072
2004.522217 108.850 84.1559
2019.047852 108.897 83.7946
2033.678711 108.941 83.4312
2048.415527 108.983 83.0751
2063.259277 109.023 82.7358
2078.210449 109.060 82.4214
2093.270020 109.097 82.1397
2108.438721 109.133 81.9005
2123.717285 109.171 81.7151
2139.106689 109.213 81.5948
2154.607422 109.264 81.5448
2170.220703 109.327 81.5569
2185.947021 109.409 81.6057
2201.787354 109.510 81.6537
2217.742432 109.631 81.6610
2233.812988 109.769 81.5909
2250.000000 109.921 81.4142
2266.304443 110.081 81.1124
2282.727051 110.244 80.6810
2299.268555 110.405 80.1284
2315.929932 110.560 79.4725
2332.712158 110.708 78.7336
2349.615967 110.848 77.9281
2366.642334 110.980 77.0694
2383.791992 111.102 76.1714
2401.065918 111.216 75.2490
2418.465088 111.322 74.3157
2435.990234 111.422 73.3810
2453.642334 111.518 72.4482
2471.422363 111.611 71.5150
2489.331299 111.702 70.5763
2507.370117 111.792 69.6281
2525.539551 111.879 68.6692
2543.840576 111.965 67.6990
2562.274414 112.051 66.7136
2580.841797 112.135 65.7050
2599.543701 112.217 64.6670
2618.381104 112.295 63.5984
2637.354980 112.368 62.5031
2656.466309 112.435 61.3892
2675.716064 112.496 60.2675
2695.105469 112.552 59.1477
2714.635254 112.604 58.0349
2734.306641 112.655 56.9247
2754.120605 112.704 55.8071
2774.078125 112.752 54.6723
2794.180176 112.796 53.5149
2814.427979 112.837 52.3342
2834.822510 112.871 51.1328
2855.364746 112.899 49.9152
2876.055908 112.920 48.6884
2896.896973 112.931 47.4637
2917.889160 112.934 46.2558
2939.033447 112.930 45.0768
2960.330811 112.920 43.9310
2981.782471 112.906 42.8166
3003.389648 112.890 41.7299
3025.153564 112.870 40.6690
3047.075195 112.847 39.6364
3069.155518 112.821 38.6383
3091.395996 112.794 37.6808
3113.797607 112.767 36.7643
3136.361572 112.741 35.8810
3159.088867 112.719 35.0189
3181.980957 112.700 34.1668
3205.038818 112.683 33.3167
3228.263916 112.667 32.4634
3251.657227 112.651 31.6045
3275.219971 112.633 30.7425
3298.953613 112.613 29.8853
3322.859131 112.592 29.0423
3346.937988 112.569 28.2174
3371.191162 112.547 27.4076
3395.620117 112.526 26.6062
3420.226074 112.505 25.8077
3445.010498 112.484 25.0115
3469.974365 112.462 24.2228
3495.119141 112.439 23.4469
3520.446289 112.418 22.6840
3545.956787 112.397 21.9285
3571.652344 112.379 21.1735
3597.533936 112.362 20.4121
3623.603271 112.345 19.6390
3649.861328 112.328 18.8513
3676.309814 112.308 18.0527
3702.949951 112.285 17.2528
3729.782959 112.258 16.4609
3756.810547 112.229 15.6820
3784.033936 112.197 14.9169
3811.454590 112.164 14.1663
3839.073975 112.129 13.4353
3866.893555 112.093 12.7325
3894.914551 112.057 12.0635
3923.138672 112.024 11.4257
3951.567383 111.995 10.8088
3980.202148 111.972 10.1987
4009.044434 111.954 9.5796
4038.095703 111.940 8.9387
4067.357422 111.928 8.2709
4096.831055 111.917 7.5793
4126.518555 111.905 6.8685
4156.420898 111.892 6.1396
4186.540039 111.878 5.3912
4216.877441 111.861 4.6244
4247.434570 111.841 3.8464
4278.213379 111.817 3.0670
4309.214844 111.792 2.2919
4340.441406 111.766 1.5209
4371.894043 111.739 0.7479
4403.574707 111.713 -0.0361
4435.484863 111.686 -0.8395
4467.625977 111.657 -1.6641
4500.000000 111.624 -2.5067
4532.608887 111.587 -3.3643
4565.454102 111.545 -4.2360
4598.537109 111.497 -5.1191
4631.859863 111.442 -6.0049
4665.424316 111.380 -6.8798
4699.231934 111.311 -7.7313
4733.284668 111.237 -8.5532
4767.583984 111.160 -9.3455
4802.131836 111.080 -10.1139
4836.930176 110.998 -10.8656
4871.980469 110.914 -11.6038
4907.284668 110.827 -12.3293
4942.844727 110.737 -13.0446
4978.662598 110.643 -13.7512
5014.740234 110.543 -14.4453
5051.079102 110.436 -15.1152
5087.681152 110.323 -15.7463
5124.548828 110.205 -16.3267
5161.683594 110.083 -16.8511
5199.087402 109.960 -17.3221
5236.762207 109.836 -17.7458
5274.709961 109.712 -18.1263
5312.932617 109.588 -18.4670
5351.432129 109.464 -18.7722
5390.210938 109.340 -19.0439
5429.270508 109.213 -19.2777
5468.613281 109.084 -19.4629
5508.241211 108.955 -19.5883
5548.156250 108.825 -19.6478
5588.360352 108.698 -19.6439
5628.855957 108.576 -19.5837
5669.645020 108.457 -19.4742
5710.729492 108.344 -19.3213
5752.111816 108.237 -19.1322
5793.793945 108.133 -18.9121
5835.778320 108.034 -18.6607
5878.066895 107.937 -18.3718
5920.661621 107.844 -18.0375
5963.564941 107.755 -17.6522
6006.779297 107.672 -17.2162
6050.307129 107.596 -16.7327
6094.150391 107.530 -16.2075
6138.311035 107.473 -15.6497
6182.791992 107.425 -15.0693
6227.595215 107.387 -14.4716
6272.723145 107.357 -13.8557
6318.177734 107.335 -13.2176
6363.961914 107.324 -12.5554
6410.077637 107.323 -11.8719
6456.527832 107.334 -11.1732
6503.314453 107.358 -10.4685
6550.439941 107.395 -9.7698
6597.907227 107.444 -9.0875
6645.718262 107.506 -8.4264
6693.875977 107.578 -7.7856
6742.382324 107.663 -7.1631
6791.240234 107.761 -6.5598
6840.452148 107.872 -5.9800
6890.020996 108.000 -5.4330
6939.948730 108.144 -4.9335
6990.238281 108.306 -4.4983
7040.892578 108.485 -4.1420
7091.913574 108.680 -3.8766
7143.304688 108.894 -3.7151
7195.067871 109.124 -3.6743
7247.206543 109.373 -3.7760
7299.722656 109.639 -4.0483
7352.619629 109.921 -4.5250
7405.899902 110.214 -5.2390
7459.565918 110.515 -6.2175
7513.621094 110.817 -7.4813
7568.067871 111.114 -9.0456
7622.909180 111.400 -10.9208
7678.147949 111.667 -13.1127
7733.787109 111.907 -15.6213
7789.829102 112.110 -18.4365
7846.277344 112.266 -21.5306
7903.134766 112.365 -24.8569
7960.404297 112.400 -28.3526
8018.088867 112.367 -31.9442
8076.191406 112.262 -35.5533
8134.714844 112.088 -39.1056
8193.662109 111.847 -42.5332
8253.037109 111.543 -45.7748
8312.841797 111.182 -48.7744
8373.080078 110.770 -51.4838
8433.754883 110.316 -53.8639
8494.869141 109.829 -55.8893
8556.426758 109.318 -57.5520
8618.429688 108.793 -58.8584
8680.882812 108.262 -59.8236
8743.788086 107.729 -60.4653
8807.149414 107.201 -60.8000
8870.969727 106.681 -60.8439
8935.251953 106.174 -60.6171
9000.000000 105.683 -60.1473
9065.217773 105.213 -59.4654
9130.908203 104.764 -58.6008
9197.074219 104.336 -57.5761
9263.719727 103.929 -56.4061
9330.848633 103.544 -55.1038
9398.463867 103.181 -53.6855
9466.569336 102.841 -52.1709
9535.167969 102.522 -50.5789
9604.263672 102.223 -48.9221
9673.860352 101.943 -47.2055
9743.960938 101.682 -45.4319
9814.569336 101.440 -43.6088
9885.689453 101.217 -41.7480
9957.325195 101.012 -39.8623
10029.480469 100.824 -37.9586
10102.158203 100.652 -36.0374
10175.362305 100.497 -34.0997
10249.097656 100.359 -32.1532
10323.367188 100.237 -30.2112
10398.174805 100.132 -28.2865
10473.524414 100.041 -26.3858
10549.419922 99.965 -24.5123
10625.865234 99.903 -22.6729
10702.864258 99.855 -20.8802
10780.421875 99.821 -19.1487
10858.541016 99.796 -17.4877
10937.226562 99.782 -15.9011
11016.482422 99.775 -14.3940
11096.312500 99.775 -12.9768
11176.720703 99.779 -11.6619
11257.711914 99.784 -10.4557
11339.290039 99.787 -9.3566
11421.458984 99.785 -8.3583
11504.223633 99.776 -7.4559
11587.587891 99.758 -6.6442
11671.556641 99.726 -5.9111
11756.133789 99.678 -5.2352
11841.323242 99.612 -4.5902
11927.129883 99.527 -3.9526
12013.558594 99.423 -3.3020
12100.614258 99.299 -2.6163
12188.300781 99.155 -1.8702
12276.622070 98.994 -1.0389
12365.583984 98.817 -0.1038
12455.190430 98.627 0.9497
12545.446289 98.426 2.1362
12636.355469 98.217 3.4712
12727.923828 98.004 4.9645
12820.155273 97.790 6.6169
12913.055664 97.578 8.4242
13006.628906 97.370 10.3820
13100.879883 97.170 12.4868
13195.814453 96.979 14.7322
13291.436523 96.800 17.1110
13387.751953 96.634 19.6210
13484.764648 96.484 22.2655
13582.480469 96.352 25.0458
13680.904297 96.242 27.9570
13780.041992 96.158 30.9922
13879.897461 96.106 34.1432
13980.476562 96.090 37.3953
14081.785156 96.117 40.7208
14183.827148 96.194 44.0803
14286.609375 96.328 47.4243
14390.135742 96.524 50.6863
14494.413086 96.790 53.7775
14599.445312 97.127 56.5874
14705.239258 97.535 58.9898
14811.799805 98.011 60.8421
14919.131836 98.541 61.9921
15027.242188 99.106 62.2966
15136.135742 99.679 61.6408
15245.818359 100.224 59.9546
15356.295898 100.701 57.2288
15467.574219 101.070 53.5322
15579.658203 101.289 49.0216
15692.554688 101.325 43.9378
15806.269531 101.158 38.5875
15920.808594 100.779 33.3087
16036.177734 100.198 28.4266
16152.382812 99.434 24.2144
16269.429688 98.518 20.8711
16387.324219 97.482 18.5198
16506.074219 96.360 17.2113
16625.683594 95.186 16.9305
16746.160156 93.989 17.6086
16867.509766 92.795 19.1370
16989.738281 91.623 21.3824
17112.853516 90.487 24.2042
17236.859375 89.393 27.4724
17361.765625 88.344 31.0796
17487.576172 87.338 34.9413
17614.298828 86.370 38.9995
17741.939453 85.435 43.2186
17870.503906 84.524 47.5755
18000.000000 83.632 52.0507
18130.435547 82.749 56.6248
18261.816406 81.867 61.2868
18394.148438 80.980 66.0509
18527.439453 80.087 70.9548
18661.697266 79.185 76.0437
18796.927734 78.275 81.3629
18933.138672 77.357 86.9592
19070.335938 76.434 92.8761
19208.527344 75.509 99.1410
19347.720703 74.592 105.7461
19487.921875 73.698 112.6068
19629.138672 72.858 119.4829
19771.378906 72.123 125.8795
19914.650391 71.564 131.0043
20058.960938 71.259 133.9138
