* Measurement data measured by REW V5.30 beta 5
* Source: EXCL: Microphone (Realtek(R) Audio), MICROPHONE (Master Volume), L, volume: 0.250
* Format: 256k Log Swept Sine, 1 sweep at -13.0 dBFS with no timing reference
* Dated: Dec 14, 2023 12:50:22 PM
* REW Settings:
*  C-weighting compensation: Off
*  Target level: 75.0 dB
* Note: 
* Measurement: L LM RED
* Smoothing: 1/24 octave
* Frequency Step: 96 ppo
* Start Frequency: 0.36621094 Hz
*
* Freq(Hz) SPL(dB) Phase(degrees)
0.366211 54.585 23.7672
0.368865 54.618 23.7557
0.371538 54.665 23.7400
0.374230 54.718 23.7234
0.376942 54.774 23.7074
0.379673 54.830 23.6927
0.382424 54.887 23.6793
0.385196 54.945 23.6673
0.387987 55.003 23.6567
0.390798 55.061 23.6474
0.393630 55.120 23.6393
0.396483 55.179 23.6326
0.399356 55.238 23.6270
0.402250 55.298 23.6226
0.405165 55.359 23.6194
0.408101 55.420 23.6172
0.411058 55.481 23.6162
0.414037 55.543 23.6161
0.417037 55.605 23.6169
0.420059 55.668 23.6187
0.423103 55.731 23.6214
0.426169 55.795 23.6248
0.429257 55.859 23.6290
0.432367 55.923 23.6339
0.435501 55.988 23.6394
0.438656 56.054 23.6455
0.441835 56.120 23.6522
0.445037 56.186 23.6593
0.448262 56.253 23.6668
0.451510 56.320 23.6746
0.454782 56.388 23.6828
0.458077 56.457 23.6911
0.461397 56.525 23.6996
0.464740 56.595 23.7081
0.468108 56.665 23.7167
0.471500 56.735 23.7252
0.474917 56.806 23.7335
0.478358 56.877 23.7417
0.481825 56.949 23.7496
0.485316 57.022 23.7571
0.488833 57.095 23.7642
0.492375 57.168 23.7707
0.495943 57.242 23.7767
0.499537 57.317 23.7821
0.503157 57.392 23.7867
0.506803 57.467 23.7904
0.510475 57.544 23.7933
0.514174 57.620 23.7952
0.517900 57.698 23.7961
0.521653 57.776 23.7958
0.525433 57.854 23.7943
0.529241 57.933 23.7915
0.533076 58.012 23.7873
0.536939 58.093 23.7817
0.540830 58.173 23.7745
0.544749 58.255 23.7657
0.548696 58.337 23.7551
0.552673 58.419 23.7428
0.556677 58.502 23.7286
0.560711 58.586 23.7124
0.564774 58.670 23.6942
0.568867 58.755 23.6739
0.572989 58.841 23.6513
0.577141 58.927 23.6265
0.581324 59.013 23.5993
0.585536 59.101 23.5696
0.589779 59.189 23.5374
0.594053 59.278 23.5026
0.598358 59.367 23.4650
0.602694 59.457 23.4247
0.607061 59.547 23.3816
0.611460 59.639 23.3355
0.615891 59.731 23.2864
0.620354 59.823 23.2342
0.624849 59.916 23.1788
0.629377 60.010 23.1201
0.633938 60.105 23.0582
0.638532 60.200 22.9928
0.643159 60.296 22.9240
0.647819 60.393 22.8516
0.652514 60.490 22.7756
0.657242 60.589 22.6960
0.662005 60.687 22.6125
0.666802 60.787 22.5252
0.671634 60.887 22.4340
0.676501 60.988 22.3389
0.681403 61.090 22.2397
0.686341 61.192 22.1364
0.691314 61.295 22.0289
0.696324 61.399 21.9172
0.701369 61.504 21.8012
0.706452 61.610 21.6809
0.711571 61.716 21.5562
0.716727 61.823 21.4270
0.721921 61.930 21.2936
0.727153 62.037 21.1563
0.732422 62.143 21.0160
0.737729 62.247 20.8748
0.743075 62.350 20.7343
0.748460 62.452 20.5955
0.753883 62.555 20.4588
0.759346 62.658 20.3239
0.764849 62.761 20.1909
0.770391 62.865 20.0596
0.775974 62.970 19.9298
0.781597 63.075 19.8013
0.787261 63.180 19.6739
0.792965 63.286 19.5475
0.798712 63.393 19.4220
0.804499 63.499 19.2970
0.810329 63.607 19.1726
0.816201 63.715 19.0484
0.822116 63.823 18.9242
0.828073 63.932 18.8001
0.834073 64.041 18.6756
0.840118 64.150 18.5508
0.846205 64.261 18.4253
0.852337 64.371 18.2991
0.858514 64.482 18.1719
0.864735 64.594 18.0436
0.871001 64.706 17.9140
0.877313 64.818 17.7830
0.883670 64.931 17.6503
0.890074 65.044 17.5159
0.896523 65.158 17.3794
0.903020 65.272 17.2409
0.909564 65.386 17.1000
0.916155 65.501 16.9567
0.922793 65.617 16.8108
0.929480 65.732 16.6620
0.936216 65.849 16.5103
0.943000 65.965 16.3555
0.949833 66.082 16.1974
0.956716 66.200 16.0359
0.963649 66.317 15.8708
0.970632 66.436 15.7020
0.977666 66.554 15.5292
0.984750 66.673 15.3524
0.991886 66.792 15.1713
0.999074 66.912 14.9859
1.006313 67.032 14.7959
1.013605 67.152 14.6013
1.020950 67.273 14.4017
1.028349 67.394 14.1973
1.035801 67.515 13.9876
1.043306 67.637 13.7727
1.050867 67.759 13.5522
1.058482 67.881 13.3262
1.066152 68.004 13.0945
1.073878 68.127 12.8569
1.081659 68.250 12.6134
1.089498 68.373 12.3643
1.097393 68.497 12.1104
1.105345 68.621 11.8532
1.113355 68.745 11.5948
1.121422 68.869 11.3360
1.129549 68.993 11.0774
1.137734 69.118 10.8190
1.145978 69.242 10.5607
1.154283 69.367 10.3024
1.162647 69.492 10.0441
1.171072 69.618 9.7855
1.179558 69.743 9.5266
1.188106 69.868 9.2673
1.196715 69.994 9.0073
1.205387 70.120 8.7467
1.214122 70.246 8.4852
1.222920 70.372 8.2227
1.231781 70.499 7.9591
1.240708 70.625 7.6942
1.249698 70.752 7.4279
1.258754 70.878 7.1600
1.267875 71.005 6.8905
1.277063 71.132 6.6190
1.286317 71.260 6.3455
1.295638 71.387 6.0699
1.305027 71.515 5.7919
1.314484 71.642 5.5115
1.324009 71.770 5.2283
1.333603 71.898 4.9424
1.343267 72.026 4.6534
1.353001 72.155 4.3613
1.362805 72.283 4.0659
1.372681 72.412 3.7669
1.382628 72.541 3.4643
1.392647 72.670 3.1578
1.402739 72.799 2.8473
1.412904 72.928 2.5325
1.423142 73.058 2.2133
1.433455 73.188 1.8896
1.443842 73.317 1.5613
1.454305 73.448 1.2285
1.464843 73.578 0.8920
1.475458 73.708 0.5532
1.486150 73.838 0.2136
1.496919 73.968 -0.1261
1.507766 74.098 -0.4658
1.518692 74.228 -0.8055
1.529697 74.357 -1.1453
1.540782 74.487 -1.4855
1.551947 74.616 -1.8262
1.563193 74.745 -2.1677
1.574521 74.874 -2.5102
1.585931 75.003 -2.8538
1.597423 75.132 -3.1989
1.608998 75.260 -3.5456
1.620658 75.389 -3.8942
1.632402 75.517 -4.2449
1.644231 75.645 -4.5980
1.656146 75.773 -4.9537
1.668147 75.901 -5.3124
1.680235 76.029 -5.6742
1.692410 76.157 -6.0394
1.704674 76.284 -6.4084
1.717027 76.412 -6.7813
1.729469 76.539 -7.1585
1.742002 76.667 -7.5403
1.754625 76.794 -7.9269
1.767340 76.921 -8.3187
1.780147 77.049 -8.7159
1.793046 77.176 -9.1189
1.806040 77.303 -9.5279
1.819127 77.430 -9.9430
1.832309 77.557 -10.3641
1.845587 77.684 -10.7904
1.858961 77.811 -11.2213
1.872431 77.937 -11.6561
1.886000 78.062 -12.0944
1.899666 78.187 -12.5360
1.913432 78.312 -12.9805
1.927298 78.436 -13.4277
1.941264 78.560 -13.8775
1.955331 78.683 -14.3296
1.969500 78.806 -14.7840
1.983772 78.929 -15.2404
1.998147 79.051 -15.6988
2.012626 79.173 -16.1591
2.027211 79.294 -16.6213
2.041901 79.415 -17.0853
2.056697 79.536 -17.5510
2.071601 79.656 -18.0186
2.086613 79.776 -18.4880
2.101733 79.896 -18.9593
2.116963 80.015 -19.4326
2.132303 80.134 -19.9079
2.147755 80.253 -20.3855
2.163318 80.371 -20.8655
2.178995 80.489 -21.3483
2.194785 80.607 -21.8344
2.210689 80.725 -22.3245
2.226709 80.842 -22.8192
2.242844 80.958 -23.3187
2.259097 81.073 -23.8226
2.275467 81.188 -24.3306
2.291956 81.302 -24.8420
2.308565 81.415 -25.3565
2.325294 81.528 -25.8735
2.342144 81.640 -26.3927
2.359116 81.751 -26.9136
2.376211 81.861 -27.4359
2.393430 81.971 -27.9591
2.410774 82.081 -28.4831
2.428243 82.189 -29.0075
2.445839 82.298 -29.5319
2.463562 82.405 -30.0563
2.481415 82.513 -30.5803
2.499396 82.619 -31.1038
2.517508 82.726 -31.6267
2.535750 82.831 -32.1492
2.554126 82.937 -32.6719
2.572634 83.041 -33.1960
2.591276 83.145 -33.7235
2.610054 83.248 -34.2552
2.628967 83.350 -34.7913
2.648018 83.452 -35.3312
2.667206 83.552 -35.8743
2.686534 83.651 -36.4199
2.706002 83.749 -36.9674
2.725610 83.847 -37.5161
2.745361 83.944 -38.0652
2.765255 84.039 -38.6142
2.785294 84.135 -39.1624
2.805477 84.229 -39.7092
2.825807 84.323 -40.2539
2.846284 84.416 -40.7960
2.866909 84.509 -41.3351
2.887684 84.601 -41.8707
2.908609 84.693 -42.4029
2.929686 84.784 -42.9326
2.950916 84.874 -43.4620
2.972299 84.964 -43.9930
2.993838 85.052 -44.5264
3.015532 85.139 -45.0620
3.037384 85.225 -45.5992
3.059394 85.310 -46.1373
3.081564 85.395 -46.6756
3.103894 85.478 -47.2133
3.126386 85.561 -47.7495
3.149041 85.643 -48.2835
3.171861 85.724 -48.8145
3.194845 85.805 -49.3416
3.217996 85.885 -49.8640
3.241315 85.965 -50.3811
3.264803 86.044 -50.8924
3.288461 86.123 -51.3981
3.312291 86.202 -51.8994
3.336293 86.279 -52.3984
3.360469 86.356 -52.8960
3.384820 86.432 -53.3926
3.409348 86.507 -53.8878
3.434054 86.581 -54.3814
3.458938 86.654 -54.8729
3.484003 86.727 -55.3616
3.509250 86.799 -55.8471
3.534679 86.871 -56.3288
3.560293 86.943 -56.8060
3.586092 87.014 -57.2781
3.612079 87.086 -57.7446
3.638253 87.157 -58.2051
3.664618 87.229 -58.6596
3.691173 87.300 -59.1087
3.717921 87.370 -59.5534
3.744862 87.441 -59.9940
3.771999 87.510 -60.4309
3.799332 87.580 -60.8643
3.826864 87.649 -61.2943
3.854595 87.717 -61.7208
3.882527 87.786 -62.1441
3.910661 87.855 -62.5640
3.938999 87.924 -62.9805
3.967543 87.994 -63.3935
3.996294 88.063 -63.8029
4.025252 88.134 -64.2083
4.054421 88.204 -64.6092
4.083801 88.275 -65.0055
4.113394 88.346 -65.3973
4.143201 88.417 -65.7852
4.173225 88.488 -66.1698
4.203466 88.559 -66.5519
4.233926 88.630 -66.9322
4.264606 88.702 -67.3114
4.295509 88.775 -67.6903
4.326636 88.847 -68.0695
4.357989 88.920 -68.4493
4.389569 88.994 -68.8297
4.421378 89.068 -69.2099
4.453417 89.143 -69.5889
4.485688 89.219 -69.9666
4.518193 89.294 -70.3433
4.550934 89.370 -70.7199
4.583912 89.447 -71.0972
4.617129 89.524 -71.4760
4.650587 89.601 -71.8574
4.684287 89.678 -72.2421
4.718231 89.756 -72.6310
4.752421 89.833 -73.0244
4.786859 89.911 -73.4220
4.821547 89.989 -73.8230
4.856485 90.068 -74.2270
4.891677 90.146 -74.6340
4.927125 90.225 -75.0442
4.962829 90.304 -75.4578
4.998791 90.382 -75.8751
5.035015 90.461 -76.2967
5.071500 90.539 -76.7228
5.108251 90.616 -77.1542
5.145267 90.693 -77.5911
5.182552 90.770 -78.0340
5.220107 90.846 -78.4826
5.257934 90.922 -78.9364
5.296035 90.998 -79.3946
5.334412 91.073 -79.8565
5.373067 91.147 -80.3214
5.412003 91.220 -80.7887
5.451221 91.292 -81.2583
5.490722 91.364 -81.7305
5.530510 91.434 -82.2064
5.570587 91.503 -82.6872
5.610953 91.571 -83.1724
5.651613 91.638 -83.6610
5.692567 91.704 -84.1515
5.733818 91.769 -84.6423
5.775367 91.833 -85.1320
5.817218 91.896 -85.6197
5.859372 91.958 -86.1052
5.901831 92.018 -86.5899
5.944598 92.077 -87.0751
5.987675 92.134 -87.5608
6.031065 92.191 -88.0458
6.074768 92.246 -88.5287
6.118788 92.300 -89.0076
6.163127 92.353 -89.4812
6.207788 92.406 -89.9485
6.252772 92.457 -90.4097
6.298082 92.508 -90.8660
6.343721 92.557 -91.3179
6.389690 92.605 -91.7654
6.435992 92.653 -92.2078
6.482630 92.700 -92.6442
6.529606 92.747 -93.0737
6.576922 92.793 -93.4955
6.624581 92.840 -93.9093
6.672585 92.886 -94.3155
6.720938 92.931 -94.7147
6.769640 92.977 -95.1074
6.818696 93.022 -95.4943
6.868107 93.068 -95.8759
6.917876 93.114 -96.2523
6.968006 93.161 -96.6234
7.018499 93.208 -96.9883
7.069358 93.256 -97.3472
7.120586 93.304 -97.7011
7.172184 93.353 -98.0515
7.224157 93.402 -98.3998
7.276506 93.452 -98.7476
7.329235 93.503 -99.0951
7.382345 93.555 -99.4419
7.435841 93.607 -99.7874
7.489724 93.661 -100.1324
7.543997 93.715 -100.4784
7.598664 93.769 -100.8270
7.653728 93.824 -101.1797
7.709189 93.880 -101.5370
7.765053 93.936 -101.8987
7.821322 93.993 -102.2642
7.877998 94.050 -102.6339
7.935086 94.107 -103.0084
7.992587 94.164 -103.3885
8.050504 94.221 -103.7748
8.108841 94.278 -104.1678
8.167601 94.334 -104.5671
8.226787 94.391 -104.9724
8.286402 94.447 -105.3830
8.346449 94.502 -105.7983
8.406931 94.557 -106.2183
8.467851 94.611 -106.6433
8.529212 94.664 -107.0735
8.591018 94.716 -107.5084
8.653272 94.768 -107.9467
8.715977 94.818 -108.3873
8.779137 94.868 -108.8293
8.842754 94.916 -109.2727
8.906833 94.964 -109.7181
8.971375 95.010 -110.1649
9.036386 95.056 -110.6121
9.101867 95.100 -111.0584
9.167823 95.144 -111.5031
9.234257 95.187 -111.9466
9.301172 95.229 -112.3888
9.368572 95.270 -112.8298
9.436460 95.311 -113.2688
9.504841 95.351 -113.7055
9.573717 95.391 -114.1396
9.643092 95.430 -114.5713
9.712970 95.468 -115.0010
9.783354 95.507 -115.4288
9.854248 95.545 -115.8548
9.925656 95.582 -116.2790
9.997581 95.620 -116.7016
10.070028 95.657 -117.1228
10.143000 95.694 -117.5430
10.216500 95.731 -117.9625
10.290533 95.768 -118.3817
10.365103 95.804 -118.8005
10.440212 95.840 -119.2190
10.515866 95.876 -119.6374
10.592069 95.912 -120.0558
10.668823 95.947 -120.4743
10.746134 95.982 -120.8929
10.824005 96.016 -121.3116
10.902440 96.050 -121.7298
10.981443 96.084 -122.1475
11.061020 96.117 -122.5646
11.141172 96.150 -122.9811
11.221906 96.182 -123.3965
11.303225 96.213 -123.8104
11.385133 96.245 -124.2224
11.467634 96.275 -124.6326
11.550734 96.306 -125.0408
11.634435 96.336 -125.4468
11.718742 96.365 -125.8502
11.803661 96.395 -126.2511
11.889195 96.424 -126.6495
11.975349 96.453 -127.0456
12.062128 96.482 -127.4395
12.149535 96.511 -127.8313
12.237576 96.540 -128.2210
12.326254 96.569 -128.6091
12.415575 96.598 -128.9961
12.505544 96.627 -129.3821
12.596164 96.656 -129.7673
12.687441 96.684 -130.1520
12.779379 96.713 -130.5365
12.871984 96.742 -130.9211
12.965260 96.771 -131.3059
13.059211 96.799 -131.6909
13.153843 96.827 -132.0760
13.249161 96.855 -132.4613
13.345170 96.883 -132.8467
13.441875 96.910 -133.2320
13.539280 96.937 -133.6168
13.637391 96.963 -134.0010
13.736214 96.989 -134.3844
13.835752 97.015 -134.7667
13.936011 97.040 -135.1475
14.036998 97.065 -135.5267
14.138716 97.089 -135.9043
14.241171 97.114 -136.2801
14.344368 97.138 -136.6541
14.448313 97.161 -137.0263
14.553011 97.185 -137.3970
14.658468 97.208 -137.7663
14.764689 97.231 -138.1344
14.871680 97.254 -138.5015
14.979446 97.277 -138.8681
15.087994 97.300 -139.2342
15.197328 97.322 -139.6001
15.307454 97.344 -139.9659
15.418378 97.366 -140.3317
15.530106 97.387 -140.6975
15.642643 97.408 -141.0631
15.755996 97.429 -141.4284
15.870171 97.449 -141.7931
15.985172 97.468 -142.1570
16.101007 97.487 -142.5198
16.217682 97.506 -142.8811
16.335201 97.524 -143.2409
16.453573 97.541 -143.5988
16.572803 97.558 -143.9548
16.692898 97.575 -144.3090
16.813862 97.592 -144.6615
16.935701 97.608 -145.0126
17.058424 97.625 -145.3626
17.182035 97.641 -145.7120
17.306543 97.657 -146.0612
17.431953 97.673 -146.4106
17.558273 97.688 -146.7607
17.685509 97.704 -147.1117
17.813665 97.719 -147.4638
17.942751 97.733 -147.8170
18.072771 97.747 -148.1712
18.203733 97.761 -148.5261
18.335646 97.774 -148.8813
18.468513 97.787 -149.2364
18.602345 97.799 -149.5910
18.737144 97.810 -149.9445
18.872921 97.821 -150.2967
19.009682 97.832 -150.6475
19.147434 97.842 -150.9967
19.286184 97.852 -151.3447
19.425940 97.862 -151.6917
19.566708 97.872 -152.0383
19.708496 97.882 -152.3849
19.851313 97.892 -152.7322
19.995163 97.901 -153.0805
20.140057 97.911 -153.4301
20.285999 97.920 -153.7810
20.433001 97.929 -154.1331
20.581066 97.937 -154.4859
20.730206 97.944 -154.8387
20.880424 97.951 -155.1907
21.031733 97.958 -155.5410
21.184137 97.964 -155.8888
21.337646 97.969 -156.2334
21.492268 97.975 -156.5745
21.648010 97.980 -156.9121
21.804880 97.986 -157.2464
21.962887 97.991 -157.5780
22.122040 97.997 -157.9079
22.282345 98.004 -158.2370
22.443811 98.010 -158.5664
22.606449 98.017 -158.8968
22.770266 98.024 -159.2288
22.935268 98.031 -159.5628
23.101467 98.037 -159.8983
23.268869 98.043 -160.2351
23.437485 98.049 -160.5722
23.607323 98.054 -160.9087
23.778391 98.058 -161.2435
23.950699 98.062 -161.5758
24.124256 98.065 -161.9051
24.299070 98.069 -162.2311
24.475151 98.072 -162.5540
24.652508 98.075 -162.8743
24.831150 98.078 -163.1928
25.011087 98.081 -163.5105
25.192327 98.085 -163.8282
25.374882 98.088 -164.1465
25.558758 98.091 -164.4658
25.743967 98.093 -164.7859
25.930519 98.095 -165.1066
26.118422 98.096 -165.4268
26.307686 98.096 -165.7457
26.498322 98.096 -166.0624
26.690340 98.095 -166.3762
26.883749 98.094 -166.6866
27.078560 98.093 -166.9939
27.274782 98.091 -167.2986
27.472427 98.090 -167.6017
27.671503 98.088 -167.9043
27.872023 98.087 -168.2077
28.073996 98.085 -168.5126
28.277431 98.083 -168.8193
28.482342 98.081 -169.1275
28.688736 98.077 -169.4362
28.896626 98.073 -169.7440
29.106022 98.069 -170.0491
29.316936 98.063 -170.3503
29.529379 98.058 -170.6465
29.743361 98.052 -170.9381
29.958893 98.047 -171.2259
30.175987 98.043 -171.5119
30.394655 98.039 -171.7984
30.614908 98.036 -172.0879
30.836756 98.033 -172.3820
31.060211 98.030 -172.6815
31.285286 98.027 -172.9859
31.511992 98.022 -173.2937
31.740341 98.017 -173.6025
31.970345 98.011 -173.9094
32.202015 98.003 -174.2124
32.435364 97.995 -174.5097
32.670403 97.988 -174.8012
32.907146 97.980 -175.0876
33.145607 97.973 -175.3707
33.385796 97.966 -175.6528
33.627724 97.960 -175.9360
33.871403 97.954 -176.2220
34.116848 97.947 -176.5118
34.364071 97.941 -176.8053
34.613087 97.933 -177.1013
34.863907 97.925 -177.3979
35.116547 97.915 -177.6931
35.371017 97.905 -177.9846
35.627331 97.893 -178.2711
35.885502 97.882 -178.5526
36.145542 97.871 -178.8303
36.407467 97.860 -179.1066
36.671291 97.850 -179.3843
36.937027 97.839 -179.6654
37.204689 97.828 -179.9506
37.474289 97.816 179.7617
37.745842 97.803 179.4742
38.019363 97.789 179.1906
38.294868 97.775 178.9127
38.572369 97.760 178.6406
38.851879 97.746 178.3713
39.133415 97.732 178.1010
39.416992 97.719 177.8263
39.702625 97.705 177.5471
39.990326 97.689 177.2672
40.280113 97.672 176.9930
40.571999 97.653 176.7313
40.866001 97.635 176.4849
41.162132 97.618 176.2511
41.460411 97.604 176.0220
41.760849 97.591 175.7876
42.063465 97.580 175.5399
42.368275 97.569 175.2776
42.675293 97.555 175.0067
42.984535 97.538 174.7372
43.296021 97.519 174.4789
43.609760 97.500 174.2358
43.925774 97.482 174.0051
44.244080 97.466 173.7773
44.564690 97.451 173.5423
44.887623 97.437 173.2940
45.212898 97.421 173.0328
45.540531 97.402 172.7652
45.870537 97.381 172.5004
46.202934 97.358 172.2467
46.537739 97.333 172.0089
46.874969 97.309 171.7874
47.214645 97.286 171.5789
47.556782 97.266 171.3781
47.901398 97.247 171.1785
48.248512 97.231 170.9733
48.598141 97.216 170.7560
48.950302 97.202 170.5220
49.305016 97.187 170.2701
49.662300 97.170 170.0045
50.022175 97.149 169.7350
50.384655 97.125 169.4751
50.749763 97.098 169.2379
51.117516 97.071 169.0297
51.487934 97.046 168.8455
51.861038 97.025 168.6685
52.236843 97.008 168.4773
52.615372 96.991 168.2575
52.996643 96.971 168.0119
53.380680 96.945 167.7607
53.767498 96.913 167.5310
54.157120 96.879 167.3408
54.549564 96.847 167.1882
54.944855 96.820 167.0546
55.343006 96.797 166.9186
55.744045 96.777 166.7697
56.147991 96.758 166.6095
56.554863 96.741 166.4421
56.964684 96.727 166.2613
57.377472 96.715 166.0520
57.793251 96.703 165.8029
58.212044 96.687 165.5201
58.633873 96.664 165.2278
59.058758 96.636 164.9532
59.486721 96.605 164.7110
59.917786 96.575 164.4973
60.351974 96.547 164.2990
60.789310 96.520 164.1065
61.229816 96.493 163.9194
61.673512 96.466 163.7408
62.120422 96.441 163.5692
62.570572 96.416 163.3961
63.023983 96.392 163.2122
63.480682 96.367 163.0161
63.940689 96.339 162.8169
64.404030 96.309 162.6249
64.870728 96.279 162.4381
65.340805 96.250 162.2396
65.814293 96.218 162.0161
66.291214 96.180 161.7838
66.771591 96.134 161.5900
67.255447 96.086 161.4760
67.742805 96.047 161.4300
68.233696 96.022 161.3827
68.728142 96.006 161.2627
69.226173 95.987 161.0589
69.727814 95.958 160.8236
70.233093 95.920 160.6179
70.742035 95.880 160.4602
71.254662 95.844 160.3268
71.771004 95.811 160.1877
72.291084 95.778 160.0306
72.814934 95.744 159.8569
73.342583 95.707 159.6742
73.874054 95.668 159.4962
74.409378 95.627 159.3354
74.948578 95.588 159.1869
75.491684 95.550 159.0328
76.038727 95.509 158.8718
76.589737 95.465 158.7291
77.144737 95.418 158.6234
77.703758 95.372 158.5424
78.266830 95.325 158.4725
78.833984 95.273 158.4341
79.405251 95.219 158.4549
79.980652 95.171 158.5134
80.560226 95.129 158.5499
81.143997 95.087 158.5342
81.732002 95.039 158.4867
82.324265 94.985 158.4334
82.920822 94.927 158.3938
83.521698 94.865 158.4165
84.126930 94.808 158.5612
84.736549 94.774 158.8199
85.350586 94.772 159.1024
85.969070 94.800 159.3080
86.592041 94.848 159.3795
87.219521 94.902 159.2978
87.851547 94.952 159.0892
88.488159 94.987 158.8221
89.129379 95.011 158.5475
89.775246 95.026 158.2612
90.425797 95.027 157.9531
91.081062 95.014 157.6483
91.741074 94.991 157.3681
92.405869 94.962 157.1012
93.075478 94.927 156.8401
93.749939 94.888 156.5987
94.429291 94.851 156.3786
95.113564 94.815 156.1643
95.802795 94.778 155.9573
96.497025 94.739 155.7756
97.196281 94.697 155.6306
97.900604 94.650 155.5309
98.610031 94.601 155.4831
99.324600 94.550 155.4739
100.044350 94.501 155.4712
100.769310 94.453 155.4404
101.499527 94.403 155.3519
102.235031 94.350 155.2029
102.975868 94.290 155.0304
103.722076 94.226 154.8829
104.473686 94.163 154.7906
105.230743 94.105 154.7571
105.993286 94.051 154.7618
106.761360 93.999 154.7886
107.534996 93.941 154.8434
108.314240 93.876 154.9438
109.099129 93.806 155.1159
109.889709 93.740 155.3706
110.686012 93.689 155.6696
111.488091 93.658 155.9549
112.295982 93.652 156.1976
113.109726 93.671 156.3936
113.929367 93.716 156.5083
114.754944 93.779 156.4706
115.586502 93.838 156.2701
116.424088 93.878 155.9759
117.267746 93.889 155.6583
118.117516 93.874 155.3932
118.973442 93.849 155.2137
119.835571 93.833 154.9924
120.703949 93.825 154.5700
121.578621 93.814 153.9356
122.459633 93.792 153.0980
123.347023 93.728 152.1501
124.240845 93.607 151.5950
125.141144 93.490 151.8763
126.047966 93.448 152.6235
126.961365 93.466 153.2095
127.881378 93.487 153.5255
128.808060 93.485 153.7210
129.741455 93.462 153.8712
130.681610 93.424 153.9528
131.628586 93.377 153.9443
132.582428 93.324 153.8946
133.543182 93.277 153.8691
134.510895 93.248 153.8704
135.485611 93.237 153.7990
136.467392 93.227 153.5983
137.456284 93.199 153.3497
138.452347 93.152 153.1494
139.455627 93.092 153.0437
140.466187 93.031 153.0134
141.484070 92.975 152.9903
142.509323 92.923 152.9422
143.542007 92.874 152.8851
144.582169 92.829 152.8467
145.629868 92.790 152.8298
146.685165 92.755 152.8101
147.748108 92.720 152.7911
148.818756 92.681 152.8023
149.897156 92.641 152.8572
150.983368 92.603 152.9423
152.077454 92.566 152.9969
153.179474 92.523 152.9847
154.289474 92.471 152.9677
155.407516 92.417 152.9892
156.533661 92.369 153.0262
157.667969 92.329 153.0525
158.810501 92.298 153.0523
159.961304 92.271 153.0274
161.120453 92.242 152.9943
162.287994 92.209 152.9709
163.464005 92.172 152.9702
164.648529 92.131 152.9846
165.841644 92.090 152.9955
167.043396 92.048 152.9999
168.253860 92.006 153.0097
169.473099 91.964 153.0363
170.701172 91.923 153.0831
171.938141 91.884 153.1473
173.184082 91.845 153.2192
174.439041 91.807 153.2904
175.703094 91.770 153.3564
176.976318 91.734 153.4172
178.258759 91.698 153.4789
179.550491 91.663 153.5431
180.851593 91.629 153.6049
182.162125 91.596 153.6567
183.482147 91.561 153.6954
184.811737 91.526 153.7274
186.150955 91.491 153.7668
187.499878 91.456 153.8208
188.858582 91.422 153.8803
190.227127 91.388 153.9364
191.605591 91.355 153.9862
192.994049 91.321 154.0310
194.392563 91.284 154.0806
195.801208 91.245 154.1553
197.220062 91.202 154.2628
198.649200 91.156 154.3998
200.088699 91.111 154.5627
201.538620 91.069 154.7248
202.999054 91.033 154.8354
204.470062 91.001 154.8936
205.951736 90.970 154.9371
207.444153 90.940 154.9862
208.947372 90.912 155.0436
210.461487 90.882 155.1064
211.986572 90.849 155.1721
213.522720 90.812 155.2413
215.069992 90.772 155.3229
216.628479 90.729 155.4323
218.198257 90.687 155.5773
219.779419 90.649 155.7374
221.372025 90.615 155.8870
222.976181 90.584 156.0212
224.591965 90.555 156.1424
226.219452 90.526 156.2567
227.858734 90.497 156.3698
229.509888 90.467 156.4839
231.173004 90.436 156.6001
232.848175 90.405 156.7173
234.535492 90.374 156.8354
236.235031 90.344 156.9549
237.946884 90.315 157.0737
239.671143 90.284 157.1862
241.407898 90.253 157.2903
243.157242 90.220 157.3897
244.919266 90.185 157.4911
246.694046 90.149 157.6005
248.481689 90.111 157.7241
250.282288 90.072 157.8683
252.095932 90.034 158.0408
253.922729 89.997 158.2482
255.762756 89.965 158.4855
257.616119 89.940 158.7250
259.482910 89.922 158.9276
261.363220 89.905 159.0757
263.257172 89.886 159.1856
265.164856 89.863 159.2862
267.086365 89.834 159.3985
269.021790 89.802 159.5305
270.971222 89.769 159.6821
272.934784 89.735 159.8511
274.912567 89.704 160.0307
276.904694 89.676 160.2162
278.911255 89.649 160.4078
280.932373 89.625 160.6078
282.968140 89.603 160.8189
285.018646 89.584 161.0348
287.084015 89.570 161.2346
289.164337 89.559 161.3911
291.259735 89.547 161.4913
293.370331 89.530 161.5532
295.496216 89.506 161.6140
297.637512 89.477 161.7003
299.794312 89.445 161.8157
301.966736 89.413 161.9523
304.154907 89.383 162.1028
306.358948 89.354 162.2632
308.578949 89.327 162.4290
310.815033 89.301 162.5930
313.067322 89.275 162.7458
315.335938 89.248 162.8848
317.621002 89.218 163.0222
319.922607 89.186 163.1790
322.240906 89.154 163.3643
324.575989 89.124 163.5706
326.928009 89.096 163.7852
329.297058 89.070 163.9991
331.683289 89.046 164.2097
334.086792 89.023 164.4159
336.507721 89.002 164.6147
338.946198 88.981 164.8024
341.402344 88.960 164.9792
343.876282 88.936 165.1544
346.368164 88.911 165.3362
348.878082 88.887 165.5276
351.406189 88.862 165.7272
353.952637 88.838 165.9323
356.517517 88.815 166.1407
359.100983 88.791 166.3506
361.703186 88.768 166.5603
364.324249 88.746 166.7685
366.964294 88.723 166.9761
369.623474 88.701 167.1847
372.301910 88.679 167.3962
374.999756 88.657 167.6124
377.717163 88.635 167.8323
380.454254 88.614 168.0540
383.211182 88.594 168.2769
385.988098 88.574 168.5012
388.785126 88.554 168.7268
391.602417 88.534 168.9546
394.440125 88.513 169.1865
397.298401 88.494 169.4235
400.177399 88.475 169.6651
403.077240 88.458 169.9074
405.998108 88.441 170.1417
408.940125 88.425 170.3615
411.903473 88.408 170.5718
414.888306 88.389 170.7847
417.894745 88.369 171.0087
420.922974 88.348 171.2487
423.973145 88.327 171.5104
427.045441 88.308 171.7946
430.139984 88.293 172.0892
433.256958 88.281 172.3714
436.396515 88.271 172.6308
439.558838 88.260 172.8809
442.744049 88.249 173.1385
445.952362 88.240 173.4083
449.183929 88.235 173.6792
452.438904 88.233 173.9240
455.717468 88.233 174.1128
459.019775 88.227 174.2460
462.346008 88.213 174.3679
465.696350 88.192 174.5231
469.070984 88.169 174.7212
472.470062 88.146 174.9521
475.893768 88.126 175.2062
479.342285 88.110 175.4711
482.815796 88.097 175.7209
486.314484 88.083 175.9346
489.838531 88.065 176.1300
493.388092 88.040 176.3608
496.963379 88.016 176.6534
500.564575 87.997 176.9792
504.191864 87.984 177.2996
507.845459 87.974 177.5948
511.525513 87.965 177.8639
515.232239 87.954 178.1175
518.965820 87.941 178.3652
522.726440 87.925 178.6157
526.514343 87.907 178.8862
530.329712 87.889 179.1946
534.172729 87.876 179.5263
538.043579 87.865 179.8430
541.942444 87.856 -179.8643
545.869568 87.844 -179.5687
549.825134 87.833 -179.2508
553.809387 87.824 -178.9215
557.822510 87.818 -178.5999
561.864746 87.813 -178.2970
565.936279 87.807 -178.0122
570.037292 87.799 -177.7316
574.168030 87.788 -177.4379
578.328674 87.778 -177.1246
582.519470 87.769 -176.8082
586.740662 87.761 -176.5068
590.992432 87.750 -176.2055
595.275024 87.738 -175.8731
599.588623 87.729 -175.5108
603.933472 87.724 -175.1459
608.309814 87.722 -174.7951
612.717896 87.720 -174.4644
617.157898 87.715 -174.1528
621.630066 87.707 -173.8402
626.134644 87.695 -173.4915
630.671875 87.685 -173.0865
635.242004 87.682 -172.6574
639.845215 87.683 -172.2551
644.481812 87.684 -171.8758
649.151978 87.684 -171.4807
653.856018 87.686 -171.0509
658.594116 87.695 -170.6001
663.366577 87.713 -170.1734
668.173584 87.734 -169.8192
673.015442 87.752 -169.5266
677.892395 87.763 -169.2450
682.804688 87.771 -168.9487
687.752563 87.776 -168.6439
692.736328 87.778 -168.3360
697.756165 87.778 -168.0062
702.812378 87.779 -167.6412
707.905273 87.782 -167.2543
713.035034 87.789 -166.8685
718.201965 87.797 -166.4959
723.406372 87.805 -166.1289
728.648499 87.813 -165.7559
733.928589 87.821 -165.3748
739.246948 87.830 -164.9876
744.603821 87.839 -164.5950
749.999512 87.849 -164.1957
755.434326 87.860 -163.7894
760.908508 87.872 -163.3768
766.422363 87.885 -162.9582
771.976196 87.900 -162.5334
777.570251 87.917 -162.1062
783.204834 87.936 -161.6858
788.880249 87.955 -161.2757
794.596802 87.972 -160.8595
800.354797 87.990 -160.4145
806.154480 88.010 -159.9361
811.996216 88.037 -159.4439
817.880249 88.070 -158.9545
823.806946 88.111 -158.4805
829.776611 88.157 -158.0580
835.789490 88.203 -157.7139
841.845947 88.241 -157.4106
847.946289 88.274 -157.0933
854.090881 88.305 -156.7484
860.279968 88.336 -156.4010
866.513916 88.366 -156.0621
872.793030 88.393 -155.6956
879.117676 88.423 -155.2925
885.488098 88.458 -154.8887
891.904724 88.496 -154.5091
898.367859 88.532 -154.1456
904.877808 88.567 -153.7707
911.434937 88.604 -153.3735
918.039551 88.643 -152.9727
924.692017 88.685 -152.5713
931.392700 88.730 -152.1704
938.141968 88.778 -151.7878
944.940125 88.828 -151.4315
951.787537 88.876 -151.0887
958.684570 88.924 -150.7508
965.631592 88.971 -150.4191
972.628967 89.017 -150.0778
979.677063 89.065 -149.7254
986.776184 89.116 -149.3851
993.926758 89.166 -149.0688
1001.129150 89.212 -148.7500
1008.383728 89.258 -148.3935
1015.690918 89.308 -148.0122
1023.051025 89.361 -147.6227
1030.464478 89.419 -147.2130
1037.931641 89.488 -146.8044
1045.452881 89.564 -146.4592
1053.028687 89.640 -146.1958
1060.659424 89.712 -145.9805
1068.345459 89.777 -145.7827
1076.087158 89.838 -145.5738
1083.884888 89.898 -145.3391
1091.739136 89.959 -145.0935
1099.650269 90.022 -144.8536
1107.618774 90.086 -144.6201
1115.645020 90.151 -144.3928
1123.729492 90.217 -144.1743
1131.872559 90.284 -143.9669
1140.074585 90.351 -143.7730
1148.336060 90.419 -143.5938
1156.657349 90.486 -143.4314
1165.038940 90.551 -143.2861
1173.481323 90.613 -143.1378
1181.984863 90.674 -142.9592
1190.550049 90.739 -142.7516
1199.177246 90.812 -142.5452
1207.866943 90.891 -142.3916
1216.619629 90.970 -142.3190
1225.435791 91.042 -142.2919
1234.315796 91.108 -142.2768
1243.260132 91.169 -142.2661
1252.269287 91.226 -142.2371
1261.343750 91.281 -142.1893
1270.484009 91.336 -142.1463
1279.690430 91.388 -142.1060
1288.963623 91.438 -142.0483
1298.303955 91.487 -141.9723
1307.712036 91.539 -141.8846
1317.188232 91.592 -141.8027
1326.733154 91.645 -141.7381
1336.347168 91.696 -141.6849
1346.030884 91.745 -141.6329
1355.784790 91.791 -141.5700
1365.609375 91.836 -141.5038
1375.505127 91.878 -141.4343
1385.472656 91.916 -141.3291
1395.512329 91.955 -141.1719
1405.624756 92.000 -140.9637
1415.810547 92.054 -140.7298
1426.070068 92.119 -140.5362
1436.403931 92.186 -140.4121
1446.812744 92.251 -140.3370
1457.296997 92.310 -140.2737
1467.857178 92.367 -140.2042
1478.493896 92.423 -140.1341
1489.207642 92.478 -140.0658
1499.999023 92.531 -139.9961
1510.868652 92.584 -139.9204
1521.817017 92.635 -139.8352
1532.844727 92.686 -139.7405
1543.952393 92.736 -139.6348
1555.140503 92.786 -139.4986
1566.409668 92.840 -139.3146
1577.760498 92.904 -139.1097
1589.193604 92.978 -138.9483
1600.709595 93.055 -138.8613
1612.308960 93.129 -138.8280
1623.992432 93.198 -138.8220
1635.760498 93.262 -138.8167
1647.613892 93.325 -138.8125
1659.553223 93.384 -138.8086
1671.578979 93.442 -138.7910
1683.691895 93.500 -138.7575
1695.892578 93.560 -138.7226
1708.181763 93.621 -138.7027
1720.559937 93.680 -138.6992
1733.027832 93.738 -138.7033
1745.586060 93.791 -138.7121
1758.235352 93.840 -138.7100
1770.976196 93.886 -138.6602
1783.809448 93.934 -138.5439
1796.735718 93.992 -138.3866
1809.755615 94.061 -138.2563
1822.869873 94.134 -138.1853
1836.079102 94.205 -138.1572
1849.384033 94.275 -138.1503
1862.785400 94.342 -138.1592
1876.283936 94.407 -138.1798
1889.880249 94.469 -138.2048
1903.575073 94.528 -138.2266
1917.369141 94.583 -138.2371
1931.263184 94.635 -138.2155
1945.257935 94.689 -138.1343
1959.354126 94.751 -138.0118
1973.552368 94.824 -137.9114
1987.853516 94.900 -137.8639
2002.258301 94.976 -137.8596
2016.767456 95.049 -137.8740
2031.381836 95.120 -137.8975
2046.102051 95.189 -137.9176
2060.928955 95.258 -137.9239
2075.863281 95.330 -137.9279
2090.905762 95.404 -137.9532
2106.057373 95.478 -138.0124
2121.318848 95.548 -138.1047
2136.690918 95.610 -138.2113
2152.174316 95.663 -138.2818
2167.769775 95.715 -138.2769
2183.478271 95.772 -138.2162
2199.300537 95.834 -138.1457
2215.237549 95.899 -138.0716
2231.290039 95.966 -137.9757
2247.458984 96.037 -137.8494
2263.745117 96.114 -137.6944
2280.149170 96.199 -137.5196
2296.672119 96.294 -137.3386
2313.314697 96.398 -137.1543
2330.077881 96.515 -136.9673
2346.962646 96.649 -136.8265
2363.969727 96.795 -136.7947
2381.100098 96.945 -136.8864
2398.354492 97.093 -137.0771
2415.733887 97.236 -137.3381
2433.239258 97.376 -137.6387
2450.871582 97.516 -137.9680
2468.631592 97.658 -138.3480
2486.520264 97.802 -138.8099
2504.538574 97.942 -139.3725
2522.687500 98.072 -140.0204
2540.968018 98.191 -140.7049
2559.380859 98.304 -141.4038
2577.927246 98.413 -142.1466
2596.607910 98.516 -142.9511
2615.424072 98.607 -143.8070
2634.376465 98.686 -144.6980
2653.466309 98.751 -145.6055
2672.694336 98.801 -146.5061
2692.061768 98.837 -147.3633
2711.569580 98.865 -148.1374
2731.218750 98.895 -148.8434
2751.010254 98.928 -149.5349
2770.945312 98.963 -150.2475
2791.024658 98.996 -150.9909
2811.249512 99.022 -151.7536
2831.621094 99.042 -152.5182
2852.140137 99.056 -153.2865
2872.807861 99.064 -154.0700
2893.625488 99.060 -154.8667
2914.593994 99.043 -155.6315
2935.714355 99.015 -156.3087
2956.987793 98.985 -156.9003
2978.415283 98.958 -157.4410
2999.998047 98.933 -157.9567
3021.737305 98.909 -158.4645
3043.634033 98.881 -158.9691
3065.689453 98.847 -159.4532
3087.904785 98.806 -159.8702
3110.281006 98.767 -160.1967
3132.819336 98.736 -160.4645
3155.520996 98.712 -160.7162
3178.387207 98.695 -160.9782
3201.419189 98.680 -161.2522
3224.617920 98.667 -161.5360
3247.984863 98.656 -161.8453
3271.520996 98.641 -162.1948
3295.227783 98.616 -162.5555
3319.106445 98.583 -162.8633
3343.157959 98.548 -163.0972
3367.383789 98.517 -163.2783
3391.785156 98.492 -163.4384
3416.363525 98.470 -163.6071
3441.119873 98.447 -163.7929
3466.055664 98.418 -163.9598
3491.172119 98.388 -164.0599
3516.470703 98.362 -164.0956
3541.952393 98.344 -164.1008
3567.618896 98.334 -164.1050
3593.471436 98.331 -164.1156
3619.511230 98.333 -164.1444
3645.739746 98.339 -164.2226
3672.158203 98.342 -164.3577
3698.768066 98.336 -164.4949
3725.570801 98.325 -164.5861
3752.567871 98.315 -164.6285
3779.760498 98.310 -164.6475
3807.150146 98.308 -164.6748
3834.738281 98.303 -164.7144
3862.526367 98.295 -164.7165
3890.515869 98.286 -164.6410
3918.708252 98.287 -164.4971
3947.104736 98.298 -164.3186
3975.707031 98.323 -164.1287
4004.516602 98.361 -163.9543
4033.534912 98.411 -163.8449
4062.763672 98.464 -163.8204
4092.204102 98.516 -163.8364
4121.857910 98.568 -163.8558
4151.726562 98.627 -163.8837
4181.811523 98.692 -163.9591
4212.114746 98.759 -164.1157
4242.637695 98.821 -164.3260
4273.381836 98.877 -164.5357
4304.348633 98.934 -164.7264
4335.539551 98.996 -164.9111
4366.956543 99.066 -165.1039
4398.601074 99.145 -165.3374
4430.475098 99.232 -165.6669
4462.580078 99.317 -166.0974
4494.917969 99.397 -166.5881
4527.490234 99.476 -167.1173
4560.298340 99.556 -167.7090
4593.344238 99.634 -168.4064
4626.629395 99.701 -169.2031
4660.155762 99.753 -170.0466
4693.925293 99.794 -170.8997
4727.939453 99.827 -171.7512
4762.200195 99.855 -172.5988
4796.708984 99.883 -173.4740
4831.467773 99.906 -174.4204
4866.478516 99.918 -175.4245
4901.743164 99.917 -176.4462
4937.263184 99.908 -177.4754
4973.040527 99.891 -178.5462
5009.077148 99.860 -179.6736
5045.375000 99.809 179.1834
5081.936035 99.738 178.0742
5118.761719 99.651 177.0312
5155.854492 99.553 176.0724
5193.215820 99.451 175.1705
5230.848145 99.343 174.2888
5268.752930 99.224 173.4406
5306.932617 99.096 172.6577
5345.388672 98.963 171.9339
5384.123535 98.824 171.2327
5423.139160 98.674 170.5581
5462.437500 98.510 169.9515
5502.020508 98.333 169.4562
5541.890625 98.149 169.1081
5582.049316 97.967 168.8949
5622.499023 97.788 168.7779
5663.242188 97.612 168.7548
5704.280273 97.442 168.8413
5745.615723 97.283 169.0109
5787.250977 97.135 169.2117
5829.187988 96.992 169.4263
5871.428711 96.852 169.6674
5913.975586 96.713 169.9625
5956.830566 96.579 170.3245
5999.996094 96.452 170.7271
6043.474609 96.330 171.1605
6087.268066 96.212 171.6463
6131.378906 96.103 172.1839
6175.809570 96.002 172.7396
6220.562012 95.907 173.2993
6265.638672 95.814 173.8788
6311.041992 95.723 174.5137
6356.774414 95.639 175.2202
6402.838379 95.564 175.9828
6449.235840 95.500 176.7970
6495.969727 95.449 177.6666
6543.041992 95.416 178.5627
6590.455566 95.397 179.4472
6638.212891 95.391 -179.6926
6686.315918 95.393 -178.8374
6734.767578 95.405 -177.9626
6783.570312 95.431 -177.0730
6832.727051 95.472 -176.1717
6882.239746 95.531 -175.2555
6932.111328 95.613 -174.3567
6982.344238 95.718 -173.5249
7032.941406 95.842 -172.7883
7083.904785 95.982 -172.1403
7135.237793 96.138 -171.5743
7186.942871 96.311 -171.1039
7239.022461 96.503 -170.7313
7291.479492 96.718 -170.4712
7344.316406 96.959 -170.3841
7397.536133 97.221 -170.5388
7451.141602 97.497 -170.9729
7505.135742 97.781 -171.6950
7559.520996 98.070 -172.7307
7614.300293 98.356 -174.0989
7669.476562 98.634 -175.8058
7725.052734 98.901 -177.8924
7781.031738 99.144 179.5867
7837.416504 99.342 176.6208
7894.209473 99.478 173.2665
7951.414062 99.535 169.6043
8009.033203 99.502 165.7519
8067.069824 99.374 161.8635
8125.527344 99.157 158.0634
8184.408203 98.856 154.4326
8243.715820 98.478 151.0511
8303.453125 98.028 148.0090
8363.623047 97.519 145.3702
8424.229492 96.961 143.2001
8485.275391 96.372 141.5505
8546.763672 95.771 140.4038
8608.697266 95.173 139.6861
8671.079102 94.584 139.3361
8733.913086 94.008 139.3027
8797.202148 93.443 139.5570
8860.950195 92.890 140.1151
8925.160156 92.356 140.9752
8989.835938 91.849 142.0815
9054.980469 91.370 143.3747
9120.596680 90.918 144.8069
9186.688477 90.488 146.3481
9253.258789 90.075 148.0227
9320.311523 89.682 149.8596
9387.850586 89.315 151.8356
9455.878906 88.976 153.9087
9524.400391 88.664 156.0292
9593.417969 88.372 158.1652
9662.935547 88.095 160.3505
9732.957031 87.834 162.6308
9803.486328 87.594 165.0036
9874.526367 87.380 167.4387
9946.081055 87.189 169.8792
10018.154297 87.016 172.3074
10090.750000 86.855 174.7740
10163.872070 86.711 177.3189
10237.523438 86.590 179.9409
10311.708984 86.495 -177.4066
10386.431641 86.425 -174.7815
10461.696289 86.371 -172.1680
10537.505859 86.333 -169.5132
10613.865234 86.318 -166.7929
10690.777344 86.332 -164.0310
10768.247070 86.376 -161.2936
10846.278320 86.444 -158.5952
10924.875000 86.534 -155.8919
11004.041016 86.652 -153.1484
11083.781250 86.808 -150.3764
11164.098633 87.006 -147.6495
11244.998047 87.243 -145.0115
11326.484375 87.517 -142.4492
11408.560547 87.836 -139.9458
11491.231445 88.210 -137.5333
11574.501953 88.642 -135.3119
11658.375977 89.132 -133.3614
11742.857422 89.680 -131.7217
11827.951172 90.292 -130.4372
11913.661133 90.975 -129.6293
11999.992188 91.726 -129.4963
12086.949219 92.526 -130.2285
12174.536133 93.351 -131.9871
12262.757812 94.168 -134.9088
12351.619141 94.927 -139.1141
12441.124023 95.562 -144.6143
12531.277344 96.004 -151.2168
12622.083984 96.198 -158.5109
12713.548828 96.123 -165.9565
12805.676758 95.788 -173.0186
12898.471680 95.232 -179.2478
12991.939453 94.507 175.6719
13086.083984 93.678 171.9053
13180.911133 92.811 169.4298
13276.425781 91.959 168.0784
13372.631836 91.153 167.6396
13469.535156 90.409 167.9532
13567.140625 89.739 168.8748
13665.454102 89.149 170.2382
13764.479492 88.638 171.8920
13864.222656 88.197 173.7736
13964.688477 87.826 175.8552
14065.882812 87.529 178.0681
14167.809570 87.304 -179.6804
14270.475586 87.146 -177.4200
14373.885742 87.058 -175.1622
14478.044922 87.048 -172.9743
14582.958984 87.114 -170.9504
14688.632812 87.259 -169.1313
14795.072266 87.491 -167.5717
14902.283203 87.823 -166.4162
15010.271484 88.258 -165.8669
15119.041992 88.796 -166.1535
15228.600586 89.422 -167.5848
15338.953125 90.093 -170.5276
15450.105469 90.728 -175.2564
15562.063477 91.222 178.1954
15674.833008 91.464 170.1225
15788.418945 91.366 161.1554
15902.828125 90.890 152.1579
16018.066406 90.059 144.0004
16134.139648 88.953 137.3087
16251.054688 87.673 132.3442
16368.816406 86.318 129.0746
16487.431641 84.965 127.2997
16606.906250 83.671 126.7056
16727.246094 82.461 126.9632
16848.458984 81.339 127.8370
16970.550781 80.305 129.1490
17093.527344 79.351 130.7316
17217.394531 78.467 132.4843
17342.158203 77.642 134.3564
17467.826172 76.872 136.2703
17594.404297 76.147 138.1644
17721.900391 75.459 140.0261
17850.320312 74.803 141.8159
17979.671875 74.171 143.4796
18109.960938 73.552 145.0160
18241.193359 72.940 146.4265
18373.376953 72.325 147.6906
18506.517578 71.696 148.8447
18640.623047 71.044 149.9541
18775.701172 70.362 151.0587
18911.757812 69.644 152.2325
19048.800781 68.888 153.5742
19186.835938 68.092 155.1631
19325.871094 67.260 157.0874
19465.914062 66.403 159.4283
19606.972656 65.543 162.2269
19749.052734 64.733 165.4388
19892.162109 64.078 168.7343
20036.308594 63.717 171.1282
