* Measurement data measured by REW V5.30.9
* Source: EXCL: Microphone (USB Sound Device        ), MICROPHONE (Master Volume), L, volume: 0.560
* Format: 256k Log Swept Sine, 1 sweep at -10.0 dBFS with no timing reference
* Dated: Mar 9, 2024 4:11:55 PM
* REW Settings:
*  C-weighting compensation: Off
*  Target level: 75.0 dB
* Note: Tigerism Helianthus R
* Measurement: R Tigerism Helianthus
* Smoothing: 1/12 octave
* Frequency Step: 96 ppo
* Start Frequency: 0.36621094 Hz
*
* Freq(Hz) SPL(dB) Phase(degrees)
0.366211 81.660 158.7312
0.368865 81.653 158.7084
0.371538 81.644 158.6741
0.374230 81.632 158.6312
0.376942 81.619 158.5816
0.379673 81.604 158.5272
0.382424 81.589 158.4689
0.385196 81.574 158.4075
0.387987 81.559 158.3432
0.390798 81.543 158.2763
0.393630 81.527 158.2068
0.396483 81.511 158.1349
0.399356 81.494 158.0605
0.402250 81.478 157.9837
0.405165 81.462 157.9043
0.408101 81.445 157.8224
0.411058 81.428 157.7379
0.414037 81.411 157.6508
0.417037 81.394 157.5612
0.420059 81.377 157.4689
0.423103 81.360 157.3740
0.426169 81.343 157.2763
0.429257 81.325 157.1760
0.432367 81.308 157.0730
0.435501 81.290 156.9671
0.438656 81.272 156.8585
0.441835 81.254 156.7471
0.445037 81.236 156.6329
0.448262 81.218 156.5158
0.451510 81.199 156.3959
0.454782 81.181 156.2730
0.458077 81.162 156.1472
0.461397 81.144 156.0185
0.464740 81.125 155.8869
0.468108 81.106 155.7522
0.471500 81.086 155.6146
0.474917 81.067 155.4739
0.478358 81.048 155.3302
0.481825 81.028 155.1834
0.485316 81.008 155.0336
0.488833 80.988 154.8807
0.492375 80.968 154.7247
0.495943 80.948 154.5656
0.499537 80.928 154.4033
0.503157 80.907 154.2379
0.506803 80.887 154.0694
0.510475 80.866 153.8978
0.514174 80.845 153.7230
0.517900 80.824 153.5450
0.521653 80.803 153.3639
0.525433 80.781 153.1796
0.529241 80.760 152.9922
0.533076 80.738 152.8016
0.536939 80.716 152.6078
0.540830 80.694 152.4109
0.544749 80.672 152.2109
0.548696 80.650 152.0078
0.552673 80.627 151.8016
0.556677 80.605 151.5922
0.560711 80.582 151.3799
0.564774 80.559 151.1644
0.568867 80.536 150.9460
0.572989 80.512 150.7246
0.577141 80.489 150.5003
0.581324 80.465 150.2730
0.585536 80.442 150.0429
0.589779 80.418 149.8099
0.594053 80.393 149.5742
0.598358 80.369 149.3358
0.602694 80.345 149.0947
0.607061 80.320 148.8510
0.611460 80.295 148.6048
0.615891 80.270 148.3562
0.620354 80.245 148.1051
0.624849 80.219 147.8518
0.629377 80.194 147.5963
0.633938 80.168 147.3387
0.638532 80.142 147.0791
0.643159 80.116 146.8176
0.647819 80.089 146.5544
0.652514 80.063 146.2895
0.657242 80.036 146.0231
0.662005 80.009 145.7554
0.666802 79.982 145.4864
0.671634 79.955 145.2164
0.676501 79.927 144.9454
0.681403 79.899 144.6738
0.686341 79.871 144.4016
0.691314 79.843 144.1291
0.696324 79.815 143.8563
0.701369 79.786 143.5836
0.706452 79.757 143.3109
0.711571 79.727 143.0384
0.716727 79.696 142.7660
0.721921 79.664 142.4935
0.727153 79.630 142.2203
0.732422 79.594 141.9456
0.737729 79.556 141.6685
0.743075 79.515 141.3877
0.748460 79.472 141.1025
0.753883 79.427 140.8119
0.759346 79.381 140.5156
0.764849 79.334 140.2130
0.770391 79.287 139.9039
0.775974 79.238 139.5881
0.781597 79.189 139.2655
0.787261 79.139 138.9359
0.792965 79.088 138.5992
0.798712 79.037 138.2553
0.804499 78.984 137.9041
0.810329 78.931 137.5455
0.816201 78.878 137.1794
0.822116 78.823 136.8056
0.828073 78.767 136.4242
0.834073 78.711 136.0349
0.840118 78.654 135.6378
0.846205 78.596 135.2328
0.852337 78.536 134.8197
0.858514 78.476 134.3985
0.864735 78.415 133.9691
0.871001 78.353 133.5315
0.877313 78.290 133.0856
0.883670 78.225 132.6314
0.890074 78.160 132.1689
0.896523 78.093 131.6980
0.903020 78.025 131.2186
0.909564 77.956 130.7310
0.916155 77.886 130.2349
0.922793 77.814 129.7305
0.929480 77.741 129.2179
0.936216 77.666 128.6970
0.943000 77.590 128.1679
0.949833 77.513 127.6309
0.956716 77.434 127.0859
0.963649 77.353 126.5332
0.970632 77.271 125.9729
0.977666 77.187 125.4052
0.984750 77.101 124.8304
0.991886 77.014 124.2487
0.999074 76.925 123.6604
1.006313 76.834 123.0659
1.013605 76.741 122.4655
1.020950 76.645 121.8597
1.028349 76.548 121.2489
1.035801 76.449 120.6336
1.043306 76.348 120.0143
1.050867 76.244 119.3915
1.058482 76.138 118.7659
1.066152 76.029 118.1379
1.073878 75.918 117.5079
1.081659 75.804 116.8761
1.089498 75.686 116.2423
1.097393 75.564 115.6059
1.105345 75.438 114.9659
1.113355 75.307 114.3208
1.121422 75.170 113.6692
1.129549 75.028 113.0097
1.137734 74.879 112.3409
1.145978 74.724 111.6615
1.154283 74.563 110.9703
1.162647 74.397 110.2662
1.171072 74.225 109.5478
1.179558 74.047 108.8138
1.188106 73.865 108.0629
1.196715 73.678 107.2936
1.205387 73.487 106.5045
1.214122 73.292 105.6937
1.222920 73.093 104.8596
1.231781 72.891 104.0003
1.240708 72.687 103.1137
1.249698 72.480 102.1976
1.258754 72.271 101.2498
1.267875 72.061 100.2678
1.277063 71.850 99.2488
1.286317 71.639 98.1902
1.295638 71.428 97.0889
1.305027 71.218 95.9417
1.314484 71.009 94.7453
1.324009 70.802 93.4963
1.333603 70.598 92.1908
1.343267 70.398 90.8253
1.353001 70.202 89.3957
1.362805 70.010 87.8982
1.372681 69.824 86.3288
1.382628 69.645 84.6837
1.392647 69.473 82.9593
1.402739 69.310 81.1522
1.412904 69.155 79.2593
1.423142 69.011 77.2780
1.433455 68.877 75.2061
1.443842 68.754 73.0414
1.454305 68.643 70.7817
1.464843 68.544 68.4243
1.475458 68.456 65.9654
1.486150 68.380 63.4011
1.496919 68.314 60.7271
1.507766 68.258 57.9403
1.518692 68.212 55.0389
1.529697 68.175 52.0231
1.540782 68.148 48.8955
1.551947 68.129 45.6614
1.563193 68.120 42.3287
1.574521 68.119 38.9084
1.585931 68.126 35.4146
1.597423 68.142 31.8640
1.608998 68.165 28.2755
1.620658 68.196 24.6700
1.632402 68.235 21.0692
1.644231 68.280 17.4949
1.656146 68.333 13.9683
1.668147 68.391 10.5089
1.680235 68.456 7.1343
1.692410 68.527 3.8593
1.704674 68.603 0.6959
1.717027 68.684 -2.3469
1.729469 68.769 -5.2629
1.742002 68.859 -8.0485
1.754625 68.953 -10.7027
1.767340 69.051 -13.2265
1.780147 69.152 -15.6231
1.793046 69.257 -17.8975
1.806040 69.365 -20.0566
1.819127 69.479 -22.1094
1.832309 69.599 -24.0663
1.845587 69.726 -25.9384
1.858961 69.862 -27.7364
1.872431 70.008 -29.4688
1.886000 70.164 -31.1423
1.899666 70.330 -32.7618
1.913432 70.506 -34.3305
1.927298 70.691 -35.8508
1.941264 70.884 -37.3244
1.955331 71.084 -38.7525
1.969500 71.291 -40.1359
1.983772 71.504 -41.4751
1.998147 71.721 -42.7707
2.012626 71.941 -44.0228
2.027211 72.163 -45.2316
2.041901 72.386 -46.3972
2.056697 72.609 -47.5196
2.071601 72.830 -48.5986
2.086613 73.048 -49.6343
2.101733 73.262 -50.6264
2.116963 73.471 -51.5752
2.132303 73.673 -52.4809
2.147755 73.867 -53.3445
2.163318 74.053 -54.1675
2.178995 74.230 -54.9525
2.194785 74.399 -55.7032
2.210689 74.559 -56.4242
2.226709 74.711 -57.1202
2.242844 74.857 -57.7953
2.259097 74.996 -58.4526
2.275467 75.130 -59.0939
2.291956 75.258 -59.7203
2.308565 75.382 -60.3324
2.325294 75.501 -60.9301
2.342144 75.616 -61.5132
2.359116 75.728 -62.0812
2.376211 75.836 -62.6334
2.393430 75.942 -63.1691
2.410774 76.045 -63.6875
2.428243 76.145 -64.1875
2.445839 76.245 -64.6682
2.463562 76.342 -65.1285
2.481415 76.439 -65.5675
2.499396 76.536 -65.9842
2.517508 76.631 -66.3779
2.535750 76.727 -66.7484
2.554126 76.822 -67.0957
2.572634 76.915 -67.4205
2.591276 77.008 -67.7241
2.610054 77.098 -68.0077
2.628967 77.186 -68.2728
2.648018 77.272 -68.5208
2.667206 77.356 -68.7527
2.686534 77.438 -68.9696
2.706002 77.518 -69.1725
2.725610 77.596 -69.3623
2.745361 77.674 -69.5396
2.765255 77.750 -69.7053
2.785294 77.826 -69.8600
2.805477 77.902 -70.0042
2.825807 77.978 -70.1386
2.846284 78.055 -70.2634
2.866909 78.133 -70.3787
2.887684 78.212 -70.4846
2.908609 78.292 -70.5806
2.929686 78.373 -70.6659
2.950916 78.455 -70.7398
2.972299 78.538 -70.8017
2.993838 78.621 -70.8515
3.015532 78.705 -70.8896
3.037384 78.790 -70.9172
3.059394 78.875 -70.9357
3.081564 78.960 -70.9466
3.103894 79.046 -70.9519
3.126386 79.132 -70.9533
3.149041 79.219 -70.9527
3.171861 79.307 -70.9518
3.194845 79.396 -70.9523
3.217996 79.486 -70.9555
3.241315 79.577 -70.9622
3.264803 79.670 -70.9727
3.288461 79.764 -70.9867
3.312291 79.859 -71.0032
3.336293 79.956 -71.0210
3.360469 80.054 -71.0395
3.384820 80.154 -71.0587
3.409348 80.255 -71.0793
3.434054 80.356 -71.1025
3.458938 80.459 -71.1299
3.484003 80.562 -71.1632
3.509250 80.666 -71.2043
3.534679 80.770 -71.2550
3.560293 80.874 -71.3171
3.586092 80.978 -71.3920
3.612079 81.082 -71.4809
3.638253 81.185 -71.5845
3.664618 81.288 -71.7028
3.691173 81.392 -71.8354
3.717921 81.495 -71.9813
3.744862 81.598 -72.1398
3.771999 81.700 -72.3101
3.799332 81.803 -72.4914
3.826864 81.905 -72.6832
3.854595 82.006 -72.8852
3.882527 82.107 -73.0971
3.910661 82.207 -73.3186
3.938999 82.305 -73.5499
3.967543 82.402 -73.7910
3.996294 82.497 -74.0422
4.025252 82.591 -74.3038
4.054421 82.682 -74.5764
4.083801 82.773 -74.8600
4.113394 82.861 -75.1543
4.143201 82.948 -75.4585
4.173225 83.033 -75.7717
4.203466 83.116 -76.0924
4.233926 83.198 -76.4194
4.264606 83.278 -76.7513
4.295509 83.356 -77.0870
4.326636 83.432 -77.4257
4.357989 83.506 -77.7672
4.389569 83.579 -78.1115
4.421378 83.649 -78.4593
4.453417 83.716 -78.8109
4.485688 83.782 -79.1665
4.518193 83.845 -79.5257
4.550934 83.907 -79.8874
4.583912 83.966 -80.2503
4.617129 84.024 -80.6127
4.650587 84.080 -80.9732
4.684287 84.135 -81.3304
4.718231 84.188 -81.6832
4.752421 84.240 -82.0312
4.786859 84.290 -82.3745
4.821547 84.339 -82.7134
4.856485 84.386 -83.0484
4.891677 84.432 -83.3797
4.927125 84.476 -83.7071
4.962829 84.519 -84.0302
4.998791 84.562 -84.3486
5.035015 84.604 -84.6617
5.071500 84.646 -84.9688
5.108251 84.687 -85.2695
5.145267 84.728 -85.5635
5.182552 84.769 -85.8508
5.220107 84.810 -86.1318
5.257934 84.851 -86.4073
5.296035 84.891 -86.6781
5.334412 84.932 -86.9451
5.373067 84.973 -87.2093
5.412003 85.015 -87.4714
5.451221 85.057 -87.7318
5.490722 85.101 -87.9908
5.530510 85.145 -88.2484
5.570587 85.190 -88.5048
5.610953 85.236 -88.7606
5.651613 85.283 -89.0167
5.692567 85.330 -89.2745
5.733818 85.379 -89.5354
5.775367 85.428 -89.8007
5.817218 85.478 -90.0716
5.859372 85.529 -90.3487
5.901831 85.581 -90.6323
5.944598 85.633 -90.9226
5.987675 85.687 -91.2197
6.031065 85.741 -91.5240
6.074768 85.795 -91.8363
6.118788 85.850 -92.1572
6.163127 85.905 -92.4875
6.207788 85.960 -92.8277
6.252772 86.015 -93.1782
6.298082 86.070 -93.5389
6.343721 86.125 -93.9095
6.389690 86.179 -94.2896
6.435992 86.234 -94.6784
6.482630 86.287 -95.0753
6.529606 86.340 -95.4799
6.576922 86.392 -95.8920
6.624581 86.444 -96.3114
6.672585 86.494 -96.7378
6.720938 86.544 -97.1706
6.769640 86.592 -97.6088
6.818696 86.640 -98.0512
6.868107 86.687 -98.4967
6.917876 86.732 -98.9442
6.968006 86.777 -99.3930
7.018499 86.821 -99.8427
7.069358 86.864 -100.2930
7.120586 86.906 -100.7432
7.172184 86.948 -101.1924
7.224157 86.989 -101.6397
7.276506 87.029 -102.0842
7.329235 87.069 -102.5252
7.382345 87.109 -102.9623
7.435841 87.148 -103.3956
7.489724 87.188 -103.8249
7.543997 87.227 -104.2503
7.598664 87.267 -104.6716
7.653728 87.307 -105.0889
7.709189 87.347 -105.5020
7.765053 87.389 -105.9111
7.821322 87.430 -106.3166
7.877998 87.473 -106.7189
7.935086 87.516 -107.1188
7.992587 87.560 -107.5168
8.050504 87.604 -107.9135
8.108841 87.650 -108.3093
8.167601 87.697 -108.7046
8.226787 87.744 -109.0998
8.286402 87.792 -109.4957
8.346449 87.841 -109.8927
8.406931 87.890 -110.2914
8.467851 87.940 -110.6922
8.529212 87.991 -111.0952
8.591018 88.042 -111.5005
8.653272 88.093 -111.9081
8.715977 88.144 -112.3180
8.779137 88.195 -112.7301
8.842754 88.246 -113.1443
8.906833 88.297 -113.5604
8.971375 88.348 -113.9780
9.036386 88.399 -114.3963
9.101867 88.449 -114.8150
9.167823 88.498 -115.2334
9.234257 88.548 -115.6512
9.301172 88.596 -116.0677
9.368572 88.644 -116.4825
9.436460 88.692 -116.8948
9.504841 88.738 -117.3040
9.573717 88.785 -117.7098
9.643092 88.831 -118.1118
9.712970 88.876 -118.5097
9.783354 88.921 -118.9032
9.854248 88.965 -119.2921
9.925656 89.010 -119.6762
9.997581 89.054 -120.0556
10.070028 89.097 -120.4302
10.143000 89.141 -120.8004
10.216500 89.184 -121.1662
10.290533 89.227 -121.5279
10.365103 89.270 -121.8857
10.440212 89.312 -122.2399
10.515866 89.355 -122.5909
10.592069 89.397 -122.9389
10.668823 89.439 -123.2842
10.746134 89.480 -123.6272
10.824005 89.522 -123.9679
10.902440 89.562 -124.3067
10.981443 89.603 -124.6438
11.061020 89.643 -124.9791
11.141172 89.682 -125.3130
11.221906 89.721 -125.6453
11.303225 89.759 -125.9762
11.385133 89.797 -126.3056
11.467634 89.833 -126.6336
11.550734 89.870 -126.9603
11.634435 89.905 -127.2856
11.718742 89.940 -127.6095
11.803661 89.974 -127.9321
11.889195 90.008 -128.2536
11.975349 90.040 -128.5740
12.062128 90.072 -128.8934
12.149535 90.104 -129.2119
12.237576 90.134 -129.5299
12.326254 90.164 -129.8473
12.415575 90.193 -130.1644
12.505544 90.222 -130.4814
12.596164 90.250 -130.7984
12.687441 90.277 -131.1155
12.779379 90.304 -131.4330
12.871984 90.330 -131.7508
12.965260 90.355 -132.0692
13.059211 90.379 -132.3882
13.153843 90.403 -132.7078
13.249161 90.426 -133.0281
13.345170 90.449 -133.3493
13.441875 90.471 -133.6713
13.539280 90.493 -133.9945
13.637391 90.514 -134.3188
13.736214 90.535 -134.6445
13.835752 90.555 -134.9717
13.936011 90.575 -135.3007
14.036998 90.594 -135.6318
14.138716 90.614 -135.9650
14.241171 90.633 -136.3008
14.344368 90.652 -136.6392
14.448313 90.670 -136.9804
14.553011 90.688 -137.3244
14.658468 90.706 -137.6714
14.764689 90.724 -138.0212
14.871680 90.741 -138.3736
14.979446 90.758 -138.7286
15.087994 90.775 -139.0857
15.197328 90.791 -139.4446
15.307454 90.807 -139.8050
15.418378 90.823 -140.1664
15.530106 90.839 -140.5286
15.642643 90.855 -140.8911
15.755996 90.870 -141.2536
15.870171 90.886 -141.6160
15.985172 90.901 -141.9779
16.101007 90.917 -142.3393
16.217682 90.933 -142.7001
16.335201 90.949 -143.0603
16.453573 90.966 -143.4198
16.572803 90.982 -143.7788
16.692898 90.999 -144.1371
16.813862 91.016 -144.4947
16.935701 91.033 -144.8515
17.058424 91.051 -145.2074
17.182035 91.068 -145.5621
17.306543 91.086 -145.9154
17.431953 91.104 -146.2670
17.558273 91.121 -146.6166
17.685509 91.139 -146.9639
17.813665 91.157 -147.3087
17.942751 91.174 -147.6506
18.072771 91.192 -147.9896
18.203733 91.209 -148.3254
18.335646 91.227 -148.6579
18.468513 91.244 -148.9872
18.602345 91.261 -149.3132
18.737144 91.277 -149.6359
18.872921 91.294 -149.9553
19.009682 91.310 -150.2715
19.147434 91.326 -150.5845
19.286184 91.342 -150.8942
19.425940 91.357 -151.2008
19.566708 91.371 -151.5042
19.708496 91.386 -151.8046
19.851313 91.399 -152.1021
19.995163 91.412 -152.3968
20.140057 91.425 -152.6890
20.285999 91.437 -152.9790
20.433001 91.449 -153.2670
20.581066 91.460 -153.5535
20.730206 91.470 -153.8388
20.880424 91.480 -154.1232
21.031733 91.490 -154.4070
21.184137 91.498 -154.6905
21.337646 91.506 -154.9738
21.492268 91.514 -155.2573
21.648010 91.521 -155.5409
21.804880 91.527 -155.8250
21.962887 91.533 -156.1095
22.122040 91.538 -156.3947
22.282345 91.542 -156.6806
22.443811 91.547 -156.9677
22.606449 91.551 -157.2560
22.770266 91.554 -157.5457
22.935268 91.558 -157.8370
23.101467 91.561 -158.1300
23.268869 91.563 -158.4249
23.437485 91.566 -158.7217
23.607323 91.569 -159.0204
23.778391 91.571 -159.3208
23.950699 91.573 -159.6227
24.124256 91.576 -159.9260
24.299070 91.578 -160.2303
24.475151 91.580 -160.5351
24.652508 91.582 -160.8402
24.831150 91.584 -161.1451
25.011087 91.586 -161.4493
25.192327 91.588 -161.7525
25.374882 91.591 -162.0544
25.558758 91.594 -162.3546
25.743967 91.596 -162.6531
25.930519 91.599 -162.9497
26.118422 91.603 -163.2446
26.307686 91.606 -163.5379
26.498322 91.610 -163.8295
26.690340 91.614 -164.1195
26.883749 91.618 -164.4079
27.078560 91.621 -164.6943
27.274782 91.625 -164.9785
27.472427 91.628 -165.2602
27.671503 91.630 -165.5389
27.872023 91.633 -165.8143
28.073996 91.635 -166.0861
28.277431 91.636 -166.3543
28.482342 91.637 -166.6191
28.688736 91.638 -166.8808
28.896626 91.639 -167.1399
29.106022 91.639 -167.3970
29.316936 91.639 -167.6526
29.529379 91.638 -167.9074
29.743361 91.638 -168.1618
29.958893 91.636 -168.4162
30.175987 91.634 -168.6708
30.394655 91.632 -168.9258
30.614908 91.629 -169.1814
30.836756 91.626 -169.4376
31.060211 91.622 -169.6944
31.285286 91.618 -169.9520
31.511992 91.613 -170.2104
31.740341 91.608 -170.4697
31.970345 91.603 -170.7299
32.202015 91.598 -170.9911
32.435364 91.592 -171.2533
32.670403 91.587 -171.5164
32.907146 91.581 -171.7804
33.145607 91.576 -172.0452
33.385796 91.570 -172.3106
33.627724 91.565 -172.5767
33.871403 91.559 -172.8433
34.116848 91.554 -173.1103
34.364071 91.549 -173.3773
34.613087 91.543 -173.6439
34.863907 91.537 -173.9095
35.116547 91.531 -174.1735
35.371017 91.525 -174.4353
35.627331 91.519 -174.6942
35.885502 91.512 -174.9502
36.145542 91.505 -175.2031
36.407467 91.498 -175.4532
36.671291 91.491 -175.7005
36.937027 91.484 -175.9454
37.204689 91.476 -176.1877
37.474289 91.468 -176.4275
37.745842 91.459 -176.6646
38.019363 91.451 -176.8991
38.294868 91.441 -177.1314
38.572369 91.432 -177.3619
38.851879 91.423 -177.5914
39.133415 91.413 -177.8204
39.416992 91.403 -178.0494
39.702625 91.392 -178.2786
39.990326 91.382 -178.5077
40.280113 91.371 -178.7368
40.571999 91.359 -178.9659
40.866001 91.348 -179.1951
41.162132 91.337 -179.4250
41.460411 91.325 -179.6562
41.760849 91.313 -179.8889
42.063465 91.302 179.8766
42.368275 91.289 179.6409
42.675293 91.277 179.4046
42.984535 91.264 179.1686
43.296021 91.251 178.9338
43.609760 91.237 178.7008
43.925774 91.223 178.4702
44.244080 91.209 178.2421
44.564690 91.195 178.0164
44.887623 91.181 177.7930
45.212898 91.167 177.5718
45.540531 91.152 177.3526
45.870537 91.138 177.1356
46.202934 91.123 176.9209
46.537739 91.109 176.7084
46.874969 91.094 176.4977
47.214645 91.079 176.2883
47.556782 91.064 176.0797
47.901398 91.049 175.8719
48.248512 91.034 175.6656
48.598141 91.018 175.4619
48.950302 91.002 175.2613
49.305016 90.986 175.0637
49.662300 90.970 174.8677
50.022175 90.954 174.6708
50.384655 90.938 174.4712
50.749763 90.922 174.2681
51.117516 90.905 174.0629
51.487934 90.886 173.8586
51.861038 90.867 173.6586
52.236843 90.847 173.4650
52.615372 90.827 173.2781
52.996643 90.807 173.0959
53.380680 90.788 172.9159
53.767498 90.770 172.7354
54.157120 90.752 172.5531
54.549564 90.734 172.3687
54.944855 90.717 172.1831
55.343006 90.699 171.9970
55.744045 90.682 171.8109
56.147991 90.665 171.6245
56.554863 90.648 171.4365
56.964684 90.631 171.2458
57.377472 90.615 171.0516
57.793251 90.598 170.8541
58.212044 90.580 170.6549
58.633873 90.561 170.4561
59.058758 90.541 170.2602
59.486721 90.520 170.0687
59.917786 90.498 169.8819
60.351974 90.476 169.6987
60.789310 90.454 169.5175
61.229816 90.432 169.3366
61.673512 90.409 169.1552
62.120422 90.385 168.9735
62.570572 90.361 168.7922
63.023983 90.337 168.6125
63.480682 90.312 168.4349
63.940689 90.287 168.2598
64.404030 90.263 168.0870
64.870728 90.238 167.9162
65.340805 90.213 167.7474
65.814293 90.189 167.5807
66.291214 90.164 167.4167
66.771591 90.139 167.2564
67.255447 90.114 167.1008
67.742805 90.089 166.9506
68.233696 90.064 166.8058
68.728142 90.039 166.6660
69.226173 90.014 166.5305
69.727814 89.989 166.3979
70.233093 89.965 166.2659
70.742035 89.941 166.1310
71.254662 89.918 165.9899
71.771004 89.894 165.8416
72.291084 89.869 165.6882
72.814934 89.843 165.5340
73.342583 89.817 165.3820
73.874054 89.791 165.2324
74.409378 89.765 165.0826
74.948578 89.739 164.9315
75.491684 89.712 164.7808
76.038727 89.684 164.6349
76.589737 89.655 164.4973
77.144737 89.627 164.3678
77.703758 89.599 164.2430
78.266830 89.572 164.1186
78.833984 89.545 163.9910
79.405251 89.518 163.8580
79.980652 89.490 163.7173
80.560226 89.462 163.5677
81.143997 89.433 163.4097
81.732002 89.402 163.2464
82.324265 89.369 163.0821
82.920822 89.334 162.9203
83.521698 89.298 162.7633
84.126930 89.261 162.6124
84.736549 89.223 162.4691
85.350586 89.184 162.3351
85.969070 89.144 162.2126
86.592041 89.104 162.1034
87.219521 89.063 162.0078
87.851547 89.023 161.9257
88.488159 88.983 161.8560
89.129379 88.943 161.7976
89.775246 88.905 161.7486
90.425797 88.868 161.7067
91.081062 88.831 161.6698
91.741074 88.796 161.6364
92.405869 88.762 161.6054
93.075478 88.729 161.5767
93.749939 88.697 161.5499
94.429291 88.666 161.5244
95.113564 88.636 161.4998
95.802795 88.606 161.4766
96.497025 88.576 161.4572
97.196281 88.546 161.4440
97.900604 88.516 161.4384
98.610031 88.487 161.4403
99.324600 88.459 161.4470
100.044350 88.433 161.4536
100.769310 88.407 161.4565
101.499527 88.382 161.4549
102.235031 88.357 161.4494
102.975868 88.335 161.4375
103.722076 88.313 161.4132
104.473686 88.294 161.3705
105.230743 88.275 161.3079
105.993286 88.256 161.2295
106.761360 88.236 161.1422
107.534996 88.216 161.0513
108.314240 88.195 160.9576
109.099129 88.174 160.8591
109.889709 88.151 160.7537
110.686012 88.126 160.6415
111.488091 88.097 160.5259
112.295982 88.064 160.4122
113.109726 88.027 160.3050
113.929367 87.988 160.2067
114.754944 87.949 160.1168
115.586502 87.910 160.0332
116.424088 87.874 159.9511
117.267746 87.840 159.8640
118.117516 87.808 159.7673
118.973442 87.775 159.6667
119.835571 87.739 159.5835
120.703949 87.702 159.5426
121.578621 87.666 159.5519
122.459633 87.634 159.5977
123.347023 87.605 159.6573
124.240845 87.578 159.7125
125.141144 87.551 159.7553
126.047966 87.524 159.7871
126.961365 87.494 159.8115
127.881378 87.462 159.8306
128.808060 87.430 159.8440
129.741455 87.396 159.8506
130.681610 87.361 159.8506
131.628586 87.325 159.8452
132.582428 87.290 159.8348
133.543182 87.256 159.8186
134.510895 87.223 159.7962
135.485611 87.190 159.7701
136.467392 87.158 159.7461
137.456284 87.126 159.7313
138.452347 87.092 159.7307
139.455627 87.059 159.7451
140.466187 87.025 159.7695
141.484070 86.992 159.7950
142.509323 86.959 159.8100
143.542007 86.925 159.8055
144.582169 86.889 159.7815
145.629868 86.852 159.7463
146.685165 86.813 159.7115
147.748108 86.773 159.6869
148.818756 86.733 159.6773
149.897156 86.692 159.6840
150.983368 86.651 159.7069
152.077454 86.611 159.7458
153.179474 86.570 159.7985
154.289474 86.529 159.8611
155.407516 86.488 159.9299
156.533661 86.449 160.0013
157.667969 86.411 160.0721
158.810501 86.374 160.1403
159.961304 86.340 160.2040
161.120453 86.309 160.2600
162.287994 86.280 160.3042
163.464005 86.252 160.3360
164.648529 86.223 160.3607
165.841644 86.193 160.3871
167.043396 86.162 160.4234
168.253860 86.129 160.4745
169.473099 86.096 160.5426
170.701172 86.064 160.6275
171.938141 86.032 160.7249
173.184082 86.002 160.8264
174.439041 85.972 160.9220
175.703094 85.940 161.0070
176.976318 85.905 161.0836
178.258759 85.869 161.1562
179.550491 85.831 161.2272
180.851593 85.793 161.2977
182.162125 85.757 161.3681
183.482147 85.722 161.4391
184.811737 85.687 161.5114
186.150955 85.653 161.5859
187.499878 85.620 161.6639
188.858582 85.586 161.7464
190.227127 85.552 161.8347
191.605591 85.518 161.9304
192.994049 85.483 162.0351
194.392563 85.447 162.1483
195.801208 85.410 162.2690
197.220062 85.370 162.3957
198.649200 85.331 162.5250
200.088699 85.293 162.6506
201.538620 85.257 162.7669
202.999054 85.224 162.8743
204.470062 85.194 162.9768
205.951736 85.164 163.0782
207.444153 85.134 163.1797
208.947372 85.104 163.2811
210.461487 85.072 163.3835
211.986572 85.039 163.4890
213.522720 85.004 163.6017
215.069992 84.968 163.7261
216.628479 84.932 163.8655
218.198257 84.896 164.0201
219.779419 84.862 164.1865
221.372025 84.830 164.3582
222.976181 84.801 164.5287
224.591965 84.772 164.6932
226.219452 84.744 164.8503
227.858734 84.717 165.0012
229.509888 84.689 165.1487
231.173004 84.660 165.2958
232.848175 84.632 165.4446
234.535492 84.603 165.5959
236.235031 84.573 165.7490
237.946884 84.543 165.9017
239.671143 84.513 166.0525
241.407898 84.481 166.2015
243.157242 84.449 166.3504
244.919266 84.416 166.5016
246.694046 84.382 166.6586
248.481689 84.348 166.8257
250.282288 84.313 167.0081
252.095932 84.280 167.2089
253.922729 84.249 167.4261
255.762756 84.220 167.6524
257.616119 84.194 167.8770
259.482910 84.170 168.0901
261.363220 84.148 168.2875
263.257172 84.126 168.4715
265.164856 84.102 168.6479
267.086365 84.076 168.8235
269.021790 84.049 169.0040
270.971222 84.021 169.1929
272.934784 83.994 169.3924
274.912567 83.967 169.6027
276.904694 83.941 169.8229
278.911255 83.917 170.0511
280.932373 83.894 170.2845
282.968140 83.873 170.5186
285.018646 83.855 170.7471
287.084015 83.838 170.9618
289.164337 83.823 171.1547
291.259735 83.808 171.3225
293.370331 83.791 171.4698
295.496216 83.771 171.6078
297.637512 83.748 171.7487
299.794312 83.723 171.9014
301.966736 83.696 172.0687
304.154907 83.669 172.2495
306.358948 83.642 172.4405
308.578949 83.615 172.6375
310.815033 83.589 172.8369
313.067322 83.562 173.0375
315.335938 83.535 173.2405
317.621002 83.507 173.4492
319.922607 83.478 173.6666
322.240906 83.450 173.8934
324.575989 83.423 174.1285
326.928009 83.396 174.3691
329.297058 83.372 174.6121
331.683289 83.349 174.8552
334.086792 83.328 175.0974
336.507721 83.308 175.3386
338.946198 83.288 175.5790
341.402344 83.268 175.8188
343.876282 83.247 176.0583
346.368164 83.225 176.2983
348.878082 83.202 176.5402
351.406189 83.179 176.7853
353.952637 83.157 177.0347
356.517517 83.135 177.2886
359.100983 83.114 177.5461
361.703186 83.094 177.8052
364.324249 83.075 178.0641
366.964294 83.055 178.3221
369.623474 83.036 178.5800
372.301910 83.017 178.8393
374.999756 82.999 179.1010
377.717163 82.980 179.3653
380.454254 82.961 179.6319
383.211182 82.943 179.9010
385.988098 82.924 -179.8266
388.785126 82.905 -179.5505
391.602417 82.887 -179.2704
394.440125 82.869 -178.9867
397.298401 82.852 -178.6998
400.177399 82.835 -178.4108
403.077240 82.820 -178.1212
405.998108 82.804 -177.8328
408.940125 82.789 -177.5465
411.903473 82.773 -177.2613
414.888306 82.757 -176.9744
417.894745 82.740 -176.6822
420.922974 82.724 -176.3816
423.973145 82.709 -176.0709
427.045441 82.695 -175.7503
430.139984 82.682 -175.4235
433.256958 82.672 -175.0963
436.396515 82.663 -174.7737
439.558838 82.654 -174.4577
442.744049 82.647 -174.1478
445.952362 82.642 -173.8439
449.183929 82.638 -173.5489
452.438904 82.634 -173.2688
455.717468 82.629 -173.0084
459.019775 82.623 -172.7648
462.346008 82.613 -172.5269
465.696350 82.601 -172.2819
469.070984 82.586 -172.0223
472.470062 82.571 -171.7467
475.893768 82.556 -171.4585
479.342285 82.542 -171.1635
482.815796 82.529 -170.8678
486.314484 82.515 -170.5736
489.838531 82.501 -170.2764
493.388092 82.486 -169.9675
496.963379 82.472 -169.6427
500.564575 82.459 -169.3053
504.191864 82.447 -168.9626
507.845459 82.438 -168.6208
511.525513 82.429 -168.2837
515.232239 82.420 -167.9515
518.965820 82.410 -167.6212
522.726440 82.400 -167.2879
526.514343 82.390 -166.9465
530.329712 82.379 -166.5934
534.172729 82.370 -166.2290
538.043579 82.361 -165.8572
541.942444 82.355 -165.4820
545.869568 82.349 -165.1057
549.825134 82.345 -164.7297
553.809387 82.342 -164.3567
557.822510 82.339 -163.9893
561.864746 82.337 -163.6289
565.936279 82.333 -163.2741
570.037292 82.329 -162.9217
574.168030 82.324 -162.5683
578.328674 82.319 -162.2118
582.519470 82.314 -161.8522
586.740662 82.309 -161.4890
590.992432 82.305 -161.1185
595.275024 82.302 -160.7368
599.588623 82.301 -160.3436
603.933472 82.301 -159.9429
608.309814 82.302 -159.5394
612.717896 82.304 -159.1360
617.157898 82.305 -158.7318
621.630066 82.305 -158.3217
626.134644 82.305 -157.8999
630.671875 82.305 -157.4641
635.242004 82.308 -157.0185
639.845215 82.313 -156.5685
644.481812 82.320 -156.1154
649.151978 82.329 -155.6588
653.856018 82.341 -155.2014
658.594116 82.355 -154.7506
663.366577 82.373 -154.3162
668.173584 82.391 -153.9057
673.015442 82.410 -153.5186
677.892395 82.427 -153.1468
682.804688 82.441 -152.7807
687.752563 82.454 -152.4132
692.736328 82.466 -152.0385
697.756165 82.476 -151.6519
702.812378 82.487 -151.2522
707.905273 82.498 -150.8420
713.035034 82.511 -150.4263
718.201965 82.524 -150.0082
723.406372 82.538 -149.5883
728.648499 82.552 -149.1655
733.928589 82.567 -148.7385
739.246948 82.582 -148.3064
744.603821 82.598 -147.8687
749.999512 82.614 -147.4256
755.434326 82.632 -146.9778
760.908508 82.650 -146.5264
766.422363 82.670 -146.0719
771.976196 82.692 -145.6146
777.570251 82.714 -145.1547
783.204834 82.738 -144.6921
788.880249 82.763 -144.2252
794.596802 82.789 -143.7513
800.354797 82.817 -143.2686
806.154480 82.847 -142.7787
811.996216 82.881 -142.2878
817.880249 82.919 -141.8048
823.806946 82.960 -141.3391
829.776611 83.002 -140.8984
835.789490 83.045 -140.4851
841.845947 83.087 -140.0928
847.946289 83.127 -139.7113
854.090881 83.165 -139.3324
860.279968 83.201 -138.9511
866.513916 83.237 -138.5637
872.793030 83.273 -138.1665
879.117676 83.309 -137.7596
885.488098 83.346 -137.3472
891.904724 83.384 -136.9327
898.367859 83.424 -136.5169
904.877808 83.464 -136.0979
911.434937 83.505 -135.6751
918.039551 83.547 -135.2500
924.692017 83.592 -134.8247
931.392700 83.638 -134.4025
938.141968 83.685 -133.9868
944.940125 83.734 -133.5800
951.787537 83.783 -133.1815
958.684570 83.832 -132.7885
965.631592 83.881 -132.3978
972.628967 83.930 -132.0063
979.677063 83.979 -131.6128
986.776184 84.029 -131.2175
993.926758 84.079 -130.8186
1001.129150 84.129 -130.4110
1008.383728 84.181 -129.9897
1015.690918 84.235 -129.5555
1023.051025 84.292 -129.1137
1030.464478 84.353 -128.6722
1037.931641 84.419 -128.2423
1045.452881 84.487 -127.8360
1053.028687 84.557 -127.4584
1060.659424 84.627 -127.1052
1068.345459 84.695 -126.7670
1076.087158 84.763 -126.4333
1083.884888 84.831 -126.0975
1091.739136 84.900 -125.7583
1099.650269 84.970 -125.4181
1107.618774 85.041 -125.0795
1115.645020 85.114 -124.7447
1123.729492 85.188 -124.4160
1131.872559 85.263 -124.0958
1140.074585 85.341 -123.7856
1148.336060 85.419 -123.4867
1156.657349 85.498 -123.1992
1165.038940 85.578 -122.9220
1173.481323 85.659 -122.6527
1181.984863 85.741 -122.3905
1190.550049 85.825 -122.1391
1199.177246 85.911 -121.9075
1207.866943 85.999 -121.7051
1216.619629 86.085 -121.5353
1225.435791 86.169 -121.3926
1234.315796 86.250 -121.2672
1243.260132 86.327 -121.1490
1252.269287 86.401 -121.0296
1261.343750 86.474 -120.9047
1270.484009 86.545 -120.7734
1279.690430 86.615 -120.6347
1288.963623 86.685 -120.4877
1298.303955 86.755 -120.3334
1307.712036 86.827 -120.1747
1317.188232 86.899 -120.0156
1326.733154 86.971 -119.8591
1336.347168 87.044 -119.7047
1346.030884 87.116 -119.5502
1355.784790 87.188 -119.3923
1365.609375 87.260 -119.2278
1375.505127 87.333 -119.0523
1385.472656 87.407 -118.8608
1395.512329 87.484 -118.6526
1405.624756 87.565 -118.4337
1415.810547 87.651 -118.2166
1426.070068 87.742 -118.0164
1436.403931 87.836 -117.8431
1446.812744 87.931 -117.6976
1457.296997 88.027 -117.5752
1467.857178 88.122 -117.4700
1478.493896 88.218 -117.3779
1489.207642 88.312 -117.2959
1499.999023 88.407 -117.2210
1510.868652 88.502 -117.1502
1521.817017 88.598 -117.0809
1532.844727 88.694 -117.0111
1543.952393 88.792 -116.9395
1555.140503 88.894 -116.8664
1566.409668 88.999 -116.7966
1577.760498 89.109 -116.7419
1589.193604 89.223 -116.7167
1600.709595 89.340 -116.7306
1612.308960 89.458 -116.7846
1623.992432 89.575 -116.8740
1635.760498 89.691 -116.9926
1647.613892 89.806 -117.1348
1659.553223 89.919 -117.2968
1671.578979 90.032 -117.4755
1683.691895 90.145 -117.6709
1695.892578 90.257 -117.8855
1708.181763 90.369 -118.1222
1720.559937 90.481 -118.3814
1733.027832 90.591 -118.6607
1745.586060 90.700 -118.9554
1758.235352 90.807 -119.2598
1770.976196 90.915 -119.5696
1783.809448 91.024 -119.8866
1796.735718 91.137 -120.2207
1809.755615 91.252 -120.5868
1822.869873 91.368 -120.9962
1836.079102 91.484 -121.4532
1849.384033 91.599 -121.9569
1862.785400 91.710 -122.5044
1876.283936 91.819 -123.0920
1889.880249 91.923 -123.7153
1903.575073 92.022 -124.3695
1917.369141 92.118 -125.0498
1931.263184 92.209 -125.7526
1945.257935 92.297 -126.4774
1959.354126 92.382 -127.2293
1973.552368 92.464 -128.0166
1987.853516 92.539 -128.8430
2002.258301 92.607 -129.7038
2016.767456 92.667 -130.5880
2031.381836 92.717 -131.4818
2046.102051 92.758 -132.3716
2060.928955 92.791 -133.2467
2075.863281 92.819 -134.1020
2090.905762 92.843 -134.9371
2106.057373 92.863 -135.7545
2121.318848 92.880 -136.5566
2136.690918 92.896 -137.3454
2152.174316 92.910 -138.1227
2167.769775 92.924 -138.8941
2183.478271 92.938 -139.6723
2199.300537 92.952 -140.4721
2215.237549 92.964 -141.3040
2231.290039 92.970 -142.1703
2247.458984 92.969 -143.0661
2263.745117 92.957 -143.9789
2280.149170 92.935 -144.8903
2296.672119 92.901 -145.7778
2313.314697 92.856 -146.6185
2330.077881 92.804 -147.3949
2346.962646 92.749 -148.0998
2363.969727 92.692 -148.7364
2381.100098 92.638 -149.3133
2398.354492 92.588 -149.8430
2415.733887 92.544 -150.3422
2433.239258 92.507 -150.8312
2450.871582 92.476 -151.3325
2468.631592 92.449 -151.8669
2486.520264 92.424 -152.4477
2504.538574 92.396 -153.0760
2522.687500 92.362 -153.7401
2540.968018 92.320 -154.4214
2559.380859 92.271 -155.1027
2577.927246 92.215 -155.7744
2596.607910 92.153 -156.4309
2615.424072 92.085 -157.0677
2634.376465 92.010 -157.6786
2653.466309 91.931 -158.2552
2672.694336 91.846 -158.7876
2692.061768 91.759 -159.2662
2711.569580 91.671 -159.6870
2731.218750 91.585 -160.0562
2751.010254 91.504 -160.3891
2770.945312 91.429 -160.7043
2791.024658 91.359 -161.0181
2811.249512 91.293 -161.3430
2831.621094 91.231 -161.6888
2852.140137 91.170 -162.0635
2872.807861 91.110 -162.4730
2893.625488 91.047 -162.9186
2914.593994 90.981 -163.3966
2935.714355 90.911 -163.9035
2956.987793 90.837 -164.4418
2978.415283 90.756 -165.0194
2999.998047 90.668 -165.6439
3021.737305 90.567 -166.3164
3043.634033 90.448 -167.0263
3065.689453 90.307 -167.7461
3087.904785 90.140 -168.4310
3110.281006 89.944 -169.0226
3132.819336 89.720 -169.4544
3155.520996 89.473 -169.6570
3178.387207 89.212 -169.5680
3201.419189 88.950 -169.1495
3224.617920 88.703 -168.4053
3247.984863 88.485 -167.3896
3271.520996 88.309 -166.1958
3295.227783 88.177 -164.9313
3319.106445 88.087 -163.6936
3343.157959 88.034 -162.5570
3367.383789 88.007 -161.5680
3391.785156 87.997 -160.7448
3416.363525 87.994 -160.0808
3441.119873 87.990 -159.5498
3466.055664 87.980 -159.1118
3491.172119 87.962 -158.7235
3516.470703 87.936 -158.3475
3541.952393 87.904 -157.9565
3567.618896 87.870 -157.5341
3593.471436 87.836 -157.0746
3619.511230 87.805 -156.5826
3645.739746 87.778 -156.0685
3672.158203 87.756 -155.5397
3698.768066 87.740 -154.9972
3725.570801 87.729 -154.4412
3752.567871 87.725 -153.8773
3779.760498 87.730 -153.3168
3807.150146 87.742 -152.7718
3834.738281 87.760 -152.2488
3862.526367 87.785 -151.7470
3890.515869 87.816 -151.2640
3918.708252 87.853 -150.8021
3947.104736 87.898 -150.3693
3975.707031 87.950 -149.9765
4004.516602 88.009 -149.6359
4033.534912 88.072 -149.3577
4062.763672 88.139 -149.1453
4092.204102 88.207 -148.9947
4121.857910 88.275 -148.9003
4151.726562 88.344 -148.8607
4181.811523 88.413 -148.8781
4212.114746 88.481 -148.9537
4242.637695 88.546 -149.0828
4273.381836 88.608 -149.2583
4304.348633 88.669 -149.4770
4335.539551 88.728 -149.7419
4366.956543 88.786 -150.0610
4398.601074 88.842 -150.4447
4430.475098 88.894 -150.9014
4462.580078 88.938 -151.4313
4494.917969 88.973 -152.0268
4527.490234 88.998 -152.6789
4560.298340 89.011 -153.3815
4593.344238 89.010 -154.1284
4626.629395 88.993 -154.9070
4660.155762 88.959 -155.6958
4693.925293 88.907 -156.4677
4727.939453 88.837 -157.1947
4762.200195 88.753 -157.8538
4796.708984 88.659 -158.4317
4831.467773 88.557 -158.9265
4866.478516 88.451 -159.3429
4901.743164 88.342 -159.6895
4937.263184 88.232 -159.9751
4973.040527 88.122 -160.2057
5009.077148 88.012 -160.3831
5045.375000 87.904 -160.5086
5081.936035 87.800 -160.5905
5118.761719 87.701 -160.6471
5155.854492 87.609 -160.7051
5193.215820 87.521 -160.7936
5230.848145 87.435 -160.9355
5268.752930 87.346 -161.1412
5306.932617 87.248 -161.4096
5345.388672 87.137 -161.7321
5384.123535 87.009 -162.0927
5423.139160 86.858 -162.4638
5462.437500 86.680 -162.8055
5502.020508 86.474 -163.0677
5541.890625 86.239 -163.1925
5582.049316 85.975 -163.1135
5622.499023 85.686 -162.7511
5663.242188 85.379 -162.0111
5704.280273 85.068 -160.8026
5745.615723 84.778 -159.0776
5787.250977 84.535 -156.8811
5829.187988 84.363 -154.3772
5871.428711 84.272 -151.8131
5913.975586 84.253 -149.4223
5956.830566 84.284 -147.3323
5999.996094 84.339 -145.5444
6043.474609 84.404 -143.9796
6087.268066 84.473 -142.5466
6131.378906 84.547 -141.1908
6175.809570 84.629 -139.9042
6220.562012 84.718 -138.7010
6265.638672 84.810 -137.5864
6311.041992 84.902 -136.5408
6356.774414 84.993 -135.5282
6402.838379 85.085 -134.5161
6449.235840 85.183 -133.4909
6495.969727 85.291 -132.4622
6543.041992 85.410 -131.4551
6590.455566 85.540 -130.4928
6638.212891 85.676 -129.5817
6686.315918 85.818 -128.7098
6734.767578 85.966 -127.8555
6783.570312 86.122 -127.0008
6832.727051 86.291 -126.1390
6882.239746 86.475 -125.2794
6932.111328 86.679 -124.4454
6982.344238 86.903 -123.6665
7032.941406 87.147 -122.9666
7083.904785 87.409 -122.3597
7135.237793 87.691 -121.8539
7186.942871 87.993 -121.4580
7239.022461 88.316 -121.1859
7291.479492 88.664 -121.0613
7344.316406 89.036 -121.1192
7397.536133 89.432 -121.4017
7451.141602 89.851 -121.9527
7505.135742 90.289 -122.8165
7559.520996 90.741 -124.0375
7614.300293 91.200 -125.6590
7669.476562 91.658 -127.7212
7725.052734 92.105 -130.2608
7781.031738 92.525 -133.3042
7837.416504 92.903 -136.8575
7894.209473 93.220 -140.8981
7951.414062 93.459 -145.3713
8009.033203 93.604 -150.1882
8067.069824 93.644 -155.2294
8125.527344 93.570 -160.3552
8184.408203 93.382 -165.4180
8243.715820 93.083 -170.2738
8303.453125 92.682 -174.7948
8363.623047 92.193 -178.8800
8424.229492 91.629 177.5414
8485.275391 91.008 174.5117
8546.763672 90.343 172.0507
8608.697266 89.646 170.1702
8671.079102 88.927 168.8907
8733.913086 88.196 168.2485
8797.202148 87.466 168.2855
8860.950195 86.756 169.0201
8925.160156 86.088 170.4086
8989.835938 85.487 172.3279
9054.980469 84.966 174.6005
9120.596680 84.531 177.0486
9186.688477 84.175 179.5418
9253.258789 83.888 -177.9844
9320.311523 83.658 -175.5462
9387.850586 83.478 -173.1410
9455.878906 83.345 -170.7678
9524.400391 83.256 -168.4343
9593.417969 83.209 -166.1516
9662.935547 83.203 -163.9275
9732.957031 83.238 -161.7671
9803.486328 83.314 -159.6771
9874.526367 83.432 -157.6685
9946.081055 83.596 -155.7578
10018.154297 83.810 -153.9688
10090.750000 84.078 -152.3400
10163.872070 84.404 -150.9354
10237.523438 84.789 -149.8452
10311.708984 85.230 -149.1749
10386.431641 85.716 -149.0299
10461.696289 86.235 -149.5023
10537.505859 86.768 -150.6675
10613.865234 87.291 -152.5814
10690.777344 87.779 -155.2704
10768.247070 88.198 -158.7152
10846.278320 88.517 -162.8329
10924.875000 88.706 -167.4679
11004.041016 88.743 -172.3963
11083.781250 88.618 -177.3456
11164.098633 88.337 177.9644
11244.998047 87.921 173.7717
11326.484375 87.402 170.2287
11408.560547 86.816 167.3865
11491.231445 86.196 165.2094
11574.501953 85.566 163.6141
11658.375977 84.939 162.5141
11742.857422 84.319 161.8516
11827.951172 83.707 161.6079
11913.661133 83.101 161.7983
11999.992188 82.505 162.4611
12086.949219 81.924 163.6459
12174.536133 81.372 165.3957
12262.757812 80.867 167.7180
12351.619141 80.430 170.5591
12441.124023 80.084 173.7962
12531.277344 79.843 177.2486
12622.083984 79.714 -179.2990
12713.548828 79.692 -176.0683
12805.676758 79.759 -173.2518
12898.471680 79.889 -170.9783
12991.939453 80.051 -169.2930
13086.083984 80.215 -168.1601
13180.911133 80.354 -167.4737
13276.425781 80.447 -167.0646
13372.631836 80.484 -166.7033
13469.535156 80.472 -166.1177
13567.140625 80.434 -165.0374
13665.454102 80.417 -163.2675
13764.479492 80.478 -160.7783
13864.222656 80.669 -157.7703
13964.688477 81.021 -154.6499
14065.882812 81.526 -151.8867
14167.809570 82.151 -149.8404
14270.475586 82.854 -148.6790
14373.885742 83.600 -148.4129
14478.044922 84.365 -148.9720
14582.958984 85.137 -150.2675
14688.632812 85.909 -152.2269
14795.072266 86.679 -154.8136
14902.283203 87.445 -158.0287
15010.271484 88.199 -161.8967
15119.041992 88.929 -166.4490
15228.600586 89.619 -171.7093
15338.953125 90.251 -177.6823
15450.105469 90.803 175.6560
15562.063477 91.256 168.3655
15674.833008 91.592 160.5419
15788.418945 91.799 152.3124
15902.828125 91.873 143.8212
16018.066406 91.815 135.2110
16134.139648 91.636 126.5985
16251.054688 91.348 118.0620
16368.816406 90.961 109.6461
16487.431641 90.484 101.3780
16606.906250 89.918 93.2833
16727.246094 89.264 85.3964
16848.458984 88.522 77.7629
16970.550781 87.693 70.4325
17093.527344 86.780 63.4500
17217.394531 85.788 56.8528
17342.158203 84.722 50.6673
17467.826172 83.590 44.9098
17594.404297 82.396 39.5926
17721.900391 81.145 34.7325
17850.320312 79.838 30.3534
17979.671875 78.479 26.4878
18109.960938 77.070 23.1747
18241.193359 75.615 20.4495
18373.376953 74.121 18.3334
18506.517578 72.595 16.8267
18640.623047 71.045 15.9075
18775.701172 69.478 15.5356
18911.757812 67.898 15.6675
19048.800781 66.307 16.2776
19186.835938 64.705 17.3812
19325.871094 63.087 19.0507
19465.914062 61.458 21.4062
19606.972656 59.843 24.5396
19749.052734 58.315 28.3171
19892.162109 57.037 32.0791
20036.308594 56.277 34.5546
