* Measurement data measured by REW V5.30.4
* Source: EXCL: Microphone (Realtek(R) Audio), MICROPHONE (Master Volume), L, volume: 1.000
* Format: 256k Log Swept Sine, 1 sweep at -12.0 dBFS with no timing reference
* Dated: Jan 21, 2024 12:19:24 AM
* REW Settings:
*  C-weighting compensation: Off
*  Target level: 75.0 dB
* Note: TinHiFi T5S R
* Measurement: R Jan 21
* Smoothing: 1/12 octave
* Frequency Step: 96 ppo
* Start Frequency: 0.36621094 Hz
*
* Freq(Hz) SPL(dB) Phase(degrees)
0.366211 95.840 -23.7410
0.368865 95.842 -23.7689
0.371538 95.845 -23.8105
0.374230 95.849 -23.8625
0.376942 95.853 -23.9221
0.379673 95.857 -23.9871
0.382424 95.862 -24.0562
0.385196 95.866 -24.1285
0.387987 95.871 -24.2036
0.390798 95.876 -24.2812
0.393630 95.880 -24.3611
0.396483 95.885 -24.4433
0.399356 95.890 -24.5278
0.402250 95.895 -24.6145
0.405165 95.900 -24.7035
0.408101 95.905 -24.7948
0.411058 95.910 -24.8884
0.414037 95.915 -24.9843
0.417037 95.920 -25.0825
0.420059 95.925 -25.1830
0.423103 95.930 -25.2859
0.426169 95.936 -25.3911
0.429257 95.941 -25.4988
0.432367 95.946 -25.6088
0.435501 95.951 -25.7212
0.438656 95.957 -25.8361
0.441835 95.962 -25.9534
0.445037 95.968 -26.0731
0.448262 95.973 -26.1952
0.451510 95.979 -26.3199
0.454782 95.984 -26.4469
0.458077 95.990 -26.5765
0.461397 95.995 -26.7085
0.464740 96.001 -26.8430
0.468108 96.007 -26.9800
0.471500 96.012 -27.1195
0.474917 96.018 -27.2614
0.478358 96.024 -27.4059
0.481825 96.030 -27.5528
0.485316 96.036 -27.7023
0.488833 96.042 -27.8542
0.492375 96.048 -28.0086
0.495943 96.054 -28.1655
0.499537 96.060 -28.3249
0.503157 96.066 -28.4867
0.506803 96.072 -28.6510
0.510475 96.078 -28.8177
0.514174 96.085 -28.9869
0.517900 96.091 -29.1585
0.521653 96.097 -29.3325
0.525433 96.104 -29.5090
0.529241 96.110 -29.6877
0.533076 96.117 -29.8689
0.536939 96.123 -30.0524
0.540830 96.130 -30.2382
0.544749 96.137 -30.4263
0.548696 96.143 -30.6166
0.552673 96.150 -30.8092
0.556677 96.157 -31.0040
0.560711 96.164 -31.2010
0.564774 96.171 -31.4001
0.568867 96.178 -31.6013
0.572989 96.184 -31.8046
0.577141 96.192 -32.0100
0.581324 96.199 -32.2173
0.585536 96.206 -32.4265
0.589779 96.213 -32.6377
0.594053 96.220 -32.8507
0.598358 96.228 -33.0655
0.602694 96.235 -33.2821
0.607061 96.242 -33.5003
0.611460 96.250 -33.7202
0.615891 96.257 -33.9416
0.620354 96.265 -34.1646
0.624849 96.272 -34.3890
0.629377 96.280 -34.6148
0.633938 96.288 -34.8419
0.638532 96.296 -35.0703
0.643159 96.303 -35.2998
0.647819 96.311 -35.5304
0.652514 96.319 -35.7620
0.657242 96.327 -35.9946
0.662005 96.335 -36.2279
0.666802 96.344 -36.4621
0.671634 96.352 -36.6969
0.676501 96.360 -36.9322
0.681403 96.368 -37.1681
0.686341 96.377 -37.4043
0.691314 96.385 -37.6408
0.696324 96.394 -37.8775
0.701369 96.402 -38.1143
0.706452 96.411 -38.3512
0.711571 96.420 -38.5881
0.716727 96.429 -38.8250
0.721921 96.438 -39.0621
0.727153 96.447 -39.2996
0.732422 96.457 -39.5378
0.737729 96.468 -39.7771
0.743075 96.478 -40.0179
0.748460 96.489 -40.2608
0.753883 96.501 -40.5058
0.759346 96.512 -40.7533
0.764849 96.524 -41.0032
0.770391 96.536 -41.2556
0.775974 96.548 -41.5105
0.781597 96.561 -41.7679
0.787261 96.573 -42.0278
0.792965 96.586 -42.2901
0.798712 96.599 -42.5548
0.804499 96.612 -42.8218
0.810329 96.625 -43.0912
0.816201 96.638 -43.3627
0.822116 96.652 -43.6364
0.828073 96.666 -43.9123
0.834073 96.680 -44.1902
0.840118 96.694 -44.4701
0.846205 96.708 -44.7520
0.852337 96.722 -45.0357
0.858514 96.737 -45.3212
0.864735 96.752 -45.6084
0.871001 96.767 -45.8973
0.877313 96.782 -46.1877
0.883670 96.798 -46.4796
0.890074 96.813 -46.7730
0.896523 96.829 -47.0676
0.903020 96.845 -47.3635
0.909564 96.861 -47.6605
0.916155 96.878 -47.9586
0.922793 96.894 -48.2577
0.929480 96.911 -48.5576
0.936216 96.928 -48.8583
0.943000 96.945 -49.1596
0.949833 96.963 -49.4615
0.956716 96.980 -49.7638
0.963649 96.998 -50.0665
0.970632 97.016 -50.3694
0.977666 97.034 -50.6725
0.984750 97.053 -50.9755
0.991886 97.072 -51.2784
0.999074 97.090 -51.5811
1.006313 97.110 -51.8835
1.013605 97.129 -52.1853
1.020950 97.149 -52.4866
1.028349 97.168 -52.7871
1.035801 97.188 -53.0868
1.043306 97.209 -53.3855
1.050867 97.229 -53.6831
1.058482 97.250 -53.9794
1.066152 97.271 -54.2743
1.073878 97.292 -54.5678
1.081659 97.314 -54.8598
1.089498 97.335 -55.1501
1.097393 97.357 -55.4387
1.105345 97.379 -55.7257
1.113355 97.402 -56.0112
1.121422 97.425 -56.2951
1.129549 97.448 -56.5777
1.137734 97.471 -56.8589
1.145978 97.495 -57.1388
1.154283 97.519 -57.4176
1.162647 97.543 -57.6953
1.171072 97.568 -57.9720
1.179558 97.593 -58.2479
1.188106 97.618 -58.5229
1.196715 97.644 -58.7973
1.205387 97.670 -59.0710
1.214122 97.696 -59.3442
1.222920 97.723 -59.6171
1.231781 97.750 -59.8897
1.240708 97.777 -60.1620
1.249698 97.805 -60.4343
1.258754 97.832 -60.7066
1.267875 97.861 -60.9791
1.277063 97.889 -61.2518
1.286317 97.918 -61.5249
1.295638 97.947 -61.7985
1.305027 97.977 -62.0727
1.314484 98.007 -62.3476
1.324009 98.037 -62.6234
1.333603 98.067 -62.9002
1.343267 98.098 -63.1780
1.353001 98.129 -63.4571
1.362805 98.161 -63.7376
1.372681 98.192 -64.0195
1.382628 98.224 -64.3031
1.392647 98.257 -64.5884
1.402739 98.289 -64.8755
1.412904 98.322 -65.1646
1.423142 98.356 -65.4557
1.433455 98.389 -65.7488
1.443842 98.423 -66.0439
1.454305 98.458 -66.3408
1.464843 98.492 -66.6392
1.475458 98.527 -66.9389
1.486150 98.563 -67.2396
1.496919 98.599 -67.5409
1.507766 98.635 -67.8426
1.518692 98.672 -68.1447
1.529697 98.709 -68.4471
1.540782 98.747 -68.7498
1.551947 98.785 -69.0529
1.563193 98.824 -69.3564
1.574521 98.863 -69.6604
1.585931 98.903 -69.9649
1.597423 98.943 -70.2700
1.608998 98.983 -70.5759
1.620658 99.024 -70.8827
1.632402 99.065 -71.1903
1.644231 99.107 -71.4991
1.656146 99.148 -71.8090
1.668147 99.191 -72.1202
1.680235 99.233 -72.4328
1.692410 99.276 -72.7470
1.704674 99.319 -73.0629
1.717027 99.363 -73.3807
1.729469 99.406 -73.7004
1.742002 99.450 -74.0224
1.754625 99.494 -74.3466
1.767340 99.539 -74.6734
1.780147 99.583 -75.0027
1.793046 99.628 -75.3348
1.806040 99.673 -75.6697
1.819127 99.718 -76.0075
1.832309 99.763 -76.3481
1.845587 99.809 -76.6913
1.858961 99.855 -77.0372
1.872431 99.902 -77.3854
1.886000 99.948 -77.7359
1.899666 99.996 -78.0887
1.913432 100.043 -78.4435
1.927298 100.091 -78.8004
1.941264 100.139 -79.1594
1.955331 100.188 -79.5203
1.969500 100.237 -79.8832
1.983772 100.286 -80.2480
1.998147 100.335 -80.6148
2.012626 100.385 -80.9835
2.027211 100.434 -81.3542
2.041901 100.484 -81.7268
2.056697 100.534 -82.1014
2.071601 100.584 -82.4781
2.086613 100.634 -82.8569
2.101733 100.684 -83.2378
2.116963 100.734 -83.6210
2.132303 100.783 -84.0064
2.147755 100.833 -84.3945
2.163318 100.882 -84.7852
2.178995 100.932 -85.1788
2.194785 100.981 -85.5758
2.210689 101.030 -85.9763
2.226709 101.079 -86.3806
2.242844 101.128 -86.7888
2.259097 101.177 -87.2010
2.275467 101.226 -87.6170
2.291956 101.275 -88.0365
2.308565 101.324 -88.4594
2.325294 101.373 -88.8852
2.342144 101.422 -89.3137
2.359116 101.470 -89.7446
2.376211 101.518 -90.1774
2.393430 101.567 -90.6120
2.410774 101.615 -91.0479
2.428243 101.662 -91.4848
2.445839 101.709 -91.9225
2.463562 101.756 -92.3608
2.481415 101.803 -92.7993
2.499396 101.849 -93.2382
2.517508 101.894 -93.6773
2.535750 101.939 -94.1170
2.554126 101.984 -94.5577
2.572634 102.028 -95.0001
2.591276 102.071 -95.4450
2.610054 102.114 -95.8927
2.628967 102.156 -96.3437
2.648018 102.198 -96.7978
2.667206 102.239 -97.2548
2.686534 102.280 -97.7142
2.706002 102.320 -98.1754
2.725610 102.359 -98.6378
2.745361 102.398 -99.1007
2.765255 102.436 -99.5633
2.785294 102.474 -100.0250
2.805477 102.511 -100.4849
2.825807 102.548 -100.9424
2.846284 102.584 -101.3970
2.866909 102.619 -101.8481
2.887684 102.654 -102.2956
2.908609 102.688 -102.7396
2.929686 102.721 -103.1806
2.950916 102.753 -103.6192
2.972299 102.785 -104.0563
2.993838 102.816 -104.4924
3.015532 102.846 -104.9278
3.037384 102.875 -105.3623
3.059394 102.903 -105.7956
3.081564 102.930 -106.2272
3.103894 102.957 -106.6565
3.126386 102.983 -107.0826
3.149041 103.009 -107.5047
3.171861 103.034 -107.9220
3.194845 103.059 -108.3336
3.217996 103.083 -108.7387
3.241315 103.107 -109.1367
3.264803 103.131 -109.5270
3.288461 103.155 -109.9095
3.312291 103.178 -110.2841
3.336293 103.200 -110.6514
3.360469 103.222 -111.0116
3.384820 103.243 -111.3650
3.409348 103.264 -111.7120
3.434054 103.284 -112.0527
3.458938 103.304 -112.3870
3.484003 103.324 -112.7150
3.509250 103.344 -113.0364
3.534679 103.365 -113.3513
3.560293 103.385 -113.6592
3.586092 103.406 -113.9598
3.612079 103.428 -114.2527
3.638253 103.450 -114.5374
3.664618 103.473 -114.8133
3.691173 103.497 -115.0800
3.717921 103.521 -115.3374
3.744862 103.545 -115.5855
3.771999 103.571 -115.8250
3.799332 103.596 -116.0566
3.826864 103.623 -116.2814
3.854595 103.650 -116.5004
3.882527 103.679 -116.7149
3.910661 103.708 -116.9258
3.938999 103.739 -117.1340
3.967543 103.771 -117.3401
3.996294 103.805 -117.5443
4.025252 103.840 -117.7463
4.054421 103.877 -117.9456
4.083801 103.915 -118.1416
4.113394 103.956 -118.3342
4.143201 103.997 -118.5242
4.173225 104.041 -118.7125
4.203466 104.085 -118.9008
4.233926 104.131 -119.0908
4.264606 104.178 -119.2843
4.295509 104.227 -119.4832
4.326636 104.276 -119.6889
4.357989 104.327 -119.9023
4.389569 104.379 -120.1240
4.421378 104.432 -120.3537
4.453417 104.487 -120.5910
4.485688 104.542 -120.8357
4.518193 104.599 -121.0878
4.550934 104.657 -121.3476
4.583912 104.716 -121.6158
4.617129 104.775 -121.8933
4.650587 104.834 -122.1811
4.684287 104.894 -122.4800
4.718231 104.953 -122.7911
4.752421 105.011 -123.1149
4.786859 105.070 -123.4518
4.821547 105.128 -123.8017
4.856485 105.185 -124.1641
4.891677 105.243 -124.5383
4.927125 105.299 -124.9233
4.962829 105.355 -125.3182
4.998791 105.410 -125.7221
5.035015 105.463 -126.1346
5.071500 105.515 -126.5553
5.108251 105.565 -126.9845
5.145267 105.613 -127.4224
5.182552 105.659 -127.8695
5.220107 105.704 -128.3253
5.257934 105.746 -128.7891
5.296035 105.787 -129.2591
5.334412 105.825 -129.7335
5.373067 105.862 -130.2102
5.412003 105.896 -130.6875
5.451221 105.928 -131.1642
5.490722 105.957 -131.6396
5.530510 105.984 -132.1140
5.570587 106.009 -132.5874
5.610953 106.031 -133.0594
5.651613 106.051 -133.5290
5.692567 106.069 -133.9946
5.733818 106.085 -134.4542
5.775367 106.099 -134.9059
5.817218 106.111 -135.3480
5.859372 106.122 -135.7794
5.901831 106.130 -136.1997
5.944598 106.138 -136.6088
5.987675 106.143 -137.0070
6.031065 106.148 -137.3940
6.074768 106.151 -137.7696
6.118788 106.154 -138.1331
6.163127 106.156 -138.4839
6.207788 106.158 -138.8213
6.252772 106.161 -139.1449
6.298082 106.163 -139.4548
6.343721 106.166 -139.7513
6.389690 106.169 -140.0359
6.435992 106.173 -140.3099
6.482630 106.178 -140.5749
6.529606 106.184 -140.8322
6.576922 106.191 -141.0826
6.624581 106.200 -141.3269
6.672585 106.211 -141.5656
6.720938 106.223 -141.8000
6.769640 106.237 -142.0318
6.818696 106.252 -142.2635
6.868107 106.269 -142.4974
6.917876 106.287 -142.7357
6.968006 106.307 -142.9800
7.018499 106.328 -143.2312
7.069358 106.351 -143.4899
7.120586 106.374 -143.7570
7.172184 106.399 -144.0334
7.224157 106.424 -144.3204
7.276506 106.448 -144.6192
7.329235 106.473 -144.9306
7.382345 106.498 -145.2551
7.435841 106.522 -145.5924
7.489724 106.545 -145.9418
7.543997 106.568 -146.3024
7.598664 106.589 -146.6734
7.653728 106.609 -147.0539
7.709189 106.627 -147.4434
7.765053 106.643 -147.8411
7.821322 106.657 -148.2459
7.877998 106.669 -148.6561
7.935086 106.678 -149.0695
7.992587 106.686 -149.4840
8.050504 106.692 -149.8978
8.108841 106.695 -150.3097
8.167601 106.696 -150.7185
8.226787 106.695 -151.1228
8.286402 106.693 -151.5211
8.346449 106.688 -151.9117
8.406931 106.683 -152.2929
8.467851 106.676 -152.6638
8.529212 106.669 -153.0237
8.591018 106.660 -153.3725
8.653272 106.652 -153.7101
8.715977 106.643 -154.0366
8.779137 106.635 -154.3521
8.842754 106.628 -154.6567
8.906833 106.621 -154.9512
8.971375 106.615 -155.2367
9.036386 106.611 -155.5149
9.101867 106.608 -155.7874
9.167823 106.606 -156.0556
9.234257 106.607 -156.3211
9.301172 106.609 -156.5852
9.368572 106.612 -156.8495
9.436460 106.617 -157.1159
9.504841 106.623 -157.3861
9.573717 106.631 -157.6613
9.643092 106.640 -157.9425
9.712970 106.650 -158.2303
9.783354 106.660 -158.5251
9.854248 106.671 -158.8276
9.925656 106.683 -159.1377
9.997581 106.694 -159.4555
10.070028 106.705 -159.7803
10.143000 106.716 -160.1113
10.216500 106.727 -160.4477
10.290533 106.737 -160.7885
10.365103 106.746 -161.1329
10.440212 106.754 -161.4797
10.515866 106.762 -161.8277
10.592069 106.769 -162.1758
10.668823 106.776 -162.5230
10.746134 106.782 -162.8683
10.824005 106.787 -163.2112
10.902440 106.793 -163.5511
10.981443 106.797 -163.8873
11.061020 106.802 -164.2197
11.141172 106.807 -164.5480
11.221906 106.812 -164.8723
11.303225 106.817 -165.1928
11.385133 106.822 -165.5096
11.467634 106.827 -165.8230
11.550734 106.832 -166.1333
11.634435 106.838 -166.4407
11.718742 106.844 -166.7455
11.803661 106.850 -167.0479
11.889195 106.856 -167.3480
11.975349 106.862 -167.6457
12.062128 106.869 -167.9412
12.149535 106.875 -168.2342
12.237576 106.881 -168.5246
12.326254 106.887 -168.8124
12.415575 106.894 -169.0972
12.505544 106.900 -169.3791
12.596164 106.906 -169.6579
12.687441 106.912 -169.9336
12.779379 106.918 -170.2065
12.871984 106.924 -170.4767
12.965260 106.930 -170.7445
13.059211 106.936 -171.0104
13.153843 106.943 -171.2747
13.249161 106.949 -171.5380
13.345170 106.955 -171.8007
13.441875 106.961 -172.0632
13.539280 106.967 -172.3257
13.637391 106.972 -172.5884
13.736214 106.977 -172.8513
13.835752 106.981 -173.1142
13.936011 106.985 -173.3769
14.036998 106.988 -173.6389
14.138716 106.990 -173.8997
14.241171 106.991 -174.1590
14.344368 106.991 -174.4160
14.448313 106.991 -174.6707
14.553011 106.990 -174.9229
14.658468 106.989 -175.1726
14.764689 106.987 -175.4203
14.871680 106.985 -175.6665
14.979446 106.983 -175.9122
15.087994 106.981 -176.1586
15.197328 106.979 -176.4068
15.307454 106.976 -176.6581
15.418378 106.974 -176.9137
15.530106 106.970 -177.1745
15.642643 106.966 -177.4413
15.755996 106.962 -177.7142
15.870171 106.955 -177.9930
15.985172 106.948 -178.2769
16.101007 106.939 -178.5647
16.217682 106.928 -178.8547
16.335201 106.915 -179.1451
16.453573 106.901 -179.4337
16.572803 106.885 -179.7186
16.692898 106.868 -179.9980
16.813862 106.849 179.7295
16.935701 106.830 179.4645
17.058424 106.811 179.2073
17.182035 106.793 178.9570
17.306543 106.775 178.7124
17.431953 106.758 178.4714
17.558273 106.742 178.2316
17.685509 106.728 177.9905
17.813665 106.715 177.7454
17.942751 106.703 177.4943
18.072771 106.692 177.2354
18.203733 106.682 176.9679
18.335646 106.672 176.6915
18.468513 106.661 176.4070
18.602345 106.650 176.1159
18.737144 106.638 175.8201
18.872921 106.626 175.5219
19.009682 106.612 175.2234
19.147434 106.598 174.9268
19.286184 106.584 174.6335
19.425940 106.571 174.3441
19.566708 106.557 174.0588
19.708496 106.544 173.7765
19.851313 106.532 173.4958
19.995163 106.521 173.2149
20.140057 106.511 172.9317
20.285999 106.501 172.6446
20.433001 106.491 172.3523
20.581066 106.481 172.0547
20.730206 106.470 171.7524
20.880424 106.458 171.4471
21.031733 106.444 171.1417
21.184137 106.429 170.8393
21.337646 106.411 170.5437
21.492268 106.391 170.2584
21.648010 106.370 169.9867
21.804880 106.347 169.7307
21.962887 106.324 169.4917
22.122040 106.301 169.2695
22.282345 106.279 169.0629
22.443811 106.257 168.8697
22.606449 106.236 168.6870
22.770266 106.217 168.5117
22.935268 106.199 168.3408
23.101467 106.182 168.1717
23.268869 106.166 168.0025
23.437485 106.151 167.8320
23.607323 106.135 167.6594
23.778391 106.121 167.4841
23.950699 106.106 167.3055
24.124256 106.092 167.1226
24.299070 106.078 166.9338
24.475151 106.065 166.7371
24.652508 106.052 166.5302
24.831150 106.039 166.3111
25.011087 106.025 166.0783
25.192327 106.011 165.8316
25.374882 105.995 165.5721
25.558758 105.976 165.3027
25.743967 105.956 165.0272
25.930519 105.932 164.7503
26.118422 105.907 164.4769
26.307686 105.880 164.2108
26.498322 105.851 163.9547
26.690340 105.823 163.7096
26.883749 105.794 163.4749
27.078560 105.767 163.2489
27.274782 105.740 163.0294
27.472427 105.715 162.8146
27.671503 105.691 162.6038
27.872023 105.668 162.3971
28.073996 105.645 162.1957
28.277431 105.624 162.0010
28.482342 105.604 161.8133
28.688736 105.586 161.6318
28.896626 105.570 161.4537
29.106022 105.557 161.2745
29.316936 105.547 161.0895
29.529379 105.538 160.8940
29.743361 105.530 160.6855
29.958893 105.523 160.4635
30.175987 105.514 160.2301
30.394655 105.504 159.9885
30.614908 105.492 159.7418
30.836756 105.479 159.4915
31.060211 105.465 159.2364
31.285286 105.449 158.9731
31.511992 105.433 158.6971
31.740341 105.413 158.4053
31.970345 105.389 158.0984
32.202015 105.359 157.7829
32.435364 105.322 157.4703
32.670403 105.277 157.1763
32.907146 105.225 156.9168
33.145607 105.169 156.7036
33.385796 105.111 156.5406
33.627724 105.056 156.4221
33.871403 105.005 156.3333
34.116848 104.959 156.2546
34.364071 104.918 156.1674
34.613087 104.879 156.0599
34.863907 104.839 155.9309
35.116547 104.796 155.7900
35.371017 104.749 155.6541
35.627331 104.699 155.5412
35.885502 104.649 155.4637
36.145542 104.603 155.4232
36.407467 104.563 155.4084
36.671291 104.532 155.3987
36.937027 104.509 155.3690
37.204689 104.493 155.2981
37.474289 104.481 155.1747
37.745842 104.468 154.9996
38.019363 104.452 154.7843
38.294868 104.432 154.5460
38.572369 104.407 154.3020
38.851879 104.379 154.0646
39.133415 104.349 153.8391
39.416992 104.320 153.6245
39.702625 104.290 153.4163
39.990326 104.261 153.2102
40.280113 104.232 153.0044
40.571999 104.202 152.8000
40.866001 104.171 152.6000
41.162132 104.139 152.4081
41.460411 104.106 152.2269
41.760849 104.073 152.0587
42.063465 104.040 151.9054
42.368275 104.007 151.7682
42.675293 103.975 151.6464
42.984535 103.945 151.5362
43.296021 103.918 151.4296
43.609760 103.893 151.3168
43.925774 103.869 151.1899
44.244080 103.844 151.0471
44.564690 103.816 150.8933
44.887623 103.784 150.7380
45.212898 103.749 150.5892
45.540531 103.711 150.4499
45.870537 103.671 150.3177
46.202934 103.627 150.1906
46.537739 103.580 150.0725
46.874969 103.526 149.9757
47.214645 103.469 149.9153
47.556782 103.410 149.8991
47.901398 103.352 149.9210
48.248512 103.297 149.9648
48.598141 103.245 150.0180
48.950302 103.192 150.0842
49.305016 103.140 150.1828
49.662300 103.093 150.3310
50.022175 103.057 150.5183
50.384655 103.041 150.6935
50.749763 103.044 150.7800
51.117516 103.057 150.7140
51.487934 103.068 150.4809
51.861038 103.065 150.1236
52.236843 103.044 149.7170
52.615372 103.009 149.3279
52.996643 102.970 148.9844
53.380680 102.932 148.6744
53.767498 102.897 148.3706
54.157120 102.863 148.0605
54.549564 102.826 147.7576
54.944855 102.787 147.4886
55.343006 102.750 147.2708
55.744045 102.717 147.0998
56.147991 102.691 146.9563
56.554863 102.670 146.8203
56.964684 102.652 146.6805
57.377472 102.634 146.5320
57.793251 102.615 146.3700
58.212044 102.591 146.1918
58.633873 102.558 146.0049
59.058758 102.513 145.8320
59.486721 102.457 145.7030
59.917786 102.395 145.6358
60.351974 102.332 145.6209
60.789310 102.274 145.6220
61.229816 102.222 145.5936
61.673512 102.172 145.5037
62.120422 102.123 145.3445
62.570572 102.073 145.1259
63.023983 102.025 144.8587
63.480682 101.980 144.5437
63.940689 101.943 144.1723
64.404030 101.912 143.7372
64.870728 101.888 143.2390
65.340805 101.868 142.6814
65.814293 101.849 142.0648
66.291214 101.824 141.3947
66.771591 101.782 140.7107
67.255447 101.711 140.1143
67.742805 101.610 139.7580
68.233696 101.490 139.7830
68.728142 101.380 140.2315
69.226173 101.305 140.9991
69.727814 101.276 141.8770
70.233093 101.283 142.6616
70.742035 101.307 143.2413
71.254662 101.328 143.6058
71.771004 101.335 143.8024
72.291084 101.322 143.8912
72.814934 101.292 143.9194
73.342583 101.250 143.9133
73.874054 101.200 143.8828
74.409378 101.146 143.8345
74.948578 101.090 143.7834
75.491684 101.036 143.7506
76.038727 100.986 143.7502
76.589737 100.944 143.7809
77.144737 100.908 143.8337
77.703758 100.874 143.9075
78.266830 100.841 144.0090
78.833984 100.805 144.1375
79.405251 100.768 144.2709
79.980652 100.725 144.3751
80.560226 100.672 144.4309
81.143997 100.606 144.4485
81.732002 100.529 144.4503
82.324265 100.449 144.4391
82.920822 100.374 144.3878
83.521698 100.306 144.2640
84.126930 100.243 144.0704
84.736549 100.182 143.8631
85.350586 100.127 143.7274
85.969070 100.086 143.7228
86.592041 100.068 143.8424
87.219521 100.074 144.0224
87.851547 100.095 144.1922
88.488159 100.117 144.3181
89.129379 100.125 144.4073
89.775246 100.114 144.4838
90.425797 100.080 144.5623
91.081062 100.028 144.6390
91.741074 99.961 144.6961
92.405869 99.884 144.7152
93.075478 99.803 144.6921
93.749939 99.725 144.6373
94.429291 99.658 144.5604
95.113564 99.607 144.4643
95.802795 99.574 144.3661
96.497025 99.556 144.3049
97.196281 99.557 144.3048
97.900604 99.576 144.3373
98.610031 99.603 144.3389
99.324600 99.623 144.2690
100.044350 99.619 144.1519
100.769310 99.581 144.0685
101.499527 99.513 144.1013
102.235031 99.429 144.2665
102.975868 99.339 144.5022
103.722076 99.243 144.7382
104.473686 99.133 144.9820
105.230743 99.007 145.3324
105.993286 98.877 145.9018
106.761360 98.761 146.7220
107.534996 98.680 147.7141
108.314240 98.643 148.7201
109.099129 98.644 149.5582
109.889709 98.662 150.0993
110.686012 98.671 150.3387
111.488091 98.646 150.4038
112.295982 98.583 150.4952
113.109726 98.494 150.7750
113.929367 98.403 151.2397
114.754944 98.328 151.7234
115.586502 98.265 152.0660
116.424088 98.207 152.2241
117.267746 98.156 152.2110
118.117516 98.116 152.0189
118.973442 98.091 151.6314
119.835571 98.080 151.0854
120.703949 98.085 150.4731
121.578621 98.113 149.8442
122.459633 98.164 149.1583
123.347023 98.220 148.4026
124.240845 98.266 147.6894
125.141144 98.304 147.1705
126.047966 98.347 146.9109
126.961365 98.407 146.8983
127.881378 98.487 147.1396
128.808060 98.592 147.6393
129.741455 98.718 148.3011
130.681610 98.843 148.9985
131.628586 98.931 149.7156
132.582428 98.958 150.5337
133.543182 98.920 151.5091
134.510895 98.834 152.5520
135.485611 98.723 153.4216
136.467392 98.611 153.8567
137.456284 98.519 153.7085
138.452347 98.469 152.9937
139.455627 98.472 151.8873
140.466187 98.527 150.6685
141.484070 98.616 149.5856
142.509323 98.708 148.7187
143.542007 98.756 147.9950
144.582169 98.716 147.3637
145.629868 98.577 146.8731
146.685165 98.365 146.5523
147.748108 98.124 146.3858
148.818756 97.887 146.4287
149.897156 97.676 146.8447
150.983368 97.499 147.7711
152.077454 97.352 149.1924
153.179474 97.230 150.9111
154.289474 97.142 152.4911
155.407516 97.116 153.2563
156.533661 97.178 152.4560
157.667969 97.329 149.7168
158.810501 97.535 145.4493
159.961304 97.735 140.7505
161.120453 97.862 136.9453
162.287994 97.883 135.0796
163.464005 97.809 135.5603
164.648529 97.684 138.0080
165.841644 97.547 141.4500
167.043396 97.416 144.8388
168.253860 97.292 147.5007
169.473099 97.180 149.2408
170.701172 97.086 150.2134
171.938141 97.018 150.7194
173.184082 96.975 151.0309
174.439041 96.948 151.2998
175.703094 96.924 151.5585
176.976318 96.895 151.7777
178.258759 96.859 151.9263
179.550491 96.819 152.0056
180.851593 96.778 152.0457
182.162125 96.737 152.0737
183.482147 96.695 152.0828
184.811737 96.649 152.0416
186.150955 96.602 151.9286
187.499878 96.562 151.7603
188.858582 96.537 151.6005
190.227127 96.533 151.5393
191.605591 96.547 151.6436
192.994049 96.565 151.9512
194.392563 96.572 152.4804
195.801208 96.561 153.1751
197.220062 96.538 153.8805
198.649200 96.515 154.3770
200.088699 96.513 154.4659
201.538620 96.550 154.0796
202.999054 96.635 153.3186
204.470062 96.752 152.3933
205.951736 96.863 151.5438
207.444153 96.920 150.9810
208.947372 96.890 150.8800
210.461487 96.776 151.2881
211.986572 96.608 152.0470
213.522720 96.425 152.8960
215.069992 96.258 153.6409
216.628479 96.123 154.2264
218.198257 96.023 154.6916
219.779419 95.948 155.0889
221.372025 95.888 155.4387
222.976181 95.838 155.7342
224.591965 95.797 155.9695
226.219452 95.765 156.1558
227.858734 95.741 156.3149
229.509888 95.722 156.4652
231.173004 95.705 156.6132
232.848175 95.690 156.7601
234.535492 95.675 156.9106
236.235031 95.661 157.0731
237.946884 95.646 157.2507
239.671143 95.627 157.4362
241.407898 95.601 157.6195
243.157242 95.568 157.7968
244.919266 95.531 157.9691
246.694046 95.493 158.1397
248.481689 95.456 158.3132
250.282288 95.421 158.4930
252.095932 95.388 158.6801
253.922729 95.356 158.8716
255.762756 95.328 159.0605
257.616119 95.302 159.2399
259.482910 95.280 159.4110
261.363220 95.260 159.5882
263.257172 95.242 159.7889
265.164856 95.227 160.0168
267.086365 95.213 160.2624
269.021790 95.200 160.5153
270.971222 95.187 160.7711
272.934784 95.173 161.0273
274.912567 95.157 161.2775
276.904694 95.138 161.5140
278.911255 95.116 161.7325
280.932373 95.093 161.9339
282.968140 95.070 162.1253
285.018646 95.050 162.3139
287.084015 95.031 162.5018
289.164337 95.013 162.6860
291.259735 94.995 162.8627
293.370331 94.976 163.0298
295.496216 94.958 163.1883
297.637512 94.939 163.3417
299.794312 94.921 163.4925
301.966736 94.904 163.6401
304.154907 94.887 163.7844
306.358948 94.869 163.9286
308.578949 94.851 164.0782
310.815033 94.833 164.2378
313.067322 94.815 164.4109
315.335938 94.797 164.5995
317.621002 94.779 164.8024
319.922607 94.760 165.0167
322.240906 94.741 165.2390
324.575989 94.722 165.4667
326.928009 94.704 165.6988
329.297058 94.686 165.9337
331.683289 94.669 166.1682
334.086792 94.653 166.3999
336.507721 94.638 166.6282
338.946198 94.623 166.8529
341.402344 94.608 167.0719
343.876282 94.592 167.2826
346.368164 94.575 167.4857
348.878082 94.557 167.6842
351.406189 94.538 167.8814
353.952637 94.521 168.0799
356.517517 94.504 168.2831
359.100983 94.488 168.4942
361.703186 94.472 168.7148
364.324249 94.456 168.9442
366.964294 94.440 169.1791
369.623474 94.425 169.4151
372.301910 94.409 169.6475
374.999756 94.394 169.8740
377.717163 94.379 170.0960
380.454254 94.364 170.3172
383.211182 94.350 170.5411
385.988098 94.337 170.7691
388.785126 94.324 171.0016
391.602417 94.312 171.2386
394.440125 94.300 171.4803
397.298401 94.290 171.7256
400.177399 94.280 171.9731
403.077240 94.270 172.2213
405.998108 94.260 172.4691
408.940125 94.251 172.7157
411.903473 94.241 172.9613
414.888306 94.230 173.2073
417.894745 94.219 173.4572
420.922974 94.208 173.7142
423.973145 94.198 173.9791
427.045441 94.189 174.2490
430.139984 94.182 174.5192
433.256958 94.176 174.7854
436.396515 94.171 175.0456
439.558838 94.167 175.3004
442.744049 94.163 175.5512
445.952362 94.161 175.7973
449.183929 94.160 176.0343
452.438904 94.160 176.2562
455.717468 94.159 176.4588
459.019775 94.156 176.6450
462.346008 94.149 176.8255
465.696350 94.139 177.0119
469.070984 94.127 177.2103
472.470062 94.114 177.4209
475.893768 94.102 177.6407
479.342285 94.091 177.8646
482.815796 94.082 178.0875
486.314484 94.073 178.3089
489.838531 94.063 178.5349
493.388092 94.053 178.7739
496.963379 94.044 179.0310
500.564575 94.036 179.3047
504.191864 94.030 179.5876
507.845459 94.025 179.8703
511.525513 94.020 -179.8531
515.232239 94.014 -179.5835
518.965820 94.007 -179.3176
522.726440 93.999 -179.0499
526.514343 93.991 -178.7735
530.329712 93.982 -178.4834
534.172729 93.975 -178.1813
538.043579 93.970 -177.8747
541.942444 93.966 -177.5708
545.869568 93.963 -177.2720
549.825134 93.961 -176.9764
553.809387 93.960 -176.6825
557.822510 93.959 -176.3904
561.864746 93.959 -176.1018
565.936279 93.958 -175.8174
570.037292 93.957 -175.5354
574.168030 93.956 -175.2508
578.328674 93.955 -174.9599
582.519470 93.954 -174.6629
586.740662 93.952 -174.3611
590.992432 93.950 -174.0532
595.275024 93.949 -173.7380
599.588623 93.947 -173.4169
603.933472 93.948 -173.0937
608.309814 93.949 -172.7715
612.717896 93.951 -172.4512
617.157898 93.953 -172.1309
621.630066 93.955 -171.8041
626.134644 93.957 -171.4623
630.671875 93.959 -171.1014
635.242004 93.964 -170.7250
639.845215 93.971 -170.3400
644.481812 93.980 -169.9508
649.151978 93.991 -169.5597
653.856018 94.005 -169.1710
658.594116 94.023 -168.7924
663.366577 94.042 -168.4340
668.173584 94.062 -168.1029
673.015442 94.081 -167.7970
677.892395 94.098 -167.5064
682.804688 94.112 -167.2209
687.752563 94.125 -166.9339
692.736328 94.138 -166.6411
697.756165 94.150 -166.3382
702.812378 94.162 -166.0222
707.905273 94.176 -165.6935
713.035034 94.190 -165.3550
718.201965 94.205 -165.0110
723.406372 94.221 -164.6640
728.648499 94.236 -164.3154
733.928589 94.253 -163.9658
739.246948 94.270 -163.6139
744.603821 94.288 -163.2572
749.999512 94.307 -162.8933
755.434326 94.326 -162.5213
760.908508 94.346 -162.1412
766.422363 94.367 -161.7539
771.976196 94.389 -161.3615
777.570251 94.411 -160.9671
783.204834 94.435 -160.5726
788.880249 94.460 -160.1774
794.596802 94.487 -159.7798
800.354797 94.518 -159.3779
806.154480 94.551 -158.9723
811.996216 94.589 -158.5664
817.880249 94.631 -158.1661
823.806946 94.676 -157.7794
829.776611 94.722 -157.4149
835.789490 94.768 -157.0762
841.845947 94.813 -156.7584
847.946289 94.856 -156.4525
854.090881 94.898 -156.1507
860.279968 94.938 -155.8476
866.513916 94.977 -155.5389
872.793030 95.017 -155.2207
879.117676 95.057 -154.8940
885.488098 95.099 -154.5655
891.904724 95.143 -154.2415
898.367859 95.189 -153.9232
904.877808 95.235 -153.6063
911.434937 95.282 -153.2872
918.039551 95.331 -152.9660
924.692017 95.381 -152.6451
931.392700 95.434 -152.3281
938.141968 95.489 -152.0193
944.940125 95.545 -151.7209
951.787537 95.601 -151.4321
958.684570 95.657 -151.1507
965.631592 95.714 -150.8742
972.628967 95.771 -150.5988
979.677063 95.829 -150.3228
986.776184 95.887 -150.0477
993.926758 95.946 -149.7751
1001.129150 96.005 -149.5031
1008.383728 96.066 -149.2280
1015.690918 96.129 -148.9495
1023.051025 96.196 -148.6709
1030.464478 96.267 -148.3976
1037.931641 96.342 -148.1390
1045.452881 96.420 -147.9065
1053.028687 96.498 -147.7063
1060.659424 96.576 -147.5362
1068.345459 96.652 -147.3889
1076.087158 96.726 -147.2565
1083.884888 96.799 -147.1344
1091.739136 96.871 -147.0216
1099.650269 96.944 -146.9184
1107.618774 97.017 -146.8248
1115.645020 97.090 -146.7414
1123.729492 97.162 -146.6684
1131.872559 97.234 -146.6055
1140.074585 97.306 -146.5520
1148.336060 97.377 -146.5065
1156.657349 97.448 -146.4668
1165.038940 97.518 -146.4299
1173.481323 97.588 -146.3927
1181.984863 97.660 -146.3536
1190.550049 97.733 -146.3177
1199.177246 97.808 -146.2961
1207.866943 97.885 -146.3012
1216.619629 97.960 -146.3383
1225.435791 98.034 -146.4035
1234.315796 98.105 -146.4886
1243.260132 98.172 -146.5865
1252.269287 98.237 -146.6911
1261.343750 98.299 -146.7994
1270.484009 98.359 -146.9102
1279.690430 98.417 -147.0220
1288.963623 98.473 -147.1323
1298.303955 98.528 -147.2398
1307.712036 98.583 -147.3463
1317.188232 98.637 -147.4553
1326.733154 98.690 -147.5692
1336.347168 98.742 -147.6879
1346.030884 98.791 -147.8091
1355.784790 98.840 -147.9310
1365.609375 98.886 -148.0515
1375.505127 98.932 -148.1661
1385.472656 98.977 -148.2692
1395.512329 99.022 -148.3588
1405.624756 99.069 -148.4393
1415.810547 99.119 -148.5215
1426.070068 99.170 -148.6192
1436.403931 99.222 -148.7409
1446.812744 99.273 -148.8868
1457.296997 99.322 -149.0509
1467.857178 99.369 -149.2263
1478.493896 99.412 -149.4081
1489.207642 99.452 -149.5923
1499.999023 99.488 -149.7755
1510.868652 99.522 -149.9538
1521.817017 99.552 -150.1229
1532.844727 99.579 -150.2782
1543.952393 99.605 -150.4160
1555.140503 99.630 -150.5347
1566.409668 99.656 -150.6370
1577.760498 99.684 -150.7321
1589.193604 99.714 -150.8324
1600.709595 99.744 -150.9458
1612.308960 99.773 -151.0717
1623.992432 99.799 -151.2027
1635.760498 99.823 -151.3295
1647.613892 99.845 -151.4443
1659.553223 99.865 -151.5414
1671.578979 99.883 -151.6184
1683.691895 99.900 -151.6756
1695.892578 99.916 -151.7161
1708.181763 99.932 -151.7432
1720.559937 99.948 -151.7584
1733.027832 99.964 -151.7602
1745.586060 99.980 -151.7442
1758.235352 99.996 -151.7039
1770.976196 100.014 -151.6333
1783.809448 100.035 -151.5327
1796.735718 100.061 -151.4114
1809.755615 100.092 -151.2855
1822.869873 100.129 -151.1682
1836.079102 100.169 -151.0648
1849.384033 100.211 -150.9748
1862.785400 100.256 -150.8951
1876.283936 100.301 -150.8223
1889.880249 100.348 -150.7537
1903.575073 100.397 -150.6881
1917.369141 100.448 -150.6252
1931.263184 100.502 -150.5664
1945.257935 100.560 -150.5165
1959.354126 100.621 -150.4860
1973.552368 100.684 -150.4871
1987.853516 100.749 -150.5253
2002.258301 100.811 -150.5965
2016.767456 100.871 -150.6907
2031.381836 100.927 -150.7962
2046.102051 100.980 -150.9020
2060.928955 101.031 -151.0002
2075.863281 101.082 -151.0878
2090.905762 101.133 -151.1655
2106.057373 101.186 -151.2362
2121.318848 101.241 -151.3031
2136.690918 101.300 -151.3700
2152.174316 101.362 -151.4419
2167.769775 101.430 -151.5295
2183.478271 101.503 -151.6501
2199.300537 101.578 -151.8212
2215.237549 101.654 -152.0526
2231.290039 101.726 -152.3435
2247.458984 101.791 -152.6844
2263.745117 101.849 -153.0594
2280.149170 101.897 -153.4495
2296.672119 101.937 -153.8355
2313.314697 101.970 -154.2015
2330.077881 101.999 -154.5391
2346.962646 102.026 -154.8505
2363.969727 102.051 -155.1442
2381.100098 102.076 -155.4276
2398.354492 102.099 -155.7033
2415.733887 102.121 -155.9699
2433.239258 102.142 -156.2245
2450.871582 102.161 -156.4643
2468.631592 102.180 -156.6884
2486.520264 102.197 -156.8966
2504.538574 102.215 -157.0870
2522.687500 102.232 -157.2552
2540.968018 102.250 -157.3966
2559.380859 102.272 -157.5131
2577.927246 102.298 -157.6145
2596.607910 102.328 -157.7132
2615.424072 102.361 -157.8190
2634.376465 102.397 -157.9366
2653.466309 102.435 -158.0659
2672.694336 102.473 -158.2029
2692.061768 102.514 -158.3437
2711.569580 102.558 -158.4891
2731.218750 102.606 -158.6485
2751.010254 102.658 -158.8370
2770.945312 102.714 -159.0676
2791.024658 102.770 -159.3473
2811.249512 102.824 -159.6757
2831.621094 102.874 -160.0479
2852.140137 102.920 -160.4569
2872.807861 102.958 -160.8936
2893.625488 102.990 -161.3444
2914.593994 103.014 -161.7923
2935.714355 103.032 -162.2225
2956.987793 103.047 -162.6295
2978.415283 103.060 -163.0161
2999.998047 103.071 -163.3891
3021.737305 103.082 -163.7546
3043.634033 103.091 -164.1148
3065.689453 103.099 -164.4672
3087.904785 103.105 -164.8079
3110.281006 103.110 -165.1374
3132.819336 103.117 -165.4630
3155.520996 103.124 -165.7958
3178.387207 103.131 -166.1446
3201.419189 103.136 -166.5116
3224.617920 103.136 -166.8917
3247.984863 103.130 -167.2737
3271.520996 103.115 -167.6400
3295.227783 103.093 -167.9669
3319.106445 103.065 -168.2295
3343.157959 103.035 -168.4129
3367.383789 103.008 -168.5167
3391.785156 102.989 -168.5537
3416.363525 102.980 -168.5440
3441.119873 102.981 -168.5082
3466.055664 102.994 -168.4633
3491.172119 103.017 -168.4241
3516.470703 103.051 -168.4074
3541.952393 103.095 -168.4308
3567.618896 103.148 -168.5099
3593.471436 103.207 -168.6555
3619.511230 103.270 -168.8744
3645.739746 103.335 -169.1686
3672.158203 103.398 -169.5336
3698.768066 103.458 -169.9587
3725.570801 103.515 -170.4335
3752.567871 103.569 -170.9537
3779.760498 103.619 -171.5209
3807.150146 103.665 -172.1375
3834.738281 103.706 -172.8019
3862.526367 103.740 -173.5060
3890.515869 103.768 -174.2406
3918.708252 103.789 -175.0004
3947.104736 103.805 -175.7853
3975.707031 103.816 -176.5975
4004.516602 103.821 -177.4404
4033.534912 103.818 -178.3160
4062.763672 103.806 -179.2206
4092.204102 103.783 179.8558
4121.857910 103.751 178.9241
4151.726562 103.708 177.9914
4181.811523 103.656 177.0601
4212.114746 103.594 176.1335
4242.637695 103.521 175.2198
4273.381836 103.438 174.3301
4304.348633 103.347 173.4729
4335.539551 103.247 172.6506
4366.956543 103.142 171.8604
4398.601074 103.032 171.0959
4430.475098 102.915 170.3510
4462.580078 102.791 169.6247
4494.917969 102.659 168.9223
4527.490234 102.518 168.2502
4560.298340 102.369 167.6127
4593.344238 102.212 167.0144
4626.629395 102.046 166.4648
4660.155762 101.871 165.9785
4693.925293 101.688 165.5684
4727.939453 101.500 165.2415
4762.200195 101.309 164.9967
4796.708984 101.117 164.8261
4831.467773 100.925 164.7205
4866.478516 100.733 164.6753
4901.743164 100.540 164.6901
4937.263184 100.347 164.7627
4973.040527 100.154 164.8892
5009.077148 99.959 165.0688
5045.375000 99.763 165.3094
5081.936035 99.565 165.6226
5118.761719 99.368 166.0176
5155.854492 99.173 166.4965
5193.215820 98.983 167.0522
5230.848145 98.798 167.6737
5268.752930 98.619 168.3522
5306.932617 98.446 169.0814
5345.388672 98.280 169.8543
5384.123535 98.118 170.6650
5423.139160 97.961 171.5137
5462.437500 97.807 172.4086
5502.020508 97.657 173.3599
5541.890625 97.512 174.3742
5582.049316 97.375 175.4502
5622.499023 97.245 176.5809
5663.242188 97.124 177.7581
5704.280273 97.013 178.9724
5745.615723 96.912 -179.7875
5787.250977 96.820 -178.5313
5829.187988 96.735 -177.2623
5871.428711 96.657 -175.9754
5913.975586 96.585 -174.6618
5956.830566 96.521 -173.3145
5999.996094 96.465 -171.9315
6043.474609 96.418 -170.5129
6087.268066 96.381 -169.0611
6131.378906 96.355 -167.5844
6175.809570 96.340 -166.0939
6220.562012 96.335 -164.5960
6265.638672 96.340 -163.0898
6311.041992 96.354 -161.5693
6356.774414 96.378 -160.0298
6402.838379 96.414 -158.4711
6449.235840 96.463 -156.8964
6495.969727 96.525 -155.3118
6543.041992 96.602 -153.7265
6590.455566 96.694 -152.1494
6638.212891 96.799 -150.5848
6686.315918 96.919 -149.0322
6734.767578 97.053 -147.4897
6783.570312 97.205 -145.9589
6832.727051 97.375 -144.4453
6882.239746 97.564 -142.9597
6932.111328 97.776 -141.5192
6982.344238 98.009 -140.1434
7032.941406 98.264 -138.8487
7083.904785 98.541 -137.6478
7135.237793 98.840 -136.5538
7186.942871 99.163 -135.5847
7239.022461 99.510 -134.7643
7291.479492 99.880 -134.1239
7344.316406 100.271 -133.7019
7397.536133 100.679 -133.5373
7451.141602 101.099 -133.6631
7505.135742 101.525 -134.1044
7559.520996 101.948 -134.8794
7614.300293 102.362 -135.9985
7669.476562 102.756 -137.4632
7725.052734 103.122 -139.2651
7781.031738 103.448 -141.3805
7837.416504 103.724 -143.7645
7894.209473 103.943 -146.3492
7951.414062 104.098 -149.0500
8009.033203 104.189 -151.7729
8067.069824 104.220 -154.4251
8125.527344 104.199 -156.9279
8184.408203 104.136 -159.2252
8243.715820 104.043 -161.2839
8303.453125 103.931 -163.0931
8363.623047 103.812 -164.6630
8424.229492 103.695 -166.0202
8485.275391 103.587 -167.2042
8546.763672 103.491 -168.2633
8608.697266 103.409 -169.2446
8671.079102 103.339 -170.1828
8733.913086 103.277 -171.0946
8797.202148 103.221 -171.9796
8860.950195 103.171 -172.8275
8925.160156 103.130 -173.6298
8989.835938 103.101 -174.3886
9054.980469 103.089 -175.1171
9120.596680 103.099 -175.8388
9186.688477 103.136 -176.5863
9253.258789 103.204 -177.4024
9320.311523 103.307 -178.3449
9387.850586 103.447 -179.4894
9455.878906 103.623 179.0757
9524.400391 103.826 177.2598
9593.417969 104.046 174.9814
9662.935547 104.266 172.1799
9732.957031 104.465 168.8201
9803.486328 104.621 164.8979
9874.526367 104.710 160.4485
9946.081055 104.708 155.5519
10018.154297 104.592 150.3357
10090.750000 104.350 144.9669
10163.872070 103.972 139.6330
10237.523438 103.462 134.5195
10311.708984 102.829 129.7913
10386.431641 102.086 125.5826
10461.696289 101.253 121.9937
10537.505859 100.350 119.0887
10613.865234 99.397 116.8945
10690.777344 98.416 115.4017
10768.247070 97.428 114.5709
10846.278320 96.447 114.3455
10924.875000 95.486 114.6629
11004.041016 94.556 115.4584
11083.781250 93.664 116.6653
11164.098633 92.815 118.2161
11244.998047 92.009 120.0509
11326.484375 91.249 122.1222
11408.560547 90.532 124.3926
11491.231445 89.858 126.8280
11574.501953 89.225 129.3925
11658.375977 88.633 132.0551
11742.857422 88.078 134.7943
11827.951172 87.560 137.5964
11913.661133 87.077 140.4483
11999.992188 86.627 143.3376
12086.949219 86.209 146.2585
12174.536133 85.817 149.2098
12262.757812 85.451 152.1823
12351.619141 85.113 155.1553
12441.124023 84.802 158.1050
12531.277344 84.518 161.0153
12622.083984 84.260 163.8799
12713.548828 84.028 166.6942
12805.676758 83.823 169.4456
12898.471680 83.641 172.1165
12991.939453 83.482 174.6911
13086.083984 83.343 177.1580
13180.911133 83.222 179.5070
13276.425781 83.116 -178.2719
13372.631836 83.025 -176.1861
13469.535156 82.946 -174.2407
13567.140625 82.878 -172.4432
13665.454102 82.818 -170.8055
13764.479492 82.764 -169.3391
13864.222656 82.712 -168.0492
13964.688477 82.660 -166.9357
14065.882812 82.604 -165.9957
14167.809570 82.540 -165.2195
14270.475586 82.462 -164.5858
14373.885742 82.367 -164.0642
14478.044922 82.252 -163.6202
14582.958984 82.118 -163.2173
14688.632812 81.968 -162.8204
14795.072266 81.809 -162.4078
14902.283203 81.650 -161.9821
15010.271484 81.499 -161.5703
15119.041992 81.362 -161.2178
15228.600586 81.241 -160.9843
15338.953125 81.134 -160.9350
15450.105469 81.033 -161.1267
15562.063477 80.930 -161.5961
15674.833008 80.817 -162.3583
15788.418945 80.688 -163.4134
15902.828125 80.539 -164.7574
16018.066406 80.370 -166.3943
16134.139648 80.181 -168.3466
16251.054688 79.967 -170.6570
16368.816406 79.720 -173.3779
16487.431641 79.425 -176.5516
16606.906250 79.059 179.8151
16727.246094 78.597 175.7794
16848.458984 78.013 171.4717
16970.550781 77.286 167.0823
17093.527344 76.404 162.8356
17217.394531 75.368 158.9673
17342.158203 74.192 155.6984
17467.826172 72.904 153.2134
17594.404297 71.555 151.6465
17721.900391 70.216 151.0773
17850.320312 68.972 151.5422
17979.671875 67.870 153.0740
18109.960938 66.853 155.7660
18241.193359 65.774 159.7858
18373.376953 64.519 165.2552
18506.517578 63.071 172.1736
18640.623047 61.472 -179.5854
18775.701172 59.798 -170.2826
18911.757812 58.133 -160.2855
19048.800781 56.569 -149.9744
19186.835938 55.185 -139.5993
19325.871094 54.029 -129.1667
19465.914062 53.106 -118.5830
19606.972656 52.395 -108.0469
19749.052734 51.868 -98.3210
19892.162109 51.510 -90.6890
20036.308594 51.326 -86.4765
