* Measurement data measured by REW V5.31
* Source: EXCL: Microphone (USB Sound Device        ), MICROPHONE (Master Volume), L, volume: 0.390
* Format: 256k Log Swept Sine, 1 sweep at -4.0 dBFS with no timing reference
* Dated: Jul 27, 2024 12:34:53 AM
* REW Settings:
*  C-weighting compensation: Off
*  Target level: 75.0 dB
* Note: TRN VX PRO Plus R
* Measurement: R TRN VX Pro+
* Smoothing: 1/12 octave
* Frequency Step: 96 ppo
* Start Frequency: 0.36621094 Hz
*
* Freq(Hz) SPL(dB) Phase(degrees)
0.366211 78.992 -169.7563
0.368865 79.000 -169.7661
0.371538 79.010 -169.7807
0.374230 79.023 -169.7988
0.376942 79.038 -169.8191
0.379673 79.054 -169.8409
0.382424 79.070 -169.8636
0.385196 79.087 -169.8869
0.387987 79.104 -169.9106
0.390798 79.121 -169.9346
0.393630 79.139 -169.9588
0.396483 79.157 -169.9833
0.399356 79.174 -170.0080
0.402250 79.192 -170.0329
0.405165 79.211 -170.0581
0.408101 79.229 -170.0834
0.411058 79.247 -170.1091
0.414037 79.266 -170.1349
0.417037 79.284 -170.1610
0.420059 79.303 -170.1874
0.423103 79.322 -170.2141
0.426169 79.341 -170.2411
0.429257 79.360 -170.2684
0.432368 79.379 -170.2960
0.435501 79.399 -170.3239
0.438656 79.418 -170.3522
0.441835 79.438 -170.3808
0.445037 79.458 -170.4098
0.448262 79.478 -170.4392
0.451510 79.498 -170.4690
0.454782 79.519 -170.4993
0.458077 79.539 -170.5299
0.461397 79.560 -170.5610
0.464740 79.580 -170.5926
0.468108 79.601 -170.6247
0.471500 79.622 -170.6572
0.474917 79.644 -170.6903
0.478358 79.665 -170.7240
0.481825 79.686 -170.7582
0.485316 79.708 -170.7930
0.488833 79.730 -170.8283
0.492375 79.752 -170.8643
0.495943 79.774 -170.9010
0.499537 79.796 -170.9384
0.503157 79.819 -170.9764
0.506803 79.841 -171.0151
0.510475 79.864 -171.0546
0.514175 79.887 -171.0949
0.517900 79.910 -171.1359
0.521653 79.934 -171.1778
0.525434 79.957 -171.2205
0.529241 79.981 -171.2641
0.533076 80.005 -171.3087
0.536939 80.029 -171.3541
0.540830 80.053 -171.4005
0.544749 80.077 -171.4480
0.548696 80.102 -171.4964
0.552673 80.126 -171.5459
0.556677 80.151 -171.5966
0.560711 80.176 -171.6483
0.564774 80.201 -171.7013
0.568867 80.227 -171.7554
0.572989 80.252 -171.8108
0.577141 80.278 -171.8675
0.581324 80.304 -171.9255
0.585536 80.330 -171.9849
0.589779 80.357 -172.0457
0.594053 80.383 -172.1080
0.598358 80.410 -172.1718
0.602694 80.437 -172.2371
0.607061 80.464 -172.3041
0.611460 80.491 -172.3727
0.615891 80.519 -172.4430
0.620354 80.546 -172.5150
0.624849 80.574 -172.5889
0.629377 80.602 -172.6646
0.633938 80.631 -172.7423
0.638532 80.659 -172.8220
0.643159 80.688 -172.9037
0.647819 80.717 -172.9875
0.652514 80.746 -173.0736
0.657242 80.775 -173.1618
0.662005 80.805 -173.2524
0.666802 80.835 -173.3454
0.671634 80.865 -173.4409
0.676501 80.895 -173.5389
0.681403 80.925 -173.6395
0.686341 80.956 -173.7429
0.691314 80.987 -173.8490
0.696324 81.018 -173.9581
0.701370 81.049 -174.0701
0.706452 81.080 -174.1852
0.711571 81.112 -174.3035
0.716728 81.143 -174.4250
0.721921 81.174 -174.5499
0.727153 81.205 -174.6782
0.732422 81.235 -174.8100
0.737729 81.264 -174.9453
0.743075 81.293 -175.0841
0.748460 81.321 -175.2265
0.753883 81.349 -175.3725
0.759346 81.377 -175.5220
0.764849 81.404 -175.6749
0.770391 81.432 -175.8313
0.775974 81.459 -175.9911
0.781597 81.487 -176.1544
0.787261 81.514 -176.3209
0.792966 81.542 -176.4908
0.798712 81.569 -176.6640
0.804500 81.597 -176.8404
0.810329 81.624 -177.0200
0.816201 81.652 -177.2027
0.822116 81.679 -177.3886
0.828073 81.707 -177.5775
0.834074 81.734 -177.7695
0.840118 81.762 -177.9644
0.846206 81.789 -178.1623
0.852338 81.817 -178.3630
0.858514 81.844 -178.5666
0.864735 81.872 -178.7730
0.871001 81.899 -178.9821
0.877313 81.927 -179.1940
0.883670 81.954 -179.4085
0.890074 81.981 -179.6256
0.896524 82.008 -179.8453
0.903020 82.035 179.9326
0.909564 82.063 179.7079
0.916155 82.089 179.4808
0.922794 82.116 179.2513
0.929481 82.143 179.0194
0.936216 82.170 178.7852
0.943000 82.196 178.5488
0.949834 82.223 178.3102
0.956717 82.249 178.0693
0.963649 82.275 177.8263
0.970632 82.301 177.5811
0.977666 82.327 177.3339
0.984750 82.353 177.0845
0.991886 82.379 176.8331
0.999074 82.404 176.5798
1.006314 82.429 176.3243
1.013606 82.454 176.0670
1.020951 82.479 175.8076
1.028349 82.503 175.5463
1.035801 82.528 175.2830
1.043307 82.552 175.0177
1.050867 82.576 174.7504
1.058482 82.599 174.4810
1.066152 82.622 174.2094
1.073878 82.645 173.9353
1.081660 82.668 173.6584
1.089498 82.690 173.3784
1.097393 82.712 173.0944
1.105345 82.734 172.8056
1.113355 82.755 172.5113
1.121423 82.776 172.2109
1.129549 82.797 171.9038
1.137734 82.817 171.5900
1.145979 82.837 171.2692
1.154283 82.857 170.9415
1.162647 82.876 170.6070
1.171072 82.895 170.2658
1.179558 82.913 169.9182
1.188106 82.931 169.5643
1.196715 82.948 169.2044
1.205387 82.966 168.8386
1.214122 82.982 168.4673
1.222920 82.999 168.0905
1.231782 83.014 167.7088
1.240708 83.030 167.3222
1.249699 83.045 166.9312
1.258754 83.059 166.5359
1.267876 83.074 166.1368
1.277063 83.087 165.7342
1.286318 83.100 165.3284
1.295639 83.113 164.9197
1.305027 83.126 164.5087
1.314484 83.137 164.0956
1.324009 83.149 163.6809
1.333604 83.160 163.2650
1.343268 83.170 162.8483
1.353002 83.180 162.4313
1.362806 83.189 162.0145
1.372681 83.198 161.5984
1.382628 83.207 161.1834
1.392647 83.215 160.7701
1.402739 83.222 160.3588
1.412904 83.229 159.9501
1.423142 83.236 159.5443
1.433455 83.242 159.1414
1.443843 83.247 158.7413
1.454305 83.252 158.3437
1.464844 83.256 157.9475
1.475459 83.259 157.5515
1.486150 83.262 157.1545
1.496920 83.264 156.7553
1.507767 83.265 156.3531
1.518693 83.265 155.9476
1.529698 83.265 155.5385
1.540783 83.263 155.1257
1.551948 83.261 154.7094
1.563194 83.258 154.2896
1.574521 83.254 153.8667
1.585931 83.249 153.4409
1.597423 83.243 153.0126
1.608999 83.237 152.5820
1.620658 83.230 152.1495
1.632402 83.222 151.7155
1.644232 83.213 151.2805
1.656146 83.203 150.8448
1.668147 83.193 150.4091
1.680235 83.182 149.9738
1.692411 83.171 149.5394
1.704675 83.159 149.1066
1.717028 83.146 148.6761
1.729470 83.132 148.2484
1.742003 83.118 147.8242
1.754626 83.104 147.4043
1.767341 83.089 146.9893
1.780147 83.073 146.5798
1.793047 83.057 146.1763
1.806040 83.040 145.7791
1.819128 83.022 145.3880
1.832310 83.004 145.0026
1.845587 82.984 144.6222
1.858961 82.963 144.2458
1.872432 82.941 143.8729
1.886001 82.918 143.5026
1.899667 82.894 143.1349
1.913433 82.868 142.7696
1.927299 82.841 142.4066
1.941265 82.814 142.0463
1.955332 82.785 141.6888
1.969501 82.755 141.3345
1.983773 82.724 140.9838
1.998148 82.693 140.6371
2.012627 82.662 140.2950
2.027212 82.630 139.9581
2.041902 82.597 139.6269
2.056698 82.565 139.3022
2.071602 82.533 138.9848
2.086614 82.501 138.6755
2.101734 82.469 138.3753
2.116964 82.438 138.0851
2.132304 82.408 137.8060
2.147756 82.378 137.5391
2.163320 82.349 137.2856
2.178996 82.321 137.0467
2.194786 82.293 136.8235
2.210690 82.266 136.6169
2.226710 82.239 136.4277
2.242845 82.211 136.2563
2.259098 82.184 136.1028
2.275468 82.156 135.9668
2.291957 82.128 135.8480
2.308566 82.100 135.7459
2.325295 82.073 135.6598
2.342145 82.046 135.5890
2.359117 82.020 135.5326
2.376212 81.996 135.4899
2.393431 81.972 135.4598
2.410775 81.951 135.4414
2.428244 81.932 135.4337
2.445840 81.915 135.4357
2.463564 81.901 135.4463
2.481416 81.890 135.4647
2.499397 81.883 135.4902
2.517509 81.879 135.5230
2.535752 81.880 135.5634
2.554127 81.885 135.6131
2.572635 81.894 135.6741
2.591277 81.908 135.7488
2.610055 81.925 135.8390
2.628968 81.947 135.9453
2.648019 81.972 136.0670
2.667208 82.002 136.2026
2.686535 82.035 136.3495
2.706003 82.072 136.5049
2.725612 82.113 136.6656
2.745363 82.157 136.8279
2.765257 82.205 136.9883
2.785295 82.256 137.1431
2.805478 82.310 137.2886
2.825808 82.368 137.4214
2.846285 82.429 137.5383
2.866910 82.494 137.6368
2.887685 82.562 137.7153
2.908611 82.634 137.7734
2.929688 82.709 137.8121
2.950917 82.790 137.8333
2.972301 82.874 137.8394
2.993839 82.964 137.8321
3.015534 83.058 137.8120
3.037386 83.156 137.7791
3.059396 83.259 137.7325
3.081565 83.365 137.6709
3.103896 83.474 137.5928
3.126388 83.586 137.4964
3.149043 83.700 137.3801
3.171862 83.815 137.2420
3.194847 83.931 137.0806
3.217998 84.047 136.8943
3.241317 84.163 136.6819
3.264805 84.279 136.4427
3.288463 84.395 136.1765
3.312293 84.511 135.8837
3.336295 84.628 135.5654
3.360471 84.745 135.2231
3.384822 84.863 134.8586
3.409350 84.981 134.4734
3.434056 85.100 134.0692
3.458940 85.219 133.6476
3.484005 85.339 133.2100
3.509252 85.457 132.7573
3.534681 85.575 132.2906
3.560295 85.691 131.8104
3.586094 85.806 131.3168
3.612081 85.919 130.8097
3.638255 86.031 130.2882
3.664620 86.140 129.7512
3.691175 86.247 129.1977
3.717923 86.352 128.6271
3.744864 86.455 128.0400
3.772001 86.556 127.4379
3.799335 86.656 126.8231
3.826866 86.753 126.1984
3.854597 86.849 125.5668
3.882529 86.943 124.9312
3.910664 87.035 124.2943
3.939002 87.124 123.6581
3.967546 87.212 123.0241
3.996296 87.297 122.3926
4.025255 87.380 121.7628
4.054423 87.460 121.1332
4.083804 87.538 120.5023
4.113396 87.613 119.8694
4.143204 87.686 119.2349
4.173227 87.756 118.6003
4.203468 87.825 117.9679
4.233928 87.891 117.3405
4.264609 87.955 116.7211
4.295512 88.018 116.1124
4.326639 88.079 115.5167
4.357992 88.138 114.9355
4.389572 88.196 114.3693
4.421380 88.252 113.8176
4.453419 88.307 113.2792
4.485691 88.359 112.7534
4.518196 88.411 112.2397
4.550936 88.460 111.7385
4.583914 88.509 111.2506
4.617131 88.557 110.7772
4.650589 88.605 110.3197
4.684289 88.653 109.8798
4.718233 88.701 109.4587
4.752424 88.749 109.0576
4.786862 88.798 108.6768
4.821549 88.848 108.3162
4.856488 88.898 107.9750
4.891680 88.948 107.6519
4.927127 88.999 107.3455
4.962831 89.051 107.0540
4.998794 89.105 106.7761
5.035017 89.160 106.5106
5.071503 89.217 106.2568
5.108253 89.277 106.0144
5.145270 89.339 105.7836
5.182555 89.404 105.5645
5.220110 89.471 105.3564
5.257937 89.540 105.1579
5.296038 89.612 104.9666
5.334415 89.686 104.7796
5.373071 89.762 104.5939
5.412006 89.840 104.4069
5.451224 89.921 104.2166
5.490725 90.004 104.0217
5.530514 90.089 103.8220
5.570590 90.176 103.6176
5.610957 90.265 103.4079
5.651616 90.356 103.1924
5.692570 90.449 102.9697
5.733821 90.542 102.7381
5.775370 90.636 102.4962
5.817221 90.731 102.2425
5.859375 90.825 101.9763
5.901834 90.920 101.6973
5.944602 91.015 101.4060
5.987679 91.109 101.1031
6.031068 91.204 100.7898
6.074771 91.297 100.4668
6.118792 91.390 100.1350
6.163131 91.481 99.7949
6.207792 91.571 99.4469
6.252776 91.659 99.0910
6.298086 91.745 98.7277
6.343725 91.829 98.3578
6.389694 91.911 97.9832
6.435996 91.992 97.6057
6.482634 92.070 97.2273
6.529610 92.146 96.8500
6.576926 92.221 96.4751
6.624585 92.293 96.1031
6.672590 92.363 95.7346
6.720942 92.431 95.3700
6.769645 92.497 95.0106
6.818700 92.562 94.6575
6.868111 92.625 94.3125
6.917881 92.687 93.9767
6.968010 92.748 93.6509
7.018504 92.807 93.3356
7.069362 92.866 93.0305
7.120590 92.924 92.7354
7.172189 92.982 92.4499
7.224161 93.039 92.1738
7.276511 93.097 91.9069
7.329239 93.155 91.6490
7.382350 93.213 91.3998
7.435845 93.271 91.1584
7.489729 93.331 90.9236
7.544002 93.390 90.6938
7.598669 93.451 90.4674
7.653732 93.512 90.2429
7.709194 93.575 90.0193
7.765058 93.638 89.7955
7.821327 93.702 89.5706
7.878004 93.767 89.3435
7.935091 93.832 89.1128
7.992592 93.898 88.8770
8.050510 93.964 88.6350
8.108847 94.030 88.3862
8.167607 94.096 88.1302
8.226793 94.161 87.8670
8.286408 94.227 87.5965
8.346454 94.292 87.3187
8.406936 94.356 87.0336
8.467856 94.419 86.7415
8.529218 94.481 86.4425
8.591024 94.541 86.1376
8.653278 94.601 85.8278
8.715983 94.659 85.5141
8.779143 94.715 85.1975
8.842760 94.771 84.8787
8.906839 94.824 84.5584
8.971381 94.877 84.2375
9.036392 94.928 83.9169
9.101873 94.978 83.5976
9.167829 95.027 83.2803
9.234263 95.075 82.9655
9.301178 95.122 82.6534
9.368578 95.168 82.3439
9.436467 95.214 82.0372
9.504847 95.260 81.7331
9.573723 95.305 81.4314
9.643099 95.350 81.1318
9.712976 95.393 80.8334
9.783361 95.436 80.5356
9.854255 95.476 80.2374
9.925663 95.515 79.9381
9.997588 95.552 79.6370
10.070035 95.587 79.3333
10.143007 95.621 79.0262
10.216507 95.652 78.7151
10.290540 95.683 78.3994
10.365109 95.712 78.0786
10.440219 95.741 77.7527
10.515873 95.768 77.4215
10.592076 95.795 77.0853
10.668830 95.822 76.7441
10.746141 95.848 76.3983
10.824012 95.873 76.0483
10.902447 95.898 75.6949
10.981451 95.922 75.3387
11.061027 95.946 74.9802
11.141180 95.969 74.6200
11.221913 95.991 74.2587
11.303232 96.014 73.8969
11.385140 96.036 73.5350
11.467641 96.058 73.1732
11.550741 96.079 72.8118
11.634442 96.101 72.4507
11.718750 96.124 72.0900
11.803669 96.147 71.7294
11.889203 96.171 71.3687
11.975357 96.195 71.0076
12.062136 96.220 70.6457
12.149543 96.246 70.2827
12.237583 96.272 69.9183
12.326262 96.298 69.5524
12.415583 96.325 69.1848
12.505552 96.352 68.8155
12.596172 96.379 68.4445
12.687449 96.406 68.0721
12.779387 96.433 67.6988
12.871992 96.459 67.3248
12.965268 96.485 66.9507
13.059220 96.512 66.5771
13.153852 96.538 66.2044
13.249170 96.564 65.8332
13.345179 96.591 65.4638
13.441884 96.617 65.0968
13.539289 96.644 64.7322
13.637401 96.671 64.3702
13.736223 96.698 64.0108
13.835761 96.726 63.6539
13.936021 96.753 63.2992
14.037007 96.781 62.9465
14.138725 96.809 62.5956
14.241180 96.836 62.2460
14.344377 96.864 61.8976
14.448323 96.891 61.5502
14.553021 96.918 61.2036
14.658478 96.945 60.8580
14.764700 96.971 60.5134
14.871691 96.998 60.1701
14.979457 97.023 59.8283
15.088005 97.049 59.4883
15.197339 97.074 59.1505
15.307465 97.098 58.8151
15.418389 97.123 58.4823
15.530117 97.146 58.1522
15.642655 97.170 57.8247
15.756008 97.192 57.4997
15.870182 97.215 57.1768
15.985184 97.237 56.8557
16.101019 97.259 56.5358
16.217694 97.280 56.2168
16.335214 97.301 55.8980
16.453586 97.321 55.5792
16.572815 97.341 55.2599
16.692909 97.361 54.9399
16.813872 97.380 54.6194
16.935713 97.399 54.2982
17.058436 97.418 53.9765
17.182048 97.436 53.6546
17.306556 97.453 53.3327
17.431967 97.470 53.0110
17.558286 97.486 52.6896
17.685521 97.501 52.3686
17.813677 97.516 52.0479
17.942762 97.530 51.7272
18.072783 97.544 51.4063
18.203746 97.557 51.0847
18.335658 97.570 50.7621
18.468526 97.583 50.4380
18.602356 97.595 50.1123
18.737156 97.608 49.7845
18.872934 97.620 49.4547
19.009695 97.632 49.1229
19.147447 97.644 48.7892
19.286197 97.656 48.4539
19.425953 97.668 48.1173
19.566721 97.679 47.7796
19.708510 97.690 47.4411
19.851326 97.701 47.1018
19.995177 97.712 46.7618
20.140070 97.722 46.4212
20.286013 97.733 46.0799
20.433014 97.744 45.7377
20.581080 97.754 45.3946
20.730219 97.765 45.0506
20.880439 97.776 44.7057
21.031747 97.787 44.3603
21.184152 97.798 44.0145
21.337661 97.810 43.6686
21.492282 97.821 43.3231
21.648024 97.833 42.9784
21.804895 97.844 42.6347
21.962902 97.856 42.2924
22.122054 97.868 41.9516
22.282360 97.880 41.6124
22.443827 97.891 41.2750
22.606464 97.903 40.9393
22.770280 97.914 40.6053
22.935283 97.925 40.2733
23.101481 97.936 39.9431
23.268884 97.947 39.6150
23.437500 97.957 39.2891
23.607338 97.967 38.9654
23.778406 97.977 38.6441
23.950714 97.986 38.3251
24.124271 97.994 38.0085
24.299086 98.002 37.6940
24.475167 98.009 37.3816
24.652524 98.016 37.0711
24.831166 98.022 36.7624
25.011103 98.028 36.4554
25.192344 98.033 36.1500
25.374898 98.038 35.8461
25.558775 98.042 35.5434
25.743984 98.046 35.2419
25.930536 98.050 34.9411
26.118439 98.053 34.6408
26.307704 98.055 34.3405
26.498341 98.058 34.0400
26.690359 98.060 33.7388
26.883768 98.061 33.4367
27.078579 98.063 33.1337
27.274801 98.063 32.8297
27.472446 98.064 32.5248
27.671522 98.064 32.2190
27.872042 98.063 31.9126
28.074014 98.063 31.6055
28.277450 98.062 31.2978
28.482360 98.061 30.9895
28.688755 98.059 30.6809
28.896645 98.058 30.3719
29.106042 98.056 30.0628
29.316957 98.054 29.7539
29.529400 98.053 29.4453
29.743382 98.051 29.1375
29.958915 98.049 28.8306
30.176009 98.048 28.5251
30.394677 98.046 28.2210
30.614929 98.045 27.9187
30.836778 98.044 27.6185
31.060234 98.042 27.3207
31.285309 98.041 27.0258
31.512015 98.039 26.7338
31.740364 98.038 26.4452
31.970368 98.036 26.1600
32.202039 98.035 25.8783
32.435388 98.034 25.5999
32.670428 98.032 25.3246
32.907171 98.031 25.0521
33.145630 98.030 24.7823
33.385817 98.028 24.5147
33.627745 98.027 24.2488
33.871425 98.027 23.9838
34.116871 98.026 23.7190
34.364096 98.025 23.4535
34.613113 98.025 23.1864
34.863934 98.024 22.9170
35.116572 98.023 22.6450
35.371041 98.022 22.3704
35.627354 98.021 22.0934
35.885525 98.019 21.8146
36.145566 98.016 21.5341
36.407492 98.014 21.2522
36.671316 98.011 20.9689
36.937051 98.007 20.6837
37.204712 98.004 20.3966
37.474313 98.000 20.1075
37.745867 97.995 19.8170
38.019389 97.990 19.5260
38.294893 97.984 19.2360
38.572394 97.978 18.9481
38.851905 97.971 18.6638
39.133442 97.964 18.3837
39.417019 97.957 18.1080
39.702651 97.950 17.8361
39.990353 97.943 17.5670
40.280140 97.937 17.2997
40.572026 97.931 17.0332
40.866028 97.925 16.7672
41.162160 97.918 16.5015
41.460438 97.912 16.2362
41.760877 97.905 15.9717
42.063494 97.898 15.7082
42.368303 97.891 15.4459
42.675322 97.883 15.1851
42.984565 97.875 14.9258
43.296048 97.866 14.6683
43.609789 97.857 14.4127
43.925804 97.848 14.1589
44.244108 97.839 13.9067
44.564719 97.830 13.6557
44.887654 97.820 13.4053
45.212928 97.810 13.1553
45.540560 97.801 12.9054
45.870565 97.790 12.6560
46.202962 97.780 12.4073
46.537768 97.770 12.1597
46.875000 97.759 11.9132
47.214676 97.749 11.6680
47.556813 97.738 11.4242
47.901429 97.728 11.1821
48.248542 97.717 10.9420
48.598171 97.707 10.7037
48.950334 97.698 10.4666
49.305048 97.688 10.2294
49.662333 97.679 9.9907
50.022206 97.671 9.7496
50.384688 97.662 9.5060
50.749796 97.653 9.2607
51.117550 97.644 9.0150
51.487969 97.634 8.7698
51.861072 97.624 8.5261
52.236879 97.615 8.2841
52.615409 97.605 8.0444
52.996681 97.595 7.8077
53.380717 97.585 7.5748
53.767536 97.575 7.3459
54.157158 97.566 7.1211
54.549603 97.557 6.8992
54.944892 97.549 6.6790
55.343045 97.541 6.4586
55.744084 97.533 6.2369
56.148028 97.526 6.0131
56.554900 97.518 5.7861
56.964720 97.510 5.5562
57.377510 97.502 5.3234
57.793291 97.493 5.0883
58.212085 97.483 4.8513
58.633914 97.472 4.6132
59.058799 97.461 4.3740
59.486764 97.448 4.1343
59.917829 97.436 3.8943
60.352019 97.422 3.6549
60.789354 97.408 3.4171
61.229859 97.393 3.1814
61.673556 97.378 2.9486
62.120468 97.363 2.7188
62.570618 97.348 2.4921
63.024031 97.333 2.2686
63.480729 97.318 2.0479
63.940736 97.304 1.8293
64.404077 97.289 1.6124
64.870776 97.275 1.3966
65.340856 97.260 1.1819
65.814343 97.245 0.9686
66.291261 97.230 0.7574
66.771635 97.215 0.5483
67.255489 97.199 0.3411
67.742850 97.184 0.1355
68.233743 97.168 -0.0691
68.728193 97.152 -0.2731
69.226226 97.136 -0.4770
69.727867 97.119 -0.6810
70.233144 97.103 -0.8855
70.742083 97.087 -1.0902
71.254709 97.070 -1.2948
71.771050 97.054 -1.4987
72.291132 97.037 -1.7013
72.814984 97.021 -1.9025
73.342631 97.004 -2.1022
73.874102 96.988 -2.3004
74.409424 96.972 -2.4976
74.948626 96.957 -2.6936
75.491734 96.941 -2.8884
76.038779 96.925 -3.0817
76.589787 96.910 -3.2731
77.144788 96.895 -3.4625
77.703811 96.880 -3.6501
78.266885 96.866 -3.8368
78.834039 96.852 -4.0245
79.405303 96.838 -4.2159
79.980706 96.825 -4.4131
80.560280 96.811 -4.6176
81.144053 96.796 -4.8296
81.732056 96.781 -5.0479
82.324320 96.764 -5.2702
82.920876 96.746 -5.4938
83.521755 96.726 -5.7158
84.126988 96.705 -5.9340
84.736607 96.683 -6.1467
85.350643 96.660 -6.3535
85.969129 96.638 -6.5541
86.592097 96.615 -6.7488
87.219579 96.592 -6.9379
87.851608 96.569 -7.1219
88.488217 96.546 -7.3020
89.129439 96.524 -7.4793
89.775308 96.502 -7.6548
90.425856 96.480 -7.8285
91.081119 96.459 -8.0000
91.741131 96.437 -8.1685
92.405925 96.415 -8.3330
93.075536 96.394 -8.4933
93.750000 96.372 -8.6495
94.429351 96.350 -8.8029
95.113625 96.329 -8.9543
95.802858 96.307 -9.1051
96.497085 96.285 -9.2559
97.196342 96.263 -9.4076
97.900667 96.241 -9.5604
98.610096 96.218 -9.7138
99.324665 96.195 -9.8668
100.044413 96.171 -10.0179
100.769376 96.147 -10.1650
101.499592 96.124 -10.3069
102.235100 96.101 -10.4434
102.975938 96.078 -10.5761
103.722144 96.057 -10.7071
104.473757 96.035 -10.8384
105.230817 96.015 -10.9713
105.993363 95.994 -11.1067
106.761435 95.973 -11.2446
107.535072 95.952 -11.3856
108.314315 95.931 -11.5293
109.099206 95.910 -11.6757
109.889783 95.888 -11.8240
110.686090 95.865 -11.9740
111.488167 95.841 -12.1254
112.296056 95.816 -12.2778
113.109800 95.788 -12.4316
113.929440 95.758 -12.5867
114.755020 95.725 -12.7423
115.586582 95.690 -12.8961
116.424170 95.653 -13.0444
117.267827 95.615 -13.1830
118.117598 95.578 -13.3075
118.973527 95.542 -13.4128
119.835658 95.509 -13.4969
120.704037 95.481 -13.5649
121.578708 95.458 -13.6276
122.459718 95.437 -13.6924
123.347111 95.418 -13.7608
124.240935 95.399 -13.8309
125.141236 95.378 -13.9017
126.048061 95.357 -13.9737
126.961458 95.334 -14.0488
127.881473 95.310 -14.1288
128.808154 95.286 -14.2147
129.741551 95.261 -14.3061
130.681712 95.235 -14.4011
131.628686 95.209 -14.4976
132.582521 95.183 -14.5933
133.543269 95.156 -14.6871
134.510979 95.128 -14.7786
135.485701 95.100 -14.8672
136.467486 95.070 -14.9531
137.456386 95.040 -15.0366
138.452451 95.009 -15.1178
139.455735 94.978 -15.1966
140.466288 94.946 -15.2726
141.484165 94.914 -15.3453
142.509418 94.881 -15.4154
143.542100 94.849 -15.4836
144.582265 94.816 -15.5512
145.629968 94.783 -15.6185
146.685262 94.749 -15.6854
147.748204 94.715 -15.7498
148.818849 94.678 -15.8081
149.897251 94.641 -15.8549
150.983469 94.601 -15.8844
152.077557 94.560 -15.8918
153.179574 94.518 -15.8747
154.289576 94.476 -15.8326
155.407622 94.436 -15.7674
156.533770 94.397 -15.6826
157.668078 94.361 -15.5827
158.810606 94.328 -15.4718
159.961413 94.300 -15.3536
161.120559 94.275 -15.2321
162.288105 94.254 -15.1123
163.464112 94.238 -15.0006
164.648640 94.225 -14.9034
165.841752 94.214 -14.8260
167.043510 94.205 -14.7719
168.253976 94.197 -14.7424
169.473213 94.188 -14.7372
170.701286 94.178 -14.7544
171.938258 94.167 -14.7920
173.184194 94.154 -14.8470
174.439158 94.139 -14.9160
175.703216 94.122 -14.9945
176.976434 94.102 -15.0784
178.258878 94.080 -15.1638
179.550615 94.056 -15.2481
180.851713 94.030 -15.3293
182.162239 94.003 -15.4064
183.482262 93.975 -15.4795
184.811850 93.945 -15.5490
186.151073 93.914 -15.6151
187.500000 93.883 -15.6774
188.858702 93.851 -15.7338
190.227250 93.818 -15.7826
191.605715 93.786 -15.8223
192.994169 93.753 -15.8514
194.392685 93.720 -15.8687
195.801334 93.686 -15.8734
197.220191 93.653 -15.8676
198.649330 93.620 -15.8563
200.088825 93.589 -15.8451
201.538751 93.559 -15.8345
202.999184 93.530 -15.8224
204.470200 93.502 -15.8071
205.951875 93.475 -15.7896
207.444287 93.447 -15.7723
208.947514 93.419 -15.7574
210.461634 93.389 -15.7450
211.986726 93.358 -15.7324
213.522869 93.324 -15.7145
215.070144 93.289 -15.6854
216.628631 93.253 -15.6406
218.198411 93.216 -15.5789
219.779567 93.180 -15.5028
221.372180 93.146 -15.4183
222.976334 93.113 -15.3315
224.592112 93.081 -15.2469
226.219600 93.049 -15.1664
227.858880 93.018 -15.0901
229.510039 92.987 -15.0168
231.173164 92.956 -14.9449
232.848340 92.925 -14.8730
234.535655 92.894 -14.8007
236.235197 92.863 -14.7281
237.947054 92.832 -14.6562
239.671317 92.800 -14.5850
241.408074 92.767 -14.5133
243.157416 92.734 -14.4390
244.919435 92.699 -14.3589
246.694223 92.664 -14.2698
248.481871 92.628 -14.1680
250.282473 92.592 -14.0508
252.096123 92.556 -13.9170
253.922915 92.523 -13.7683
255.762945 92.491 -13.6107
257.616309 92.463 -13.4537
259.483103 92.436 -13.3069
261.363424 92.411 -13.1753
263.257372 92.385 -13.0569
265.165043 92.358 -12.9449
267.086538 92.330 -12.8313
269.021957 92.300 -12.7091
270.971401 92.269 -12.5746
272.934972 92.239 -12.4271
274.912771 92.210 -12.2681
276.904902 92.182 -12.1003
278.911469 92.156 -11.9260
280.932577 92.132 -11.7476
282.968330 92.109 -11.5689
285.018835 92.089 -11.3954
287.084199 92.070 -11.2344
289.164530 92.052 -11.0916
291.259935 92.034 -10.9686
293.370525 92.014 -10.8607
295.496408 91.991 -10.7583
297.637697 91.965 -10.6517
299.794503 91.937 -10.5345
301.966937 91.908 -10.4043
304.155114 91.879 -10.2620
306.359147 91.849 -10.1103
308.579152 91.819 -9.9521
310.815244 91.790 -9.7908
313.067539 91.761 -9.6277
315.336156 91.731 -9.4626
317.621211 91.700 -9.2920
319.922826 91.669 -9.1113
322.241118 91.638 -8.9181
324.576210 91.608 -8.7128
326.928223 91.579 -8.4986
329.297280 91.551 -8.2793
331.683504 91.525 -8.0588
334.087019 91.499 -7.8398
336.507952 91.475 -7.6241
338.946427 91.450 -7.4121
341.402572 91.424 -7.2024
343.876516 91.399 -6.9922
346.368387 91.372 -6.7786
348.878315 91.345 -6.5597
351.406431 91.318 -6.3351
353.952867 91.292 -6.1051
356.517756 91.265 -5.8704
359.101230 91.239 -5.6316
361.703426 91.213 -5.3892
364.324478 91.187 -5.1433
366.964523 91.162 -4.8938
369.623699 91.137 -4.6402
372.302145 91.113 -4.3823
375.000000 91.089 -4.1203
377.717405 91.065 -3.8545
380.454501 91.042 -3.5856
383.211431 91.019 -3.3141
385.988339 90.997 -3.0400
388.785369 90.975 -2.7629
391.602668 90.953 -2.4823
394.440383 90.932 -2.1980
397.298660 90.912 -1.9102
400.177650 90.893 -1.6199
403.077502 90.874 -1.3282
405.998368 90.856 -1.0369
408.940400 90.838 -0.7461
411.903750 90.819 -0.4543
414.888575 90.801 -0.1583
417.895028 90.782 0.1455
420.923268 90.763 0.4594
423.973452 90.745 0.7839
427.045738 90.729 1.1176
430.140287 90.714 1.4569
433.257261 90.701 1.7969
436.396822 90.690 2.1344
439.559133 90.681 2.4689
442.744360 90.673 2.8000
445.952668 90.667 3.1260
449.184225 90.662 3.4419
452.439199 90.657 3.7423
455.717760 90.653 4.0242
459.020079 90.646 4.2913
462.346327 90.637 4.5538
465.696680 90.625 4.8232
469.071310 90.611 5.1067
472.470394 90.597 5.4058
475.894109 90.583 5.7177
479.342634 90.570 6.0374
482.816148 90.557 6.3593
486.314833 90.545 6.6811
489.838871 90.533 7.0072
493.388445 90.520 7.3453
496.963741 90.507 7.6995
500.564945 90.497 8.0660
504.192245 90.488 8.4366
507.845830 90.481 8.8042
511.525890 90.475 9.1656
515.232618 90.470 9.5222
518.966206 90.464 9.8777
522.726849 90.458 10.2368
526.514743 90.451 10.6039
530.330086 90.446 10.9811
534.173076 90.442 11.3657
538.043915 90.440 11.7527
541.942803 90.438 12.1393
545.869944 90.438 12.5259
549.825542 90.438 12.9136
553.809805 90.440 13.3012
557.822939 90.443 13.6863
561.865154 90.446 14.0670
565.936660 90.450 14.4437
570.037671 90.454 14.8188
574.168399 90.457 15.1953
578.329060 90.460 15.5743
582.519870 90.464 15.9559
586.741049 90.468 16.3397
590.992817 90.472 16.7280
595.275394 90.476 17.1238
599.589005 90.482 17.5261
603.933874 90.489 17.9312
608.310228 90.497 18.3349
612.718295 90.506 18.7356
617.158304 90.514 19.1356
621.630488 90.522 19.5406
626.135079 90.531 19.9570
630.672311 90.540 20.3870
635.242423 90.552 20.8263
639.845651 90.565 21.2684
644.482237 90.581 21.7113
649.152421 90.599 22.1558
653.856447 90.619 22.6005
658.594560 90.643 23.0385
663.367008 90.669 23.4598
668.174039 90.696 23.8569
673.015903 90.722 24.2302
677.892854 90.747 24.5875
682.805145 90.769 24.9380
687.753032 90.790 25.2888
692.736774 90.808 25.6458
697.756631 90.826 26.0133
702.812863 90.844 26.3931
707.905735 90.862 26.7828
713.035511 90.882 27.1778
718.202461 90.902 27.5744
723.406852 90.923 27.9718
728.648956 90.944 28.3711
733.929047 90.966 28.7735
739.247399 90.988 29.1796
744.604290 91.010 29.5898
750.000000 91.033 30.0045
755.434809 91.057 30.4239
760.909001 91.082 30.8476
766.422861 91.107 31.2754
771.976677 91.134 31.7064
777.570739 91.161 32.1394
783.205337 91.190 32.5740
788.880766 91.219 33.0115
794.597321 91.249 33.4550
800.355301 91.281 33.9064
806.155005 91.315 34.3644
811.996736 91.352 34.8230
817.880799 91.392 35.2736
823.807501 91.435 35.7075
829.777150 91.479 36.1182
835.790057 91.522 36.5057
841.846536 91.563 36.8796
847.946903 91.601 37.2541
854.091476 91.637 37.6412
860.280575 91.672 38.0477
866.514523 91.708 38.4767
872.793644 91.747 38.9276
879.118267 91.790 39.3930
885.488720 91.837 39.8586
891.905336 91.889 40.3098
898.368450 91.943 40.7386
904.878398 91.998 41.1453
911.435520 92.053 41.5353
918.040157 92.107 41.9142
924.692655 92.162 42.2866
931.393359 92.216 42.6546
938.142619 92.272 43.0177
944.940787 92.327 43.3759
951.788218 92.383 43.7305
958.685268 92.439 44.0836
965.632296 92.495 44.4373
972.629666 92.552 44.7934
979.677741 92.609 45.1522
986.776890 92.668 45.5127
993.927482 92.728 45.8755
1001.129891 92.788 46.2439
1008.384491 92.850 46.6214
1015.691660 92.915 47.0069
1023.051781 92.984 47.3956
1030.465236 93.057 47.7796
1037.932411 93.134 48.1473
1045.453698 93.214 48.4864
1053.029486 93.296 48.7916
1060.660172 93.377 49.0660
1068.346153 93.457 49.3183
1076.087829 93.535 49.5574
1083.885605 93.612 49.7901
1091.739887 93.688 50.0185
1099.651084 93.765 50.2428
1107.619609 93.841 50.4630
1115.645878 93.917 50.6801
1123.730308 93.993 50.8950
1131.873321 94.070 51.1089
1140.075341 94.146 51.3225
1148.336797 94.223 51.5360
1156.658119 94.301 51.7500
1165.039741 94.380 51.9655
1173.482099 94.461 52.1834
1181.985634 94.545 52.4027
1190.550789 94.632 52.6169
1199.178011 94.722 52.8146
1207.867749 94.816 52.9839
1216.620457 94.911 53.1194
1225.436590 95.005 53.2242
1234.316609 95.097 53.3067
1243.260976 95.186 53.3750
1252.270157 95.274 53.4365
1261.344623 95.361 53.4952
1270.484846 95.447 53.5522
1279.691303 95.532 53.6092
1288.964474 95.618 53.6674
1298.304842 95.704 53.7264
1307.712894 95.791 53.7831
1317.189120 95.880 53.8333
1326.734016 95.969 53.8740
1336.348077 96.059 53.9050
1346.031806 96.151 53.9284
1355.785708 96.243 53.9477
1365.610290 96.338 53.9661
1375.506065 96.434 53.9876
1385.473549 96.533 54.0163
1395.513261 96.636 54.0523
1405.625726 96.742 54.0897
1415.811469 96.854 54.1166
1426.071023 96.969 54.1185
1436.404921 97.086 54.0862
1446.813703 97.204 54.0185
1457.297912 97.320 53.9197
1467.858093 97.436 53.7947
1478.494798 97.549 53.6471
1489.208581 97.659 53.4796
1500.000000 97.767 53.2948
1510.869618 97.871 53.0956
1521.818002 97.971 52.8841
1532.845723 98.067 52.6617
1543.953355 98.159 52.4289
1555.141477 98.249 52.1846
1566.410674 98.339 51.9239
1577.761531 98.429 51.6363
1589.194642 98.521 51.3087
1600.710601 98.611 50.9322
1612.310010 98.700 50.5054
1623.993473 98.786 50.0319
1635.761599 98.867 49.5171
1647.615002 98.946 48.9659
1659.554299 99.020 48.3827
1671.580114 99.092 47.7712
1683.693072 99.160 47.1327
1695.893807 99.226 46.4657
1708.182952 99.287 45.7680
1720.561150 99.344 45.0397
1733.029045 99.396 44.2841
1745.587288 99.441 43.5064
1758.236533 99.480 42.7134
1770.977440 99.515 41.9108
1783.810673 99.546 41.0992
1796.736900 99.575 40.2723
1809.756796 99.602 39.4191
1822.871040 99.626 38.5316
1836.080315 99.645 37.6076
1849.385310 99.659 36.6500
1862.786718 99.666 35.6638
1876.285239 99.667 34.6564
1889.881575 99.663 33.6363
1903.576436 99.653 32.6129
1917.370535 99.640 31.5952
1931.264593 99.624 30.5904
1945.259332 99.606 29.6024
1959.355483 99.588 28.6284
1973.553781 99.569 27.6615
1987.854965 99.546 26.6969
2002.259781 99.518 25.7357
2016.768981 99.483 24.7847
2031.383320 99.441 23.8536
2046.103561 99.391 22.9542
2060.930471 99.334 22.0981
2075.864823 99.271 21.2950
2090.907395 99.203 20.5529
2106.058972 99.129 19.8798
2121.320344 99.052 19.2848
2136.692305 98.972 18.7770
2152.175658 98.893 18.3621
2167.771210 98.819 18.0355
2183.479774 98.752 17.7784
2199.302169 98.695 17.5612
2215.239219 98.647 17.3529
2231.291755 98.607 17.1272
2247.460615 98.571 16.8657
2263.746641 98.538 16.5606
2280.150683 98.503 16.2152
2296.673595 98.465 15.8419
2313.316238 98.423 15.4578
2330.079481 98.377 15.0781
2346.964198 98.328 14.7104
2363.971268 98.277 14.3556
2381.101578 98.224 14.0131
2398.356022 98.168 13.6849
2415.735498 98.110 13.3753
2433.240913 98.049 13.0895
2450.873180 97.986 12.8313
2468.633217 97.921 12.6023
2486.521951 97.856 12.4037
2504.540314 97.788 12.2393
2522.689246 97.721 12.1161
2540.969692 97.653 12.0415
2559.382606 97.589 12.0161
2577.928947 97.528 12.0319
2596.609683 97.473 12.0768
2615.425787 97.423 12.1402
2634.378241 97.377 12.2147
2653.468031 97.336 12.2976
2672.696154 97.297 12.3904
2692.063613 97.263 12.4965
2711.571415 97.234 12.6166
2731.220579 97.212 12.7433
2751.012130 97.197 12.8618
2770.947098 97.189 12.9559
2791.026522 97.187 13.0121
2811.251451 97.190 13.0209
2831.622938 97.195 12.9764
2852.142045 97.201 12.8744
2872.809842 97.206 12.7125
2893.627406 97.209 12.4935
2914.595823 97.207 12.2245
2935.716186 97.199 11.9135
2956.989596 97.185 11.5641
2978.417161 97.164 11.1772
3000.000000 97.133 10.7566
3021.739237 97.091 10.3125
3043.636005 97.034 9.8648
3065.691446 96.961 9.4431
3087.906710 96.874 9.0820
3110.282955 96.773 8.8138
3132.821347 96.662 8.6622
3155.523062 96.545 8.6416
3178.389283 96.426 8.7596
3201.421202 96.310 9.0171
3224.620020 96.199 9.4073
3247.986946 96.098 9.9171
3271.523198 96.009 10.5294
3295.230004 95.934 11.2286
3319.108599 95.875 11.9993
3343.160228 95.833 12.8213
3367.386145 95.809 13.6705
3391.787613 95.804 14.5227
3416.365904 95.815 15.3604
3441.122300 95.840 16.1759
3466.058091 95.879 16.9719
3491.174576 95.932 17.7529
3516.473066 96.001 18.5172
3541.954880 96.085 19.2532
3567.621345 96.187 19.9415
3593.473800 96.307 20.5574
3619.513592 96.442 21.0729
3645.742080 96.592 21.4613
3672.160630 96.752 21.7028
3698.770620 96.919 21.7866
3725.573436 97.091 21.7051
3752.570477 97.264 21.4496
3779.763150 97.434 21.0114
3807.152872 97.597 20.3860
3834.741071 97.748 19.5781
3862.529185 97.883 18.6006
3890.518664 97.999 17.4699
3918.710966 98.095 16.2007
3947.107561 98.169 14.8066
3975.709929 98.217 13.3027
4004.519563 98.237 11.7079
4033.537962 98.226 10.0469
4062.766641 98.181 8.3536
4092.207123 98.101 6.6722
4121.860942 97.983 5.0500
4151.729646 97.831 3.5316
4181.814790 97.645 2.1575
4212.117944 97.427 0.9673
4242.640687 97.181 0.0022
4273.384610 96.910 -0.6971
4304.351317 96.621 -1.0984
4335.542421 96.323 -1.1832
4366.959549 96.023 -0.9485
4398.604338 95.730 -0.4078
4430.478438 95.452 0.4111
4462.583511 95.196 1.4730
4494.921231 94.967 2.7365
4527.493283 94.769 4.1506
4560.301365 94.606 5.6557
4593.347189 94.476 7.1910
4626.632476 94.378 8.7062
4660.158962 94.307 10.1654
4693.928395 94.260 11.5433
4727.942535 94.233 12.8203
4762.203156 94.221 13.9808
4796.712043 94.221 15.0128
4831.470996 94.228 15.9130
4866.481826 94.236 16.6898
4901.746360 94.244 17.3606
4937.266434 94.246 17.9446
4973.043902 94.242 18.4608
5009.080628 94.230 18.9321
5045.378492 94.207 19.3875
5081.939384 94.176 19.8568
5118.765212 94.137 20.3641
5155.857894 94.095 20.9232
5193.219366 94.051 21.5360
5230.851574 94.007 22.1988
5268.756481 93.966 22.9070
5306.936062 93.927 23.6559
5345.392309 93.891 24.4380
5384.127225 93.857 25.2466
5423.142830 93.825 26.0809
5462.441159 93.793 26.9471
5502.024259 93.762 27.8539
5541.894195 93.733 28.8074
5582.053045 93.707 29.8081
5622.502902 93.685 30.8531
5663.245876 93.669 31.9405
5704.284090 93.659 33.0672
5745.619684 93.656 34.2267
5787.254813 93.660 35.4117
5829.191647 93.669 36.6206
5871.432373 93.685 37.8587
5913.979192 93.706 39.1336
5956.834323 93.734 40.4502
6000.000000 93.770 41.8076
6043.478473 93.817 43.2018
6087.272010 93.874 44.6270
6131.382892 93.943 46.0744
6175.813420 94.023 47.5345
6220.565910 94.114 49.0021
6265.642695 94.216 50.4791
6311.046124 94.328 51.9709
6356.778566 94.452 53.4811
6402.842404 94.589 55.0086
6449.240040 94.740 56.5486
6495.973891 94.907 58.0931
6543.046396 95.089 59.6307
6590.460007 95.288 61.1505
6638.217197 95.502 62.6468
6686.320456 95.732 64.1188
6734.772290 95.979 65.5671
6783.575226 96.243 66.9886
6832.731809 96.525 68.3757
6882.244600 96.827 69.7154
6932.116181 97.147 70.9885
6982.349153 97.487 72.1731
7032.946133 97.845 73.2491
7083.909760 98.222 74.1984
7135.242690 98.616 75.0009
7186.947600 99.028 75.6301
7239.027185 99.456 76.0525
7291.484160 99.897 76.2250
7344.321260 100.347 76.0971
7397.541239 100.801 75.6163
7451.146872 101.250 74.7351
7505.140954 101.689 73.4136
7559.526299 102.110 71.6206
7614.305743 102.506 69.3350
7669.482141 102.869 66.5472
7725.058371 103.190 63.2554
7781.037328 103.460 59.4592
7837.421932 103.673 55.1554
7894.215122 103.822 50.3456
7951.419859 103.904 45.0571
8009.039125 103.919 39.3718
8067.075924 103.870 33.4453
8125.533282 103.762 27.4978
8184.414245 103.599 21.7751
8243.721885 103.388 16.4988
8303.459292 103.134 11.8290
8363.629581 102.840 7.8528
8424.235888 102.515 4.5920
8485.281374 102.166 2.0174
8546.769221 101.803 0.0634
8608.702634 101.434 -1.3547
8671.084842 101.066 -2.3191
8733.919097 100.704 -2.8890
8797.208675 100.353 -3.0970
8860.956876 100.021 -2.9650
8925.167022 99.716 -2.5254
8989.842461 99.447 -1.8311
9054.986566 99.221 -0.9468
9120.602731 99.042 0.0649
9186.694378 98.913 1.1503
9253.264952 98.835 2.2596
9320.317925 98.811 3.3376
9387.856790 98.843 4.3187
9455.885071 98.929 5.1305
9524.406312 99.066 5.7013
9593.424086 99.249 5.9650
9662.941992 99.472 5.8633
9732.963653 99.726 5.3396
9803.492719 100.003 4.3367
9874.532869 100.291 2.8002
9946.087805 100.573 0.6887
10018.161257 100.836 -2.0160
10090.756983 101.062 -5.3019
10163.878768 101.237 -9.1250
10237.530423 101.347 -13.4092
10311.715789 101.382 -18.0441
10386.438732 101.333 -22.8867
10461.703149 101.197 -27.7703
10537.512962 100.973 -32.5240
10613.872125 100.669 -36.9991
10690.784618 100.293 -41.0857
10768.254450 99.859 -44.7197
10846.285661 99.380 -47.8769
10924.882318 98.869 -50.5647
11004.048518 98.340 -52.8182
11083.788390 97.807 -54.6960
11164.106090 97.278 -56.2722
11245.005805 96.761 -57.6222
11326.491752 96.259 -58.8127
11408.568180 95.772 -59.8987
11491.239368 95.300 -60.9259
11574.509626 94.840 -61.9301
11658.383294 94.389 -62.9332
11742.864745 93.942 -63.9417
11827.958384 93.496 -64.9531
11913.668646 93.050 -65.9645
12000.000000 92.602 -66.9780
12086.956947 92.153 -67.9983
12174.544019 91.702 -69.0336
12262.765784 91.249 -70.0981
12351.626840 90.794 -71.2134
12441.131819 90.333 -72.3977
12531.285389 89.863 -73.6557
12622.092249 89.379 -74.9779
12713.557132 88.879 -76.3526
12805.684808 88.362 -77.7766
12898.480079 87.828 -79.2572
12991.947783 87.276 -80.8102
13086.092792 86.706 -82.4590
13180.920015 86.114 -84.2338
13276.434395 85.494 -86.1609
13372.640911 84.836 -88.2474
13469.544580 84.126 -90.4684
13567.150452 83.352 -92.7650
13665.463617 82.498 -95.0435
13764.489200 81.553 -97.1758
13864.232362 80.511 -99.0161
13964.698305 79.375 -100.4406
14065.892266 78.152 -101.3881
14167.819519 76.850 -101.8538
14270.485380 75.474 -101.8353
14373.895200 74.023 -101.2786
14478.054370 72.492 -100.0447
14582.968320 70.879 -97.8619
14688.642520 69.196 -94.1969
14795.082478 67.477 -87.8936
14902.293745 65.821 -76.1221
15010.281908 64.427 -52.1722
15119.052599 63.578 -13.2367
15228.611486 63.456 16.8843
15338.964283 63.942 31.5874
15450.116741 64.744 38.7981
15562.074656 65.620 42.6292
15674.843864 66.447 44.8020
15788.430244 67.180 46.1531
15902.839718 67.817 47.1763
16018.078250 68.381 48.2226
16134.151848 68.913 49.5876
16251.066563 69.470 51.5483
16368.828491 70.119 54.3271
16487.443769 70.924 57.9032
16606.918584 71.906 61.7030
16727.259161 73.019 64.5797
16848.471777 74.161 65.4598
16970.562748 75.233 64.0388
17093.538442 76.175 60.7221
17217.405268 76.980 56.1142
17342.169684 77.664 50.6661
17467.838194 78.244 44.6013
17594.417350 78.722 37.9838
17721.913751 79.082 30.8196
17850.334044 79.294 23.1406
17979.684923 79.324 15.0613
18109.973131 79.143 6.7968
18241.205462 78.738 -1.3650
18373.388756 78.109 -9.1169
18506.529905 77.275 -16.1908
18640.635849 76.265 -22.3978
18775.713581 75.114 -27.6392
18911.770141 73.853 -31.8904
19048.812624 72.512 -35.1637
19186.848172 71.110 -37.4551
19325.883983 69.666 -38.7042
19465.927305 68.202 -38.8178
19606.985439 66.771 -37.7952
19749.065738 65.467 -35.9130
19892.175609 64.438 -33.8290
20036.322514 63.859 -32.4410
