* Measurement data measured by REW V5.31
* Source: EXCL: Microphone (USB Sound Device        ), MICROPHONE (Master Volume), L, volume: 0.560
* Format: 256k Log Swept Sine, 1 sweep at -5.0 dBFS with no timing reference
* Dated: May 27, 2024 3:28:53 PM
* REW Settings:
*  C-weighting compensation: Off
*  Target level: 75.0 dB
* Note: Twistura D-Major Red L
* Measurement: Twistura D-Major Red
* Smoothing: 1/12 octave
* Frequency Step: 96 ppo
* Start Frequency: 0.36621094 Hz
*
* Freq(Hz) SPL(dB) Phase(degrees)
0.366211 78.720 175.4428
0.368865 78.716 175.4342
0.371538 78.711 175.4213
0.374230 78.705 175.4053
0.376942 78.697 175.3868
0.379673 78.689 175.3666
0.382424 78.681 175.3451
0.385196 78.673 175.3225
0.387987 78.664 175.2990
0.390798 78.655 175.2746
0.393630 78.647 175.2494
0.396483 78.638 175.2234
0.399356 78.629 175.1967
0.402250 78.620 175.1691
0.405165 78.611 175.1408
0.408101 78.602 175.1117
0.411058 78.592 175.0817
0.414037 78.583 175.0510
0.417037 78.574 175.0194
0.420059 78.564 174.9870
0.423103 78.555 174.9538
0.426169 78.545 174.9197
0.429257 78.536 174.8848
0.432368 78.526 174.8490
0.435501 78.516 174.8124
0.438656 78.506 174.7749
0.441835 78.496 174.7365
0.445037 78.486 174.6972
0.448262 78.476 174.6571
0.451510 78.466 174.6160
0.454782 78.456 174.5741
0.458077 78.446 174.5312
0.461397 78.435 174.4874
0.464740 78.425 174.4427
0.468108 78.415 174.3971
0.471500 78.404 174.3506
0.474917 78.393 174.3031
0.478358 78.383 174.2546
0.481825 78.372 174.2052
0.485316 78.361 174.1549
0.488833 78.350 174.1036
0.492375 78.339 174.0514
0.495943 78.328 173.9981
0.499537 78.317 173.9440
0.503157 78.305 173.8888
0.506803 78.294 173.8326
0.510475 78.283 173.7755
0.514175 78.271 173.7174
0.517900 78.259 173.6583
0.521653 78.248 173.5983
0.525434 78.236 173.5372
0.529241 78.224 173.4751
0.533076 78.212 173.4120
0.536939 78.200 173.3480
0.540830 78.188 173.2829
0.544749 78.176 173.2169
0.548696 78.163 173.1499
0.552673 78.151 173.0818
0.556677 78.139 173.0128
0.560711 78.126 172.9427
0.564774 78.113 172.8717
0.568867 78.101 172.7997
0.572989 78.088 172.7267
0.577141 78.075 172.6527
0.581324 78.062 172.5778
0.585536 78.049 172.5018
0.589779 78.035 172.4249
0.594053 78.022 172.3470
0.598358 78.009 172.2682
0.602694 77.995 172.1884
0.607061 77.982 172.1077
0.611460 77.968 172.0260
0.615891 77.954 171.9434
0.620354 77.940 171.8598
0.624849 77.926 171.7754
0.629377 77.912 171.6901
0.633938 77.898 171.6039
0.638532 77.883 171.5168
0.643159 77.869 171.4288
0.647819 77.854 171.3400
0.652514 77.840 171.2504
0.657242 77.825 171.1599
0.662005 77.810 171.0686
0.666802 77.795 170.9766
0.671634 77.780 170.8838
0.676501 77.765 170.7903
0.681403 77.750 170.6961
0.686341 77.734 170.6011
0.691314 77.719 170.5055
0.696324 77.703 170.4092
0.701370 77.687 170.3123
0.706452 77.671 170.2146
0.711571 77.654 170.1163
0.716728 77.637 170.0173
0.721921 77.618 169.9172
0.727153 77.598 169.8161
0.732422 77.576 169.7134
0.737729 77.552 169.6088
0.743075 77.526 169.5019
0.748460 77.499 169.3922
0.753883 77.471 169.2796
0.759346 77.443 169.1639
0.764849 77.414 169.0449
0.770391 77.385 168.9225
0.775974 77.356 168.7968
0.781597 77.327 168.6675
0.787261 77.299 168.5349
0.792966 77.269 168.3987
0.798712 77.240 168.2591
0.804500 77.211 168.1159
0.810329 77.181 167.9693
0.816201 77.151 167.8191
0.822116 77.121 167.6654
0.828073 77.091 167.5082
0.834074 77.059 167.3475
0.840118 77.028 167.1833
0.846206 76.996 167.0156
0.852338 76.963 166.8444
0.858514 76.929 166.6698
0.864735 76.894 166.4916
0.871001 76.859 166.3101
0.877313 76.822 166.1251
0.883670 76.785 165.9367
0.890074 76.746 165.7450
0.896524 76.706 165.5499
0.903020 76.664 165.3516
0.909564 76.621 165.1500
0.916155 76.576 164.9452
0.922794 76.530 164.7372
0.929481 76.482 164.5262
0.936216 76.431 164.3122
0.943000 76.379 164.0952
0.949834 76.324 163.8753
0.956717 76.267 163.6526
0.963649 76.208 163.4273
0.970632 76.146 163.1994
0.977666 76.081 162.9689
0.984750 76.013 162.7362
0.991886 75.942 162.5011
0.999074 75.868 162.2640
1.006314 75.790 162.0250
1.013606 75.709 161.7841
1.020951 75.624 161.5417
1.028349 75.535 161.2979
1.035801 75.442 161.0528
1.043307 75.345 160.8067
1.050867 75.242 160.5597
1.058482 75.135 160.3120
1.066152 75.023 160.0637
1.073878 74.905 159.8147
1.081660 74.781 159.5648
1.089498 74.650 159.3133
1.097393 74.511 159.0594
1.105345 74.363 158.8017
1.113355 74.205 158.5388
1.121423 74.037 158.2694
1.129549 73.856 157.9924
1.137734 73.665 157.7068
1.145979 73.462 157.4119
1.154283 73.248 157.1072
1.162647 73.022 156.7921
1.171072 72.787 156.4662
1.179558 72.541 156.1290
1.188106 72.286 155.7800
1.196715 72.022 155.4186
1.205387 71.750 155.0444
1.214122 71.470 154.6566
1.222920 71.184 154.2548
1.231782 70.892 153.8381
1.240708 70.594 153.4057
1.249699 70.292 152.9570
1.258754 69.987 152.4908
1.267876 69.679 152.0063
1.277063 69.370 151.5023
1.286318 69.060 150.9774
1.295639 68.751 150.4304
1.305027 68.443 149.8597
1.314484 68.138 149.2634
1.324009 67.838 148.6395
1.333604 67.543 147.9859
1.343268 67.255 147.2999
1.353002 66.975 146.5783
1.362806 66.704 145.8178
1.372681 66.446 145.0142
1.382628 66.200 144.1626
1.392647 65.969 143.2572
1.402739 65.755 142.2908
1.412904 65.559 141.2545
1.423142 65.384 140.1370
1.433455 65.230 138.9235
1.443843 65.100 137.5945
1.454305 64.994 136.1230
1.464844 64.913 134.4727
1.475459 64.857 132.5935
1.486150 64.825 130.4184
1.496920 64.817 127.8576
1.507767 64.832 124.7895
1.518693 64.868 121.0469
1.529698 64.926 116.3982
1.540783 65.004 110.5253
1.551948 65.102 103.0139
1.563194 65.219 93.4028
1.574521 65.353 81.3952
1.585931 65.505 67.3080
1.597423 65.673 52.4240
1.608999 65.857 38.5063
1.620658 66.054 26.7336
1.632402 66.265 17.3283
1.644232 66.488 9.9573
1.656146 66.723 4.1584
1.668147 66.966 -0.4718
1.680235 67.219 -4.2398
1.692411 67.479 -7.3672
1.704675 67.745 -10.0128
1.717028 68.015 -12.2908
1.729470 68.289 -14.2846
1.742003 68.565 -16.0557
1.754626 68.841 -17.6504
1.767341 69.118 -19.1042
1.780147 69.393 -20.4441
1.793047 69.667 -21.6916
1.806040 69.939 -22.8631
1.819128 70.212 -23.9715
1.832310 70.487 -25.0267
1.845587 70.766 -26.0359
1.858961 71.052 -27.0045
1.872432 71.347 -27.9364
1.886001 71.650 -28.8349
1.899667 71.963 -29.7026
1.913433 72.285 -30.5417
1.927299 72.616 -31.3544
1.941265 72.953 -32.1426
1.955332 73.298 -32.9081
1.969501 73.647 -33.6527
1.983773 74.001 -34.3779
1.998148 74.358 -35.0853
2.012627 74.716 -35.7764
2.027212 75.075 -36.4524
2.041902 75.433 -37.1148
2.056698 75.788 -37.7648
2.071602 76.139 -38.4035
2.086614 76.484 -39.0323
2.101734 76.823 -39.6523
2.116964 77.154 -40.2647
2.132304 77.475 -40.8709
2.147756 77.785 -41.4721
2.163320 78.083 -42.0699
2.178996 78.369 -42.6660
2.194786 78.643 -43.2621
2.210690 78.905 -43.8598
2.226710 79.156 -44.4603
2.242845 79.396 -45.0642
2.259098 79.626 -45.6714
2.275468 79.847 -46.2815
2.291957 80.059 -46.8935
2.308566 80.264 -47.5065
2.325295 80.461 -48.1196
2.342145 80.651 -48.7317
2.359117 80.834 -49.3419
2.376212 81.012 -49.9495
2.393431 81.185 -50.5535
2.410775 81.353 -51.1535
2.428244 81.517 -51.7488
2.445840 81.679 -52.3390
2.463564 81.838 -52.9238
2.481416 81.995 -53.5032
2.499397 82.150 -54.0774
2.517509 82.305 -54.6469
2.535752 82.459 -55.2129
2.554127 82.612 -55.7771
2.572635 82.763 -56.3413
2.591277 82.911 -56.9076
2.610055 83.057 -57.4775
2.628968 83.199 -58.0516
2.648019 83.338 -58.6300
2.667208 83.472 -59.2120
2.686535 83.603 -59.7965
2.706003 83.731 -60.3822
2.725612 83.855 -60.9680
2.745363 83.975 -61.5522
2.765257 84.093 -62.1336
2.785295 84.208 -62.7108
2.805478 84.321 -63.2826
2.825808 84.431 -63.8478
2.846285 84.540 -64.4056
2.866910 84.646 -64.9556
2.887685 84.751 -65.4978
2.908611 84.855 -66.0328
2.929688 84.956 -66.5622
2.950917 85.055 -67.0879
2.972301 85.152 -67.6116
2.993839 85.245 -68.1347
3.015534 85.336 -68.6578
3.037386 85.425 -69.1808
3.059396 85.510 -69.7030
3.081565 85.593 -70.2234
3.103896 85.673 -70.7407
3.126388 85.751 -71.2536
3.149043 85.827 -71.7607
3.171862 85.901 -72.2604
3.194847 85.974 -72.7515
3.217998 86.045 -73.2327
3.241317 86.115 -73.7033
3.264805 86.183 -74.1629
3.288463 86.251 -74.6118
3.312293 86.316 -75.0508
3.336295 86.380 -75.4812
3.360471 86.442 -75.9041
3.384822 86.502 -76.3202
3.409350 86.559 -76.7299
3.434056 86.615 -77.1334
3.458940 86.670 -77.5302
3.484005 86.723 -77.9201
3.509252 86.775 -78.3023
3.534681 86.826 -78.6762
3.560295 86.876 -79.0411
3.586094 86.926 -79.3961
3.612081 86.975 -79.7408
3.638255 87.025 -80.0744
3.664620 87.074 -80.3967
3.691175 87.122 -80.7078
3.717923 87.170 -81.0078
3.744864 87.218 -81.2974
3.772001 87.265 -81.5773
3.799335 87.311 -81.8482
3.826866 87.357 -82.1110
3.854597 87.403 -82.3665
3.882529 87.449 -82.6154
3.910664 87.495 -82.8585
3.939002 87.541 -83.0963
3.967546 87.589 -83.3289
3.996296 87.637 -83.5564
4.025255 87.686 -83.7785
4.054423 87.736 -83.9947
4.083804 87.787 -84.2047
4.113396 87.838 -84.4087
4.143204 87.891 -84.6073
4.173227 87.944 -84.8017
4.203468 87.997 -84.9934
4.233928 88.052 -85.1840
4.264609 88.107 -85.3754
4.295512 88.163 -85.5689
4.326639 88.220 -85.7660
4.357992 88.277 -85.9674
4.389572 88.336 -86.1734
4.421380 88.395 -86.3840
4.453419 88.456 -86.5987
4.485691 88.518 -86.8173
4.518196 88.580 -87.0401
4.550936 88.643 -87.2677
4.583914 88.707 -87.5008
4.617131 88.770 -87.7406
4.650589 88.835 -87.9882
4.684289 88.899 -88.2445
4.718233 88.963 -88.5106
4.752424 89.027 -88.7870
4.786862 89.091 -89.0738
4.821549 89.154 -89.3710
4.856488 89.218 -89.6782
4.891680 89.281 -89.9949
4.927127 89.344 -90.3205
4.962831 89.406 -90.6545
4.998794 89.468 -90.9967
5.035017 89.529 -91.3467
5.071503 89.588 -91.7045
5.108253 89.647 -92.0704
5.145270 89.704 -92.4445
5.182555 89.760 -92.8271
5.220110 89.814 -93.2180
5.257937 89.867 -93.6163
5.296038 89.919 -94.0210
5.334415 89.970 -94.4306
5.373071 90.019 -94.8439
5.412006 90.066 -95.2595
5.451224 90.112 -95.6766
5.490725 90.157 -96.0950
5.530514 90.199 -96.5146
5.570590 90.241 -96.9354
5.610957 90.280 -97.3573
5.651616 90.318 -97.7795
5.692570 90.355 -98.2009
5.733821 90.391 -98.6203
5.775370 90.425 -99.0363
5.817221 90.459 -99.4480
5.859375 90.491 -99.8545
5.901834 90.523 -100.2558
5.944602 90.553 -100.6519
5.987679 90.583 -101.0429
6.031068 90.612 -101.4289
6.074771 90.641 -101.8097
6.118792 90.670 -102.1852
6.163131 90.698 -102.5549
6.207792 90.727 -102.9186
6.252776 90.756 -103.2761
6.298086 90.785 -103.6276
6.343725 90.815 -103.9734
6.389694 90.845 -104.3145
6.435996 90.876 -104.6516
6.482634 90.908 -104.9859
6.529610 90.940 -105.3182
6.576926 90.973 -105.6490
6.624585 91.008 -105.9788
6.672590 91.044 -106.3079
6.720942 91.080 -106.6369
6.769645 91.118 -106.9668
6.818700 91.157 -107.2988
6.868111 91.196 -107.6340
6.917881 91.237 -107.9736
6.968010 91.278 -108.3182
7.018504 91.320 -108.6683
7.069362 91.363 -109.0241
7.120590 91.406 -109.3857
7.172189 91.450 -109.7534
7.224161 91.494 -110.1276
7.276511 91.539 -110.5085
7.329239 91.583 -110.8964
7.382350 91.627 -111.2913
7.435845 91.671 -111.6929
7.489729 91.714 -112.1006
7.544002 91.757 -112.5136
7.598669 91.800 -112.9312
7.653732 91.842 -113.3526
7.709194 91.882 -113.7773
7.765058 91.923 -114.2048
7.821327 91.962 -114.6344
7.878004 92.000 -115.0653
7.935091 92.038 -115.4963
7.992592 92.074 -115.9262
8.050510 92.110 -116.3540
8.108847 92.145 -116.7788
8.167607 92.179 -117.1998
8.226793 92.213 -117.6163
8.286408 92.246 -118.0275
8.346454 92.279 -118.4330
8.406936 92.311 -118.8325
8.467856 92.343 -119.2259
8.529218 92.376 -119.6132
8.591024 92.408 -119.9944
8.653278 92.440 -120.3699
8.715983 92.473 -120.7398
8.779143 92.506 -121.1044
8.842760 92.540 -121.4640
8.906839 92.574 -121.8190
8.971381 92.608 -122.1699
9.036392 92.644 -122.5176
9.101873 92.679 -122.8628
9.167829 92.716 -123.2061
9.234263 92.752 -123.5482
9.301178 92.790 -123.8894
9.368578 92.827 -124.2301
9.436467 92.865 -124.5710
9.504847 92.903 -124.9123
9.573723 92.940 -125.2543
9.643099 92.977 -125.5971
9.712976 93.013 -125.9406
9.783361 93.047 -126.2845
9.854255 93.079 -126.6286
9.925663 93.109 -126.9726
9.997588 93.135 -127.3161
10.070035 93.159 -127.6588
10.143007 93.180 -128.0000
10.216507 93.198 -128.3391
10.290540 93.215 -128.6756
10.365109 93.230 -129.0091
10.440219 93.243 -129.3392
10.515873 93.255 -129.6656
10.592076 93.266 -129.9879
10.668830 93.277 -130.3060
10.746141 93.287 -130.6198
10.824012 93.296 -130.9293
10.902447 93.305 -131.2348
10.981451 93.314 -131.5364
11.061027 93.323 -131.8344
11.141180 93.331 -132.1292
11.221913 93.339 -132.4213
11.303232 93.347 -132.7110
11.385140 93.355 -132.9989
11.467641 93.363 -133.2853
11.550741 93.370 -133.5705
11.634442 93.378 -133.8550
11.718750 93.385 -134.1389
11.803669 93.392 -134.4225
11.889203 93.399 -134.7058
11.975357 93.407 -134.9889
12.062136 93.414 -135.2717
12.149543 93.420 -135.5542
12.237583 93.427 -135.8362
12.326262 93.433 -136.1177
12.415583 93.439 -136.3986
12.505552 93.444 -136.6787
12.596172 93.448 -136.9580
12.687449 93.453 -137.2365
12.779387 93.456 -137.5143
12.871992 93.460 -137.7915
12.965268 93.462 -138.0683
13.059220 93.465 -138.3448
13.153852 93.468 -138.6215
13.249170 93.470 -138.8985
13.345179 93.473 -139.1762
13.441884 93.476 -139.4548
13.539289 93.479 -139.7344
13.637401 93.481 -140.0154
13.736223 93.484 -140.2978
13.835761 93.487 -140.5816
13.936021 93.489 -140.8669
14.037007 93.491 -141.1535
14.138725 93.492 -141.4413
14.241180 93.493 -141.7302
14.344377 93.494 -142.0199
14.448323 93.495 -142.3104
14.553021 93.495 -142.6014
14.658478 93.495 -142.8929
14.764700 93.495 -143.1848
14.871691 93.495 -143.4770
14.979457 93.495 -143.7697
15.088005 93.496 -144.0628
15.197339 93.496 -144.3565
15.307465 93.497 -144.6507
15.418389 93.498 -144.9457
15.530117 93.499 -145.2413
15.642655 93.501 -145.5376
15.756008 93.502 -145.8345
15.870182 93.504 -146.1319
15.985184 93.505 -146.4295
16.101019 93.507 -146.7271
16.217694 93.509 -147.0246
16.335214 93.511 -147.3217
16.453586 93.513 -147.6183
16.572815 93.516 -147.9142
16.692909 93.519 -148.2093
16.813872 93.522 -148.5036
16.935713 93.526 -148.7972
17.058436 93.531 -149.0901
17.182048 93.536 -149.3824
17.306556 93.542 -149.6741
17.431967 93.548 -149.9652
17.558286 93.554 -150.2556
17.685521 93.560 -150.5453
17.813677 93.566 -150.8338
17.942762 93.571 -151.1210
18.072783 93.577 -151.4065
18.203746 93.582 -151.6899
18.335658 93.587 -151.9709
18.468526 93.592 -152.2492
18.602356 93.596 -152.5247
18.737156 93.601 -152.7973
18.872934 93.605 -153.0670
19.009695 93.610 -153.3339
19.147447 93.614 -153.5982
19.286197 93.618 -153.8597
19.425953 93.622 -154.1184
19.566721 93.624 -154.3739
19.708510 93.627 -154.6256
19.851326 93.628 -154.8728
19.995177 93.628 -155.1144
20.140070 93.628 -155.3492
20.286013 93.626 -155.5762
20.433014 93.624 -155.7944
20.581080 93.622 -156.0029
20.730219 93.619 -156.2016
20.880439 93.617 -156.3907
21.031747 93.616 -156.5712
21.184152 93.616 -156.7447
21.337661 93.617 -156.9133
21.492282 93.620 -157.0796
21.648024 93.625 -157.2465
21.804895 93.631 -157.4167
21.962902 93.638 -157.5929
22.122054 93.646 -157.7775
22.282360 93.655 -157.9721
22.443827 93.664 -158.1777
22.606464 93.673 -158.3947
22.770280 93.682 -158.6227
22.935283 93.690 -158.8609
23.101481 93.696 -159.1079
23.268884 93.702 -159.3621
23.437500 93.706 -159.6217
23.607338 93.709 -159.8848
23.778406 93.711 -160.1496
23.950714 93.711 -160.4146
24.124271 93.710 -160.6782
24.299086 93.708 -160.9395
24.475167 93.706 -161.1975
24.652524 93.704 -161.4518
24.831166 93.701 -161.7023
25.011103 93.698 -161.9490
25.192344 93.696 -162.1924
25.374898 93.694 -162.4330
25.558775 93.692 -162.6715
25.743984 93.691 -162.9086
25.930536 93.690 -163.1448
26.118439 93.690 -163.3803
26.307704 93.690 -163.6152
26.498341 93.689 -163.8493
26.690359 93.689 -164.0822
26.883768 93.689 -164.3134
27.078579 93.688 -164.5423
27.274801 93.688 -164.7686
27.472446 93.687 -164.9923
27.671522 93.687 -165.2133
27.872042 93.686 -165.4321
28.074014 93.685 -165.6491
28.277450 93.685 -165.8650
28.482360 93.684 -166.0802
28.688755 93.682 -166.2948
28.896645 93.681 -166.5089
29.106042 93.678 -166.7220
29.316957 93.676 -166.9335
29.529400 93.672 -167.1428
29.743382 93.669 -167.3492
29.958915 93.665 -167.5525
30.176009 93.661 -167.7527
30.394677 93.657 -167.9503
30.614929 93.653 -168.1463
30.836778 93.650 -168.3418
31.060234 93.646 -168.5383
31.285309 93.643 -168.7367
31.512015 93.640 -168.9379
31.740364 93.637 -169.1421
31.970368 93.634 -169.3491
32.202039 93.630 -169.5583
32.435388 93.626 -169.7688
32.670428 93.622 -169.9800
32.907171 93.617 -170.1913
33.145630 93.613 -170.4023
33.385817 93.608 -170.6129
33.627745 93.603 -170.8235
33.871425 93.599 -171.0341
34.116871 93.594 -171.2447
34.364096 93.589 -171.4553
34.613113 93.585 -171.6654
34.863934 93.579 -171.8745
35.116572 93.574 -172.0819
35.371041 93.569 -172.2870
35.627354 93.563 -172.4896
35.885525 93.558 -172.6897
36.145566 93.552 -172.8873
36.407492 93.546 -173.0831
36.671316 93.541 -173.2779
36.937051 93.536 -173.4724
37.204712 93.530 -173.6672
37.474313 93.525 -173.8627
37.745867 93.519 -174.0590
38.019389 93.512 -174.2556
38.294893 93.506 -174.4517
38.572394 93.498 -174.6466
38.851905 93.491 -174.8397
39.133442 93.483 -175.0308
39.417019 93.475 -175.2201
39.702651 93.467 -175.4082
39.990353 93.458 -175.5954
40.280140 93.450 -175.7822
40.572026 93.442 -175.9685
40.866028 93.433 -176.1540
41.162160 93.425 -176.3382
41.460438 93.416 -176.5211
41.760877 93.408 -176.7030
42.063494 93.400 -176.8845
42.368303 93.391 -177.0665
42.675322 93.383 -177.2494
42.984565 93.375 -177.4333
43.296048 93.366 -177.6177
43.609789 93.356 -177.8015
43.925804 93.346 -177.9840
44.244108 93.336 -178.1644
44.564719 93.326 -178.3428
44.887654 93.316 -178.5198
45.212928 93.305 -178.6961
45.540560 93.295 -178.8727
45.870565 93.285 -179.0503
46.202962 93.274 -179.2294
46.537768 93.263 -179.4097
46.875000 93.252 -179.5907
47.214676 93.241 -179.7713
47.556813 93.229 -179.9501
47.901429 93.217 179.8738
48.248542 93.205 179.7010
48.598171 93.193 179.5311
48.950334 93.181 179.3628
49.305048 93.170 179.1950
49.662333 93.159 179.0272
50.022206 93.148 178.8599
50.384688 93.136 178.6946
50.749796 93.125 178.5328
51.117550 93.113 178.3753
51.487969 93.101 178.2215
51.861072 93.090 178.0697
52.236879 93.079 177.9178
52.615409 93.069 177.7646
52.996681 93.058 177.6098
53.380717 93.047 177.4541
53.767536 93.036 177.2985
54.157158 93.024 177.1437
54.549603 93.013 176.9896
54.944892 93.002 176.8353
55.343045 92.991 176.6794
55.744084 92.981 176.5204
56.148028 92.971 176.3576
56.554900 92.961 176.1907
56.964720 92.950 176.0205
57.377510 92.940 175.8478
57.793291 92.929 175.6737
58.212085 92.918 175.4984
58.633914 92.907 175.3225
59.058799 92.895 175.1467
59.486764 92.882 174.9724
59.917829 92.869 174.8013
60.352019 92.855 174.6342
60.789354 92.841 174.4700
61.229859 92.827 174.3070
61.673556 92.811 174.1439
62.120468 92.795 173.9810
62.570618 92.778 173.8204
63.024031 92.760 173.6640
63.480729 92.741 173.5124
63.940736 92.723 173.3637
64.404077 92.705 173.2155
64.870776 92.686 173.0662
65.340856 92.667 172.9161
65.814343 92.648 172.7675
66.291261 92.628 172.6234
66.771635 92.608 172.4862
67.255489 92.589 172.3566
67.742850 92.571 172.2326
68.233743 92.555 172.1097
68.728193 92.539 171.9826
69.226226 92.525 171.8479
69.727867 92.510 171.7058
70.233144 92.494 171.5593
70.742083 92.477 171.4115
71.254709 92.459 171.2641
71.771050 92.441 171.1175
72.291132 92.422 170.9722
72.814984 92.402 170.8293
73.342631 92.383 170.6898
73.874102 92.364 170.5538
74.409424 92.345 170.4208
74.948626 92.328 170.2898
75.491734 92.311 170.1579
76.038779 92.296 170.0205
76.589787 92.280 169.8751
77.144788 92.264 169.7245
77.703811 92.246 169.5759
78.266885 92.227 169.4340
78.834039 92.209 169.2971
79.405303 92.190 169.1608
79.980706 92.170 169.0225
80.560280 92.149 168.8829
81.144053 92.128 168.7426
81.732056 92.107 168.5994
82.324320 92.086 168.4501
82.920876 92.064 168.2912
83.521755 92.043 168.1204
84.126988 92.020 167.9366
84.736607 91.995 167.7417
85.350643 91.969 167.5406
85.969129 91.939 167.3410
86.592097 91.906 167.1521
87.219579 91.870 166.9830
87.851608 91.833 166.8395
88.488217 91.796 166.7219
89.129439 91.760 166.6256
89.775308 91.725 166.5445
90.425856 91.691 166.4720
91.081119 91.659 166.4015
91.741131 91.627 166.3262
92.405925 91.597 166.2416
93.075536 91.565 166.1478
93.750000 91.532 166.0485
94.429351 91.498 165.9475
95.113625 91.462 165.8471
95.802858 91.425 165.7487
96.497085 91.386 165.6541
97.196342 91.345 165.5655
97.900667 91.301 165.4854
98.610096 91.256 165.4153
99.324665 91.208 165.3561
100.044413 91.157 165.3082
100.769376 91.104 165.2740
101.499592 91.048 165.2568
102.235100 90.988 165.2603
102.975938 90.924 165.2934
103.722144 90.855 165.3771
104.473757 90.783 165.5411
105.230817 90.711 165.8080
105.993363 90.647 166.1808
106.761435 90.594 166.6402
107.535072 90.558 167.1512
108.314315 90.539 167.6763
109.099206 90.538 168.1821
109.889783 90.554 168.6370
110.686090 90.587 169.0075
111.488167 90.633 169.2644
112.296056 90.687 169.3887
113.109800 90.745 169.3769
113.929440 90.802 169.2426
114.755020 90.852 169.0145
115.586582 90.896 168.7283
116.424170 90.931 168.4160
117.267827 90.959 168.0995
118.117598 90.980 167.7896
118.973527 90.994 167.4892
119.835658 91.000 167.2024
120.704037 90.998 166.9385
121.578708 90.988 166.7063
122.459718 90.972 166.5063
123.347111 90.952 166.3317
124.240935 90.930 166.1723
125.141236 90.907 166.0182
126.048061 90.882 165.8639
126.961458 90.856 165.7095
127.881473 90.829 165.5590
128.808154 90.801 165.4167
129.741551 90.774 165.2852
130.681712 90.747 165.1633
131.628686 90.720 165.0480
132.582521 90.694 164.9361
133.543269 90.666 164.8267
134.510979 90.637 164.7204
135.485701 90.607 164.6187
136.467486 90.576 164.5225
137.456386 90.545 164.4319
138.452451 90.514 164.3471
139.455735 90.483 164.2679
140.466288 90.452 164.1947
141.484165 90.421 164.1277
142.509418 90.391 164.0671
143.542100 90.360 164.0125
144.582265 90.329 163.9630
145.629968 90.297 163.9173
146.685262 90.265 163.8747
147.748204 90.232 163.8351
148.818849 90.198 163.7997
149.897251 90.163 163.7707
150.983469 90.127 163.7513
152.077557 90.090 163.7444
153.179574 90.054 163.7505
154.289576 90.019 163.7670
155.407622 89.984 163.7881
156.533770 89.951 163.8082
157.668078 89.920 163.8228
158.810606 89.889 163.8294
159.961413 89.858 163.8277
161.120559 89.828 163.8189
162.288105 89.797 163.8060
163.464112 89.765 163.7921
164.648640 89.732 163.7791
165.841752 89.698 163.7687
167.043510 89.663 163.7626
168.253976 89.627 163.7631
169.473213 89.590 163.7728
170.701286 89.554 163.7930
171.938258 89.519 163.8225
173.184194 89.485 163.8579
174.439158 89.452 163.8951
175.703216 89.419 163.9312
176.976434 89.387 163.9649
178.258878 89.355 163.9968
179.550615 89.322 164.0289
180.851713 89.290 164.0637
182.162239 89.258 164.1029
183.482262 89.227 164.1465
184.811850 89.195 164.1915
186.151073 89.164 164.2347
187.500000 89.133 164.2749
188.858702 89.101 164.3133
190.227250 89.068 164.3521
191.605715 89.035 164.3939
192.994169 89.002 164.4406
194.392685 88.970 164.4937
195.801334 88.937 164.5542
197.220191 88.904 164.6230
198.649330 88.871 164.7018
200.088825 88.838 164.7910
201.538751 88.806 164.8898
202.999184 88.775 164.9949
204.470200 88.746 165.1015
205.951875 88.719 165.2050
207.444287 88.693 165.3031
208.947514 88.668 165.3972
210.461634 88.642 165.4899
211.986726 88.615 165.5835
213.522869 88.587 165.6802
215.070144 88.557 165.7820
216.628631 88.526 165.8909
218.198411 88.495 166.0078
219.779567 88.465 166.1305
221.372180 88.436 166.2549
222.976334 88.409 166.3766
224.592112 88.382 166.4932
226.219600 88.355 166.6046
227.858880 88.329 166.7123
229.510039 88.302 166.8183
231.173164 88.275 166.9250
232.848340 88.247 167.0338
234.535655 88.221 167.1446
236.235197 88.194 167.2557
237.947054 88.168 167.3650
239.671317 88.142 167.4710
241.408074 88.115 167.5739
243.157416 88.088 167.6758
244.919435 88.059 167.7799
246.694223 88.030 167.8903
248.481871 88.000 168.0112
250.282473 87.969 168.1460
252.096123 87.940 168.2967
253.922915 87.911 168.4615
255.762945 87.885 168.6342
257.616309 87.862 168.8044
259.483103 87.840 168.9615
261.363424 87.820 169.1002
263.257372 87.798 169.2224
265.165043 87.775 169.3359
267.086538 87.751 169.4495
269.021957 87.725 169.5706
270.971401 87.699 169.7029
272.934972 87.673 169.8470
274.912771 87.647 170.0010
276.904902 87.623 170.1627
278.911469 87.600 170.3305
280.932577 87.579 170.5025
282.968330 87.560 170.6754
285.018835 87.543 170.8437
287.084199 87.527 171.0004
289.164530 87.512 171.1389
291.259935 87.496 171.2571
293.370525 87.477 171.3593
295.496408 87.456 171.4547
297.637697 87.432 171.5535
299.794503 87.406 171.6627
301.966937 87.379 171.7850
304.155114 87.351 171.9197
306.359147 87.324 172.0641
308.579152 87.296 172.2143
310.815244 87.269 172.3671
313.067539 87.241 172.5209
315.336156 87.213 172.6766
317.621211 87.184 172.8377
319.922826 87.154 173.0085
322.241118 87.124 173.1914
324.576210 87.096 173.3857
326.928223 87.068 173.5880
329.297280 87.042 173.7945
331.683504 87.017 174.0019
334.087019 86.993 174.2076
336.507952 86.970 174.4101
338.946427 86.946 174.6091
341.402572 86.922 174.8057
343.876516 86.898 175.0020
346.368387 86.873 175.2001
348.878315 86.848 175.4019
351.406431 86.822 175.6079
353.952867 86.797 175.8183
356.517756 86.772 176.0326
359.101230 86.747 176.2502
361.703426 86.722 176.4706
364.324478 86.697 176.6934
366.964523 86.672 176.9183
369.623699 86.648 177.1460
372.302145 86.624 177.3767
375.000000 86.600 177.6108
377.717405 86.577 177.8480
380.454501 86.554 178.0880
383.211431 86.531 178.3302
385.988339 86.509 178.5742
388.785369 86.487 178.8199
391.602668 86.465 179.0677
394.440383 86.444 179.3182
397.298660 86.423 179.5717
400.177650 86.403 179.8274
403.077502 86.383 -179.9164
405.998368 86.363 -179.6620
408.940400 86.343 -179.4100
411.903750 86.323 -179.1587
414.888575 86.302 -178.9041
417.895028 86.281 -178.6420
420.923268 86.260 -178.3699
423.973452 86.240 -178.0871
427.045738 86.221 -177.7956
430.140287 86.204 -177.4995
433.257261 86.188 -177.2034
436.396822 86.175 -176.9104
439.559133 86.162 -176.6210
442.744360 86.151 -176.3354
445.952668 86.141 -176.0560
449.184225 86.132 -175.7872
452.439199 86.123 -175.5347
455.717760 86.114 -175.3010
459.020079 86.103 -175.0820
462.346327 86.088 -174.8674
465.696680 86.071 -174.6455
469.071310 86.052 -174.4093
472.470394 86.031 -174.1572
475.894109 86.011 -173.8921
479.342634 85.992 -173.6195
482.816148 85.973 -173.3451
486.314833 85.953 -173.0708
489.838871 85.933 -172.7920
493.388445 85.912 -172.5006
496.963741 85.892 -172.1928
500.564945 85.872 -171.8722
504.192245 85.855 -171.5468
507.845830 85.839 -171.2237
511.525890 85.824 -170.9061
515.232618 85.809 -170.5930
518.966206 85.793 -170.2811
522.726849 85.777 -169.9653
526.514743 85.761 -169.6409
530.330086 85.745 -169.3056
534.173076 85.731 -168.9613
538.043915 85.717 -168.6129
541.942803 85.704 -168.2632
545.869944 85.691 -167.9122
549.825542 85.680 -167.5598
553.809805 85.669 -167.2077
557.822939 85.660 -166.8589
561.865154 85.651 -166.5149
565.936660 85.642 -166.1743
570.037671 85.632 -165.8333
574.168399 85.622 -165.4885
578.329060 85.612 -165.1381
582.519870 85.602 -164.7829
586.741049 85.592 -164.4233
590.992817 85.581 -164.0575
595.275394 85.571 -163.6832
599.589005 85.562 -163.3013
603.933874 85.553 -162.9158
608.310228 85.546 -162.5307
612.718295 85.539 -162.1474
617.158304 85.531 -161.7636
621.630488 85.524 -161.3736
626.135079 85.516 -160.9714
630.672311 85.508 -160.5547
635.242423 85.503 -160.1276
639.845651 85.499 -159.6958
644.482237 85.497 -159.2610
649.152421 85.497 -158.8220
653.856447 85.499 -158.3800
658.594560 85.504 -157.9415
663.367008 85.511 -157.5167
668.174039 85.519 -157.1133
673.015903 85.526 -156.7305
677.892854 85.531 -156.3603
682.805145 85.533 -155.9928
687.753032 85.532 -155.6197
692.736774 85.530 -155.2347
697.756631 85.527 -154.8329
702.812863 85.523 -154.4127
707.905735 85.520 -153.9767
713.035511 85.518 -153.5299
718.202461 85.517 -153.0760
723.406852 85.517 -152.6160
728.648956 85.518 -152.1487
733.929047 85.520 -151.6730
739.247399 85.523 -151.1884
744.604290 85.526 -150.6950
750.000000 85.531 -150.1933
755.434809 85.538 -149.6842
760.909001 85.546 -149.1687
766.422861 85.555 -148.6480
771.976677 85.567 -148.1232
777.570739 85.580 -147.5956
783.205337 85.595 -147.0659
788.880766 85.611 -146.5331
794.597321 85.628 -145.9940
800.355301 85.648 -145.4462
806.155005 85.670 -144.8912
811.996736 85.697 -144.3347
817.880799 85.727 -143.7857
823.807501 85.760 -143.2543
829.777150 85.796 -142.7492
835.790057 85.833 -142.2726
841.846536 85.869 -141.8176
847.946903 85.902 -141.3732
854.091476 85.934 -140.9312
860.280575 85.965 -140.4871
866.514523 85.995 -140.0375
872.793644 86.025 -139.5789
879.118267 86.055 -139.1115
885.488720 86.086 -138.6395
891.905336 86.119 -138.1667
898.368450 86.153 -137.6931
904.878398 86.188 -137.2167
911.435520 86.224 -136.7368
918.040157 86.262 -136.2553
924.692655 86.302 -135.7747
931.393359 86.344 -135.2982
938.142619 86.388 -134.8294
944.940787 86.433 -134.3703
951.788218 86.480 -133.9204
958.685268 86.526 -133.4772
965.632296 86.573 -133.0382
972.629666 86.621 -132.6004
979.677741 86.670 -132.1628
986.776890 86.720 -131.7263
993.927482 86.771 -131.2904
1001.129891 86.822 -130.8519
1008.384491 86.875 -130.4074
1015.691660 86.931 -129.9574
1023.051781 86.990 -129.5062
1030.465236 87.054 -129.0614
1037.932411 87.121 -128.6346
1045.453698 87.192 -128.2383
1053.029486 87.263 -127.8779
1060.660172 87.334 -127.5497
1068.346153 87.403 -127.2451
1076.087829 87.470 -126.9544
1083.885605 87.535 -126.6712
1091.739887 87.600 -126.3933
1099.651084 87.664 -126.1206
1107.619609 87.728 -125.8529
1115.645878 87.790 -125.5894
1123.730308 87.852 -125.3292
1131.873321 87.914 -125.0714
1140.075341 87.975 -124.8146
1148.336797 88.035 -124.5578
1156.658119 88.096 -124.3001
1165.039741 88.157 -124.0403
1173.482099 88.219 -123.7770
1181.985634 88.283 -123.5114
1190.550789 88.350 -123.2499
1199.178011 88.420 -123.0036
1207.867749 88.492 -122.7839
1216.620457 88.564 -122.5960
1225.436590 88.634 -122.4358
1234.316609 88.702 -122.2942
1243.260976 88.767 -122.1622
1252.270157 88.828 -122.0322
1261.344623 88.887 -121.9002
1270.484846 88.945 -121.7646
1279.691303 89.000 -121.6238
1288.964474 89.055 -121.4763
1298.304842 89.109 -121.3222
1307.712894 89.163 -121.1639
1317.189120 89.217 -121.0046
1326.734016 89.271 -120.8462
1336.348077 89.325 -120.6876
1346.031806 89.379 -120.5257
1355.785708 89.434 -120.3560
1365.610290 89.489 -120.1746
1375.506065 89.546 -119.9769
1385.473549 89.604 -119.7578
1395.513261 89.666 -119.5166
1405.625726 89.732 -119.2589
1415.811469 89.803 -118.9971
1426.071023 89.878 -118.7467
1436.404921 89.955 -118.5181
1446.813703 90.034 -118.3128
1457.297912 90.112 -118.1265
1467.858093 90.188 -117.9535
1478.494798 90.263 -117.7897
1489.208581 90.334 -117.6319
1500.000000 90.403 -117.4761
1510.869618 90.467 -117.3186
1521.818002 90.527 -117.1556
1532.845723 90.583 -116.9841
1543.953355 90.634 -116.8014
1555.141477 90.684 -116.6066
1566.410674 90.735 -116.4030
1577.761531 90.787 -116.2008
1589.194642 90.840 -116.0137
1600.710601 90.895 -115.8503
1612.310010 90.949 -115.7110
1623.993473 91.002 -115.5906
1635.761599 91.053 -115.4814
1647.615002 91.102 -115.3770
1659.554299 91.150 -115.2726
1671.580114 91.196 -115.1649
1683.693072 91.243 -115.0535
1695.893807 91.289 -114.9405
1708.182952 91.335 -114.8283
1720.561150 91.379 -114.7169
1733.029045 91.422 -114.6029
1745.587288 91.463 -114.4807
1758.236533 91.502 -114.3435
1770.977440 91.541 -114.1858
1783.810673 91.582 -114.0085
1796.736900 91.627 -113.8215
1809.756796 91.676 -113.6393
1822.871040 91.728 -113.4732
1836.080315 91.781 -113.3272
1849.385310 91.836 -113.1998
1862.786718 91.891 -113.0874
1876.285239 91.947 -112.9852
1889.881575 92.003 -112.8876
1903.576436 92.061 -112.7886
1917.370535 92.123 -112.6831
1931.264593 92.190 -112.5677
1945.259332 92.263 -112.4438
1959.355483 92.343 -112.3205
1973.553781 92.428 -112.2117
1987.854965 92.518 -112.1285
2002.259781 92.610 -112.0748
2016.768981 92.703 -112.0484
2031.383320 92.794 -112.0445
2046.103561 92.884 -112.0573
2060.930471 92.972 -112.0823
2075.864823 93.059 -112.1174
2090.907395 93.144 -112.1622
2106.058972 93.226 -112.2145
2121.320344 93.306 -112.2695
2136.692305 93.383 -112.3192
2152.175658 93.458 -112.3557
2167.771210 93.532 -112.3770
2183.479774 93.608 -112.3904
2199.302169 93.686 -112.4084
2215.239219 93.765 -112.4410
2231.291755 93.844 -112.4928
2247.460615 93.923 -112.5634
2263.746641 94.000 -112.6489
2280.150683 94.076 -112.7424
2296.673595 94.150 -112.8357
2313.316238 94.224 -112.9225
2330.079481 94.299 -113.0016
2346.964198 94.377 -113.0807
2363.971268 94.456 -113.1720
2381.101578 94.538 -113.2854
2398.356022 94.619 -113.4248
2415.735498 94.700 -113.5891
2433.240913 94.779 -113.7745
2450.873180 94.856 -113.9768
2468.633217 94.930 -114.1927
2486.521951 95.002 -114.4188
2504.540314 95.071 -114.6485
2522.689246 95.137 -114.8723
2540.969692 95.201 -115.0815
2559.382606 95.267 -115.2751
2577.928947 95.334 -115.4610
2596.609683 95.405 -115.6515
2615.425787 95.477 -115.8570
2634.378241 95.550 -116.0839
2653.468031 95.624 -116.3333
2672.696154 95.696 -116.6013
2692.063613 95.767 -116.8816
2711.571415 95.837 -117.1692
2731.220579 95.908 -117.4662
2751.012130 95.979 -117.7802
2770.947098 96.051 -118.1185
2791.026522 96.121 -118.4850
2811.251451 96.188 -118.8789
2831.622938 96.253 -119.2974
2852.142045 96.314 -119.7366
2872.809842 96.370 -120.1916
2893.627406 96.421 -120.6536
2914.595823 96.466 -121.1106
2935.716186 96.508 -121.5520
2956.989596 96.547 -121.9743
2978.417161 96.586 -122.3809
3000.000000 96.624 -122.7774
3021.739237 96.661 -123.1677
3043.636005 96.697 -123.5514
3065.691446 96.733 -123.9233
3087.906710 96.767 -124.2772
3110.282955 96.804 -124.6111
3132.821347 96.843 -124.9315
3155.523062 96.885 -125.2498
3178.389283 96.931 -125.5776
3201.421202 96.979 -125.9240
3224.620020 97.028 -126.2948
3247.986946 97.076 -126.6932
3271.523198 97.124 -127.1173
3295.230004 97.168 -127.5589
3319.108599 97.209 -128.0064
3343.160228 97.249 -128.4525
3367.386145 97.288 -128.8960
3391.787613 97.327 -129.3394
3416.365904 97.366 -129.7849
3441.122300 97.404 -130.2301
3466.058091 97.442 -130.6681
3491.174576 97.481 -131.0925
3516.473066 97.522 -131.5037
3541.954880 97.566 -131.9092
3567.621345 97.615 -132.3207
3593.473800 97.667 -132.7504
3619.513592 97.722 -133.2094
3645.742080 97.778 -133.7054
3672.160630 97.834 -134.2395
3698.770620 97.888 -134.8058
3725.573436 97.940 -135.3974
3752.570477 97.991 -136.0116
3779.763150 98.039 -136.6498
3807.152872 98.083 -137.3135
3834.741071 98.124 -137.9999
3862.529185 98.161 -138.7012
3890.518664 98.193 -139.4104
3918.710966 98.224 -140.1264
3947.107561 98.255 -140.8555
3975.709929 98.285 -141.6073
4004.519563 98.315 -142.3935
4033.537962 98.344 -143.2241
4062.766641 98.369 -144.1025
4092.207123 98.390 -145.0243
4121.860942 98.406 -145.9832
4151.729646 98.415 -146.9751
4181.814790 98.418 -147.9985
4212.117944 98.414 -149.0496
4242.640687 98.400 -150.1190
4273.384610 98.378 -151.1939
4304.351317 98.347 -152.2650
4335.542421 98.309 -153.3294
4366.959549 98.265 -154.3896
4398.604338 98.215 -155.4526
4430.478438 98.159 -156.5249
4462.583511 98.095 -157.6077
4494.921231 98.023 -158.6958
4527.493283 97.943 -159.7829
4560.301365 97.854 -160.8644
4593.347189 97.755 -161.9357
4626.632476 97.646 -162.9875
4660.158962 97.527 -164.0057
4693.928395 97.398 -164.9763
4727.942535 97.261 -165.8906
4762.203156 97.119 -166.7467
4796.712043 96.972 -167.5495
4831.470996 96.822 -168.3060
4866.481826 96.667 -169.0191
4901.746360 96.509 -169.6882
4937.266434 96.347 -170.3129
4973.043902 96.181 -170.8942
5009.080628 96.010 -171.4297
5045.378492 95.834 -171.9108
5081.939384 95.652 -172.3256
5118.765212 95.468 -172.6648
5155.857894 95.282 -172.9253
5193.219366 95.096 -173.1124
5230.851574 94.912 -173.2349
5268.756481 94.729 -173.3001
5306.936062 94.549 -173.3139
5345.392309 94.370 -173.2828
5384.127225 94.193 -173.2127
5423.142830 94.015 -173.1030
5462.441159 93.836 -172.9460
5502.024259 93.656 -172.7313
5541.894195 93.476 -172.4511
5582.053045 93.299 -172.1045
5622.502902 93.126 -171.6963
5663.245876 92.958 -171.2328
5704.284090 92.796 -170.7209
5745.619684 92.642 -170.1701
5787.254813 92.495 -169.5900
5829.191647 92.354 -168.9850
5871.432373 92.218 -168.3532
5913.979192 92.087 -167.6890
5956.834323 91.962 -166.9891
6000.000000 91.845 -166.2546
6043.478473 91.735 -165.4890
6087.272010 91.634 -164.6969
6131.382892 91.542 -163.8854
6175.813420 91.460 -163.0634
6220.565910 91.386 -162.2363
6265.642695 91.320 -161.4038
6311.046124 91.261 -160.5613
6356.778566 91.210 -159.7053
6402.842404 91.169 -158.8365
6449.240040 91.137 -157.9588
6495.973891 91.117 -157.0789
6543.046396 91.108 -156.2069
6590.460007 91.110 -155.3530
6638.217197 91.124 -154.5228
6686.320456 91.147 -153.7170
6734.772290 91.181 -152.9343
6783.575226 91.226 -152.1756
6832.731809 91.282 -151.4450
6882.244600 91.350 -150.7509
6932.116181 91.430 -150.1064
6982.349153 91.520 -149.5262
7032.946133 91.621 -149.0222
7083.909760 91.732 -148.6022
7135.242690 91.854 -148.2723
7186.947600 91.986 -148.0402
7239.027185 92.129 -147.9166
7291.484160 92.283 -147.9171
7344.321260 92.446 -148.0620
7397.541239 92.618 -148.3726
7451.146872 92.794 -148.8648
7505.140954 92.972 -149.5481
7559.526299 93.149 -150.4278
7614.305743 93.320 -151.5070
7669.482141 93.485 -152.7886
7725.058371 93.638 -154.2781
7781.037328 93.776 -155.9799
7837.421932 93.894 -157.8908
7894.215122 93.984 -159.9957
7951.419859 94.043 -162.2695
8009.039125 94.065 -164.6786
8067.075924 94.048 -167.1850
8125.533282 93.991 -169.7519
8184.414245 93.893 -172.3441
8243.721885 93.752 -174.9252
8303.459292 93.568 -177.4549
8363.629581 93.343 -179.8905
8424.235888 93.079 177.8105
8485.281374 92.779 175.6848
8546.769221 92.449 173.7574
8608.702634 92.095 172.0419
8671.084842 91.721 170.5453
8733.919097 91.332 169.2724
8797.208675 90.931 168.2285
8860.956876 90.522 167.4185
8925.167022 90.109 166.8419
8989.842461 89.697 166.4901
9054.986566 89.290 166.3497
9120.602731 88.889 166.4073
9186.694378 88.498 166.6539
9253.264952 88.118 167.0859
9320.317925 87.751 167.6996
9387.856790 87.402 168.4853
9455.885071 87.073 169.4264
9524.406312 86.768 170.5023
9593.424086 86.487 171.6939
9662.941992 86.234 172.9866
9732.963653 86.009 174.3660
9803.492719 85.814 175.8121
9874.532869 85.650 177.2994
9946.087805 85.518 178.8012
10018.161257 85.414 -179.7026
10090.756983 85.339 -178.2237
10163.878768 85.291 -176.7715
10237.530423 85.270 -175.3597
10311.715789 85.276 -174.0063
10386.438732 85.306 -172.7280
10461.703149 85.360 -171.5340
10537.512962 85.437 -170.4289
10613.872125 85.535 -169.4203
10690.784618 85.656 -168.5230
10768.254450 85.798 -167.7559
10846.285661 85.959 -167.1348
10924.882318 86.138 -166.6709
11004.048518 86.334 -166.3768
11083.788390 86.546 -166.2701
11164.106090 86.771 -166.3727
11245.005805 87.007 -166.7032
11326.491752 87.249 -167.2736
11408.568180 87.495 -168.0926
11491.239368 87.740 -169.1698
11574.509626 87.979 -170.5142
11658.383294 88.206 -172.1276
11742.864745 88.416 -174.0016
11827.958384 88.603 -176.1197
11913.668646 88.762 -178.4620
12000.000000 88.890 178.9941
12086.956947 88.981 176.2785
12174.544019 89.034 173.4288
12262.765784 89.046 170.4857
12351.626840 89.019 167.4870
12441.131819 88.952 164.4660
12531.285389 88.848 161.4536
12622.092249 88.711 158.4782
12713.557132 88.543 155.5613
12805.684808 88.349 152.7136
12898.480079 88.134 149.9376
12991.947783 87.900 147.2327
13086.092792 87.651 144.5952
13180.920015 87.389 142.0153
13276.434395 87.116 139.4782
13372.640911 86.833 136.9697
13469.544580 86.539 134.4794
13567.150452 86.234 131.9993
13665.463617 85.916 129.5215
13764.489200 85.584 127.0417
13864.232362 85.237 124.5624
13964.698305 84.872 122.0905
14065.892266 84.489 119.6336
14167.819519 84.088 117.2001
14270.485380 83.668 114.8023
14373.895200 83.231 112.4536
14478.054370 82.777 110.1642
14582.968320 82.307 107.9418
14688.642520 81.824 105.7952
14795.082478 81.329 103.7329
14902.293745 80.825 101.7607
15010.281908 80.315 99.8813
15119.052599 79.802 98.0966
15228.611486 79.290 96.4053
15338.964283 78.785 94.7997
15450.116741 78.293 93.2662
15562.074656 77.817 91.7860
15674.843864 77.361 90.3336
15788.430244 76.926 88.8744
15902.839718 76.514 87.3673
16018.078250 76.124 85.7666
16134.151848 75.753 84.0224
16251.066563 75.398 82.0839
16368.828491 75.052 79.9062
16487.443769 74.704 77.4563
16606.918584 74.345 74.7154
16727.259161 73.959 71.6853
16848.471777 73.534 68.3939
16970.562748 73.056 64.8944
17093.538442 72.513 61.2631
17217.405268 71.897 57.5966
17342.169684 71.204 54.0034
17467.838194 70.433 50.5927
17594.417350 69.586 47.4667
17721.913751 68.671 44.7165
17850.334044 67.696 42.4154
17979.684923 66.675 40.6149
18109.973131 65.620 39.3447
18241.205462 64.546 38.6114
18373.388756 63.468 38.3974
18506.529905 62.398 38.6641
18640.635849 61.349 39.3488
18775.713581 60.334 40.3640
18911.770141 59.364 41.5999
19048.812624 58.446 42.9266
19186.848172 57.588 44.1967
19325.883983 56.793 45.2627
19465.927305 56.067 46.0081
19606.985439 55.420 46.3800
19749.065738 54.877 46.4120
19892.175609 54.477 46.2354
20036.322514 54.262 46.0583
