* Measurement data measured by REW V5.30 beta 5
* Source: EXCL: Microphone (Realtek(R) Audio), MICROPHONE (Master Volume), L, volume: 0.250
* Format: 256k Log Swept Sine, 1 sweep at -13.0 dBFS with no timing reference
* Dated: Dec 16, 2023 12:03:54 AM
* REW Settings:
*  C-weighting compensation: Off
*  Target level: 75.0 dB
* Note: 
* Measurement: L Unique Melody Mext
* Smoothing: 1/24 octave
* Frequency Step: 96 ppo
* Start Frequency: 0.36621094 Hz
*
* Freq(Hz) SPL(dB) Phase(degrees)
0.366211 71.380 11.4483
0.368865 71.415 11.3490
0.371538 71.465 11.2059
0.374230 71.521 11.0444
0.376942 71.580 10.8758
0.379673 71.640 10.7042
0.382424 71.701 10.5311
0.385196 71.762 10.3567
0.387987 71.823 10.1812
0.390798 71.885 10.0048
0.393630 71.947 9.8273
0.396483 72.010 9.6488
0.399356 72.074 9.4694
0.402250 72.137 9.2890
0.405165 72.202 9.1078
0.408101 72.266 8.9256
0.411058 72.331 8.7426
0.414037 72.397 8.5588
0.417037 72.463 8.3741
0.420059 72.530 8.1886
0.423103 72.597 8.0023
0.426169 72.664 7.8152
0.429257 72.732 7.6274
0.432367 72.801 7.4388
0.435501 72.870 7.2495
0.438656 72.939 7.0594
0.441835 73.009 6.8686
0.445037 73.080 6.6771
0.448262 73.151 6.4849
0.451510 73.222 6.2920
0.454782 73.294 6.0984
0.458077 73.367 5.9042
0.461397 73.440 5.7092
0.464740 73.514 5.5135
0.468108 73.588 5.3171
0.471500 73.663 5.1200
0.474917 73.738 4.9221
0.478358 73.814 4.7236
0.481825 73.890 4.5243
0.485316 73.967 4.3243
0.488833 74.045 4.1235
0.492375 74.123 3.9220
0.495943 74.201 3.7196
0.499537 74.280 3.5164
0.503157 74.360 3.3124
0.506803 74.440 3.1075
0.510475 74.521 2.9018
0.514174 74.603 2.6951
0.517900 74.685 2.4875
0.521653 74.767 2.2789
0.525433 74.851 2.0693
0.529241 74.935 1.8586
0.533076 75.019 1.6468
0.536939 75.104 1.4339
0.540830 75.190 1.2199
0.544749 75.276 1.0046
0.548696 75.363 0.7881
0.552673 75.451 0.5702
0.556677 75.539 0.3510
0.560711 75.628 0.1304
0.564774 75.717 -0.0917
0.568867 75.808 -0.3154
0.572989 75.898 -0.5406
0.577141 75.990 -0.7675
0.581324 76.082 -0.9961
0.585536 76.175 -1.2265
0.589779 76.268 -1.4587
0.594053 76.362 -1.6929
0.598358 76.457 -1.9291
0.602694 76.553 -2.1674
0.607061 76.649 -2.4078
0.611460 76.746 -2.6505
0.615891 76.843 -2.8955
0.620354 76.942 -3.1429
0.624849 77.041 -3.3928
0.629377 77.141 -3.6453
0.633938 77.241 -3.9005
0.638532 77.342 -4.1585
0.643159 77.444 -4.4194
0.647819 77.547 -4.6832
0.652514 77.650 -4.9502
0.657242 77.754 -5.2204
0.662005 77.859 -5.4939
0.666802 77.965 -5.7709
0.671634 78.071 -6.0514
0.676501 78.179 -6.3356
0.681403 78.287 -6.6236
0.686341 78.395 -6.9155
0.691314 78.505 -7.2116
0.696324 78.615 -7.5118
0.701369 78.727 -7.8164
0.706452 78.838 -8.1254
0.711571 78.951 -8.4391
0.716727 79.064 -8.7576
0.721921 79.178 -9.0808
0.727153 79.290 -9.4088
0.732422 79.399 -9.7411
0.737729 79.503 -10.0767
0.743075 79.602 -10.4145
0.748460 79.700 -10.7538
0.753883 79.798 -11.0943
0.759346 79.895 -11.4359
0.764849 79.992 -11.7782
0.770391 80.089 -12.1214
0.775974 80.186 -12.4652
0.781597 80.283 -12.8096
0.787261 80.379 -13.1544
0.792965 80.476 -13.4996
0.798712 80.573 -13.8452
0.804499 80.669 -14.1910
0.810329 80.766 -14.5370
0.816201 80.863 -14.8832
0.822116 80.959 -15.2295
0.828073 81.055 -15.5759
0.834073 81.152 -15.9223
0.840118 81.248 -16.2688
0.846205 81.344 -16.6153
0.852337 81.440 -16.9619
0.858514 81.536 -17.3085
0.864735 81.632 -17.6551
0.871001 81.728 -18.0018
0.877313 81.824 -18.3486
0.883670 81.920 -18.6955
0.890074 82.016 -19.0426
0.896523 82.111 -19.3899
0.903020 82.207 -19.7375
0.909564 82.303 -20.0854
0.916155 82.398 -20.4337
0.922793 82.494 -20.7825
0.929480 82.590 -21.1319
0.936216 82.686 -21.4819
0.943000 82.781 -21.8326
0.949833 82.877 -22.1842
0.956716 82.973 -22.5368
0.963649 83.069 -22.8905
0.970632 83.164 -23.2453
0.977666 83.260 -23.6015
0.984750 83.356 -23.9591
0.991886 83.452 -24.3184
0.999074 83.549 -24.6795
1.006313 83.645 -25.0424
1.013605 83.741 -25.4075
1.020950 83.838 -25.7749
1.028349 83.935 -26.1447
1.035801 84.031 -26.5171
1.043306 84.129 -26.8924
1.050867 84.226 -27.2708
1.058482 84.323 -27.6525
1.066152 84.421 -28.0376
1.073878 84.519 -28.4265
1.081659 84.618 -28.8194
1.089498 84.716 -29.2166
1.097393 84.815 -29.6184
1.105345 84.914 -30.0250
1.113355 85.013 -30.4367
1.121422 85.111 -30.8533
1.129549 85.210 -31.2746
1.137734 85.307 -31.7004
1.145978 85.405 -32.1303
1.154283 85.502 -32.5641
1.162647 85.599 -33.0016
1.171072 85.696 -33.4424
1.179558 85.792 -33.8862
1.188106 85.888 -34.3329
1.196715 85.984 -34.7821
1.205387 86.079 -35.2337
1.214122 86.174 -35.6874
1.222920 86.269 -36.1429
1.231781 86.363 -36.6000
1.240708 86.458 -37.0586
1.249698 86.552 -37.5183
1.258754 86.645 -37.9791
1.267875 86.739 -38.4408
1.277063 86.832 -38.9030
1.286317 86.925 -39.3658
1.295638 87.018 -39.8289
1.305027 87.110 -40.2921
1.314484 87.203 -40.7553
1.324009 87.295 -41.2185
1.333603 87.387 -41.6814
1.343267 87.479 -42.1439
1.353001 87.570 -42.6060
1.362805 87.662 -43.0675
1.372681 87.754 -43.5284
1.382628 87.845 -43.9886
1.392647 87.936 -44.4480
1.402739 88.028 -44.9065
1.412904 88.119 -45.3642
1.423142 88.211 -45.8209
1.433455 88.302 -46.2767
1.443842 88.394 -46.7317
1.454305 88.485 -47.1862
1.464843 88.577 -47.6407
1.475458 88.668 -48.0966
1.486150 88.759 -48.5550
1.496919 88.849 -49.0162
1.507766 88.939 -49.4804
1.518692 89.028 -49.9475
1.529697 89.117 -50.4172
1.540782 89.205 -50.8895
1.551947 89.293 -51.3640
1.563193 89.380 -51.8407
1.574521 89.467 -52.3193
1.585931 89.553 -52.7996
1.597423 89.639 -53.2815
1.608998 89.724 -53.7648
1.620658 89.809 -54.2494
1.632402 89.894 -54.7352
1.644231 89.977 -55.2219
1.656146 90.061 -55.7095
1.668147 90.144 -56.1978
1.680235 90.227 -56.6868
1.692410 90.309 -57.1763
1.704674 90.391 -57.6663
1.717027 90.473 -58.1566
1.729469 90.554 -58.6473
1.742002 90.635 -59.1381
1.754625 90.716 -59.6291
1.767340 90.796 -60.1203
1.780147 90.876 -60.6116
1.793046 90.956 -61.1030
1.806040 91.036 -61.5947
1.819127 91.116 -62.0872
1.832309 91.195 -62.5814
1.845587 91.274 -63.0793
1.858961 91.353 -63.5821
1.872431 91.430 -64.0905
1.886000 91.507 -64.6043
1.899666 91.583 -65.1231
1.913432 91.659 -65.6465
1.927298 91.734 -66.1740
1.941264 91.808 -66.7050
1.955331 91.881 -67.2391
1.969500 91.954 -67.7758
1.983772 92.026 -68.3144
1.998147 92.097 -68.8546
2.012626 92.168 -69.3959
2.027211 92.238 -69.9376
2.041901 92.308 -70.4794
2.056697 92.377 -71.0208
2.071601 92.445 -71.5612
2.086613 92.514 -72.1003
2.101733 92.581 -72.6374
2.116963 92.648 -73.1722
2.132303 92.715 -73.7042
2.147755 92.782 -74.2329
2.163318 92.848 -74.7583
2.178995 92.913 -75.2802
2.194785 92.979 -75.7997
2.210689 93.043 -76.3189
2.226709 93.107 -76.8403
2.242844 93.170 -77.3650
2.259097 93.233 -77.8933
2.275467 93.294 -78.4250
2.291956 93.354 -78.9596
2.308565 93.414 -79.4966
2.325294 93.473 -80.0355
2.342144 93.531 -80.5757
2.359116 93.588 -81.1167
2.376211 93.644 -81.6579
2.393430 93.700 -82.1986
2.410774 93.755 -82.7383
2.428243 93.810 -83.2764
2.445839 93.864 -83.8122
2.463562 93.918 -84.3451
2.481415 93.971 -84.8743
2.499396 94.023 -85.3994
2.517508 94.075 -85.9196
2.535750 94.127 -86.4347
2.554126 94.178 -86.9449
2.572634 94.229 -87.4514
2.591276 94.279 -87.9567
2.610054 94.328 -88.4621
2.628967 94.377 -88.9683
2.648018 94.424 -89.4753
2.667206 94.470 -89.9827
2.686534 94.516 -90.4903
2.706002 94.561 -90.9976
2.725610 94.605 -91.5041
2.745361 94.648 -92.0095
2.765255 94.691 -92.5132
2.785294 94.733 -93.0147
2.805477 94.775 -93.5134
2.825807 94.816 -94.0087
2.846284 94.857 -94.5000
2.866909 94.898 -94.9867
2.887684 94.938 -95.4683
2.908609 94.978 -95.9444
2.929686 95.018 -96.4153
2.950916 95.057 -96.8821
2.972299 95.096 -97.3462
2.993838 95.134 -97.8082
3.015532 95.171 -98.2684
3.037384 95.207 -98.7267
3.059394 95.243 -99.1829
3.081564 95.278 -99.6370
3.103894 95.313 -100.0886
3.126386 95.347 -100.5374
3.149041 95.381 -100.9833
3.171861 95.415 -101.4258
3.194845 95.448 -101.8646
3.217996 95.481 -102.2994
3.241315 95.515 -102.7297
3.264803 95.548 -103.1551
3.288461 95.581 -103.5755
3.312291 95.614 -103.9907
3.336293 95.647 -104.4013
3.360469 95.680 -104.8074
3.384820 95.712 -105.2094
3.409348 95.744 -105.6077
3.434054 95.776 -106.0024
3.458938 95.807 -106.3938
3.484003 95.838 -106.7822
3.509250 95.870 -107.1676
3.534679 95.901 -107.5504
3.560293 95.932 -107.9308
3.586092 95.963 -108.3088
3.612079 95.994 -108.6846
3.638253 96.026 -109.0582
3.664618 96.058 -109.4293
3.691173 96.090 -109.7974
3.717921 96.122 -110.1623
3.744862 96.154 -110.5240
3.771999 96.186 -110.8825
3.799332 96.218 -111.2383
3.826864 96.250 -111.5918
3.854595 96.282 -111.9433
3.882527 96.314 -112.2932
3.910661 96.347 -112.6419
3.938999 96.379 -112.9899
3.967543 96.412 -113.3374
3.996294 96.444 -113.6847
4.025252 96.477 -114.0318
4.054421 96.510 -114.3785
4.083801 96.543 -114.7241
4.113394 96.577 -115.0685
4.143201 96.610 -115.4119
4.173225 96.643 -115.7543
4.203466 96.677 -116.0961
4.233926 96.711 -116.4375
4.264606 96.744 -116.7788
4.295509 96.777 -117.1204
4.326636 96.811 -117.4625
4.357989 96.844 -117.8054
4.389569 96.877 -118.1494
4.421378 96.910 -118.4945
4.453417 96.943 -118.8408
4.485688 96.975 -119.1879
4.518193 97.008 -119.5358
4.550934 97.041 -119.8843
4.583912 97.073 -120.2331
4.617129 97.105 -120.5821
4.650587 97.137 -120.9311
4.684287 97.168 -121.2799
4.718231 97.199 -121.6284
4.752421 97.230 -121.9769
4.786859 97.260 -122.3256
4.821547 97.290 -122.6750
4.856485 97.319 -123.0252
4.891677 97.349 -123.3760
4.927125 97.377 -123.7268
4.962829 97.405 -124.0773
4.998791 97.433 -124.4269
5.035015 97.461 -124.7751
5.071500 97.488 -125.1214
5.108251 97.515 -125.4657
5.145267 97.541 -125.8081
5.182552 97.566 -126.1491
5.220107 97.592 -126.4891
5.257934 97.616 -126.8279
5.296035 97.641 -127.1654
5.334412 97.664 -127.5011
5.373067 97.688 -127.8346
5.412003 97.711 -128.1655
5.451221 97.734 -128.4933
5.490722 97.757 -128.8179
5.530510 97.780 -129.1393
5.570587 97.802 -129.4576
5.610953 97.824 -129.7731
5.651613 97.846 -130.0860
5.692567 97.867 -130.3962
5.733818 97.889 -130.7039
5.775367 97.910 -131.0092
5.817218 97.932 -131.3118
5.859372 97.953 -131.6118
5.901831 97.975 -131.9087
5.944598 97.997 -132.2024
5.987675 98.019 -132.4932
6.031065 98.040 -132.7815
6.074768 98.062 -133.0678
6.118788 98.084 -133.3528
6.163127 98.107 -133.6368
6.207788 98.129 -133.9202
6.252772 98.152 -134.2028
6.298082 98.175 -134.4841
6.343721 98.198 -134.7641
6.389690 98.221 -135.0432
6.435992 98.245 -135.3218
6.482630 98.268 -135.6005
6.529606 98.292 -135.8799
6.576922 98.316 -136.1603
6.624581 98.339 -136.4418
6.672585 98.363 -136.7243
6.720938 98.387 -137.0074
6.769640 98.412 -137.2914
6.818696 98.436 -137.5762
6.868107 98.460 -137.8621
6.917876 98.484 -138.1492
6.968006 98.507 -138.4378
7.018499 98.531 -138.7281
7.069358 98.554 -139.0199
7.120586 98.577 -139.3131
7.172184 98.600 -139.6071
7.224157 98.622 -139.9017
7.276506 98.644 -140.1964
7.329235 98.666 -140.4914
7.382345 98.687 -140.7867
7.435841 98.708 -141.0826
7.489724 98.728 -141.3787
7.543997 98.748 -141.6746
7.598664 98.768 -141.9698
7.653728 98.787 -142.2636
7.709189 98.806 -142.5560
7.765053 98.825 -142.8471
7.821322 98.843 -143.1370
7.877998 98.861 -143.4257
7.935086 98.879 -143.7128
7.992587 98.896 -143.9982
8.050504 98.914 -144.2814
8.108841 98.931 -144.5625
8.167601 98.948 -144.8415
8.226787 98.964 -145.1186
8.286402 98.981 -145.3941
8.346449 98.998 -145.6681
8.406931 99.015 -145.9408
8.467851 99.032 -146.2120
8.529212 99.049 -146.4818
8.591018 99.066 -146.7503
8.653272 99.083 -147.0181
8.715977 99.100 -147.2854
8.779137 99.117 -147.5529
8.842754 99.134 -147.8204
8.906833 99.151 -148.0879
8.971375 99.169 -148.3555
9.036386 99.186 -148.6235
9.101867 99.204 -148.8922
9.167823 99.221 -149.1618
9.234257 99.238 -149.4326
9.301172 99.255 -149.7043
9.368572 99.272 -149.9768
9.436460 99.289 -150.2501
9.504841 99.306 -150.5241
9.573717 99.323 -150.7990
9.643092 99.339 -151.0747
9.712970 99.355 -151.3510
9.783354 99.370 -151.6276
9.854248 99.386 -151.9042
9.925656 99.401 -152.1807
9.997581 99.415 -152.4569
10.070028 99.430 -152.7330
10.143000 99.444 -153.0086
10.216500 99.458 -153.2834
10.290533 99.472 -153.5572
10.365103 99.485 -153.8301
10.440212 99.498 -154.1020
10.515866 99.511 -154.3730
10.592069 99.524 -154.6430
10.668823 99.537 -154.9120
10.746134 99.550 -155.1800
10.824005 99.562 -155.4471
10.902440 99.575 -155.7135
10.981443 99.588 -155.9794
11.061020 99.600 -156.2449
11.141172 99.613 -156.5099
11.221906 99.625 -156.7747
11.303225 99.637 -157.0395
11.385133 99.650 -157.3044
11.467634 99.662 -157.5695
11.550734 99.674 -157.8348
11.634435 99.686 -158.1003
11.718742 99.698 -158.3661
11.803661 99.710 -158.6322
11.889195 99.721 -158.8987
11.975349 99.733 -159.1654
12.062128 99.744 -159.4323
12.149535 99.755 -159.6992
12.237576 99.766 -159.9662
12.326254 99.777 -160.2332
12.415575 99.787 -160.5000
12.505544 99.797 -160.7665
12.596164 99.807 -161.0327
12.687441 99.817 -161.2986
12.779379 99.827 -161.5640
12.871984 99.836 -161.8289
12.965260 99.845 -162.0934
13.059211 99.854 -162.3573
13.153843 99.863 -162.6208
13.249161 99.872 -162.8837
13.345170 99.881 -163.1462
13.441875 99.889 -163.4082
13.539280 99.897 -163.6698
13.637391 99.906 -163.9310
13.736214 99.914 -164.1918
13.835752 99.922 -164.4522
13.936011 99.930 -164.7124
14.036998 99.937 -164.9723
14.138716 99.945 -165.2319
14.241171 99.952 -165.4914
14.344368 99.960 -165.7506
14.448313 99.967 -166.0098
14.553011 99.974 -166.2688
14.658468 99.981 -166.5279
14.764689 99.987 -166.7870
14.871680 99.994 -167.0461
14.979446 100.001 -167.3053
15.087994 100.007 -167.5647
15.197328 100.013 -167.8243
15.307454 100.019 -168.0840
15.418378 100.025 -168.3437
15.530106 100.030 -168.6036
15.642643 100.035 -168.8635
15.755996 100.040 -169.1233
15.870171 100.045 -169.3829
15.985172 100.050 -169.6423
16.101007 100.054 -169.9014
16.217682 100.058 -170.1600
16.335201 100.062 -170.4181
16.453573 100.066 -170.6757
16.572803 100.069 -170.9326
16.692898 100.072 -171.1890
16.813862 100.075 -171.4448
16.935701 100.078 -171.7001
17.058424 100.081 -171.9549
17.182035 100.084 -172.2095
17.306543 100.087 -172.4639
17.431953 100.089 -172.7181
17.558273 100.092 -172.9724
17.685509 100.094 -173.2268
17.813665 100.096 -173.4814
17.942751 100.098 -173.7363
18.072771 100.100 -173.9914
18.203733 100.102 -174.2469
18.335646 100.103 -174.5027
18.468513 100.105 -174.7587
18.602345 100.106 -175.0151
18.737144 100.107 -175.2716
18.872921 100.108 -175.5282
19.009682 100.108 -175.7849
19.147434 100.108 -176.0417
19.286184 100.108 -176.2983
19.425940 100.108 -176.5548
19.566708 100.108 -176.8111
19.708496 100.107 -177.0671
19.851313 100.107 -177.3227
19.995163 100.106 -177.5780
20.140057 100.105 -177.8329
20.285999 100.104 -178.0874
20.433001 100.102 -178.3416
20.581066 100.101 -178.5955
20.730206 100.099 -178.8493
20.880424 100.098 -179.1031
21.031733 100.096 -179.3570
21.184137 100.094 -179.6112
21.337646 100.092 -179.8659
21.492268 100.090 179.8789
21.648010 100.088 179.6231
21.804880 100.086 179.3666
21.962887 100.083 179.1095
22.122040 100.080 178.8518
22.282345 100.077 178.5938
22.443811 100.074 178.3356
22.606449 100.070 178.0774
22.770266 100.066 177.8195
22.935268 100.061 177.5620
23.101467 100.057 177.3054
23.268869 100.051 177.0498
23.437485 100.046 176.7953
23.607323 100.041 176.5420
23.778391 100.035 176.2900
23.950699 100.029 176.0394
24.124256 100.023 175.7898
24.299070 100.017 175.5412
24.475151 100.011 175.2934
24.652508 100.005 175.0461
24.831150 99.998 174.7991
25.011087 99.992 174.5521
25.192327 99.986 174.3052
25.374882 99.979 174.0582
25.558758 99.973 173.8112
25.743967 99.966 173.5643
25.930519 99.959 173.3177
26.118422 99.952 173.0717
26.307686 99.944 172.8260
26.498322 99.937 172.5808
26.690340 99.930 172.3358
26.883749 99.922 172.0906
27.078560 99.915 171.8448
27.274782 99.907 171.5979
27.472427 99.900 171.3494
27.671503 99.892 171.0994
27.872023 99.884 170.8480
28.073996 99.875 170.5956
28.277431 99.866 170.3429
28.482342 99.857 170.0910
28.688736 99.847 169.8406
28.896626 99.837 169.5922
29.106022 99.826 169.3462
29.316936 99.816 169.1022
29.529379 99.805 168.8594
29.743361 99.795 168.6169
29.958893 99.785 168.3736
30.175987 99.775 168.1285
30.394655 99.764 167.8815
30.614908 99.754 167.6328
30.836756 99.743 167.3829
31.060211 99.731 167.1330
31.285286 99.719 166.8838
31.511992 99.707 166.6358
31.740341 99.695 166.3890
31.970345 99.682 166.1424
32.202015 99.670 165.8952
32.435364 99.658 165.6461
32.670403 99.645 165.3945
32.907146 99.632 165.1405
33.145607 99.619 164.8850
33.385796 99.605 164.6293
33.627724 99.590 164.3748
33.871403 99.575 164.1221
34.116848 99.560 163.8712
34.364071 99.545 163.6212
34.613087 99.530 163.3702
34.863907 99.515 163.1170
35.116547 99.500 162.8608
35.371017 99.485 162.6022
35.627331 99.468 162.3427
35.885502 99.451 162.0845
36.145542 99.433 161.8296
36.407467 99.414 161.5792
36.671291 99.396 161.3332
36.937027 99.377 161.0905
37.204689 99.359 160.8494
37.474289 99.341 160.6089
37.745842 99.323 160.3683
38.019363 99.305 160.1277
38.294868 99.287 159.8875
38.572369 99.269 159.6476
38.851879 99.250 159.4078
39.133415 99.232 159.1674
39.416992 99.213 158.9259
39.702625 99.193 158.6841
39.990326 99.173 158.4435
40.280113 99.153 158.2057
40.571999 99.133 157.9715
40.866001 99.112 157.7394
41.162132 99.093 157.5063
41.460411 99.074 157.2685
41.760849 99.054 157.0239
42.063465 99.034 156.7732
42.368275 99.012 156.5207
42.675293 98.989 156.2724
42.984535 98.964 156.0330
43.296021 98.940 155.8036
43.609760 98.917 155.5813
43.925774 98.895 155.3605
44.244080 98.874 155.1354
44.564690 98.854 154.9034
44.887623 98.832 154.6660
45.212898 98.810 154.4267
45.540531 98.787 154.1893
45.870537 98.763 153.9560
46.202934 98.739 153.7269
46.537739 98.715 153.5014
46.874969 98.690 153.2787
47.214645 98.666 153.0584
47.556782 98.641 152.8394
47.901398 98.617 152.6188
48.248512 98.593 152.3937
48.598141 98.568 152.1624
48.950302 98.541 151.9266
49.305016 98.513 151.6913
49.662300 98.483 151.4618
50.022175 98.451 151.2410
50.384655 98.420 151.0283
50.749763 98.389 150.8200
51.117516 98.359 150.6132
51.487934 98.328 150.4061
51.861038 98.298 150.1973
52.236843 98.268 149.9842
52.615372 98.238 149.7639
52.996643 98.207 149.5371
53.380680 98.172 149.3121
53.767498 98.135 149.1040
54.157120 98.096 148.9274
54.549564 98.059 148.7866
54.944855 98.027 148.6709
55.343006 98.002 148.5588
55.744045 97.980 148.4293
56.147991 97.962 148.2709
56.554863 97.942 148.0854
56.964684 97.920 147.8824
57.377472 97.895 147.6734
57.793251 97.868 147.4684
58.212044 97.840 147.2741
58.633873 97.811 147.0925
59.058758 97.785 146.9187
59.486721 97.760 146.7420
59.917786 97.738 146.5511
60.351974 97.716 146.3417
60.789310 97.692 146.1191
61.229816 97.668 145.8928
61.673512 97.643 145.6681
62.120422 97.618 145.4430
62.570572 97.592 145.2140
63.023983 97.566 144.9843
63.480682 97.537 144.7639
63.940689 97.507 144.5609
64.404030 97.479 144.3741
64.870728 97.451 144.1953
65.340805 97.424 144.0175
65.814293 97.398 143.8363
66.291214 97.371 143.6446
66.771591 97.343 143.4322
67.255447 97.310 143.2022
67.742805 97.269 142.9850
68.233696 97.223 142.8214
68.728142 97.181 142.7227
69.226173 97.149 142.6486
69.727814 97.129 142.5399
70.233093 97.114 142.3672
70.742035 97.099 142.1344
71.254662 97.084 141.8400
71.771004 97.064 141.4662
72.291084 97.028 141.0294
72.814934 96.970 140.6224
73.342583 96.894 140.3674
73.874054 96.821 140.3093
74.409378 96.767 140.3738
74.948578 96.733 140.4445
75.491684 96.711 140.4611
76.038727 96.693 140.4296
76.589737 96.676 140.3667
77.144737 96.662 140.2696
77.703758 96.646 140.1332
78.266830 96.629 139.9658
78.833984 96.609 139.7773
79.405251 96.587 139.5710
79.980652 96.562 139.3505
80.560226 96.536 139.1266
81.143997 96.509 138.9112
81.732002 96.485 138.7012
82.324265 96.464 138.4727
82.920822 96.444 138.1967
83.521698 96.418 137.8742
84.126930 96.381 137.5479
84.736549 96.336 137.2682
85.350586 96.289 137.0482
85.969070 96.244 136.8610
86.592041 96.202 136.6751
87.219521 96.158 136.4786
87.851547 96.113 136.2773
88.488159 96.066 136.0810
89.129379 96.018 135.8905
89.775246 95.971 135.6970
90.425797 95.924 135.4969
91.081062 95.876 135.3024
91.741074 95.830 135.1264
92.405869 95.788 134.9634
93.075478 95.749 134.7998
93.749939 95.713 134.6332
94.429291 95.677 134.4719
95.113564 95.640 134.3205
95.802795 95.603 134.1780
96.497025 95.564 134.0443
97.196281 95.521 133.9220
97.900604 95.476 133.8102
98.610031 95.430 133.7015
99.324600 95.382 133.5905
100.044350 95.335 133.4763
100.769310 95.290 133.3520
101.499527 95.247 133.2093
102.235031 95.206 133.0589
102.975868 95.167 132.9255
103.722076 95.133 132.8225
104.473686 95.103 132.7446
105.230743 95.078 132.6790
105.993286 95.056 132.6122
106.761360 95.034 132.5281
107.534996 95.010 132.4019
108.314240 94.982 132.2197
109.099129 94.945 132.0178
109.889709 94.907 131.8557
110.686012 94.879 131.7325
111.488091 94.864 131.5906
112.295982 94.855 131.4025
113.109726 94.841 131.2045
113.929367 94.812 131.0681
114.754944 94.767 131.0192
115.586502 94.702 131.0009
116.424088 94.602 130.9946
117.267746 94.461 131.0600
118.117516 94.290 131.3168
118.973442 94.130 131.9466
119.835571 94.060 132.6968
120.703949 94.088 132.7604
121.578621 94.125 131.9044
122.459633 94.119 130.7320
123.347023 94.095 129.7393
124.240845 94.080 129.0322
125.141144 94.080 128.5955
126.047966 94.089 128.3557
126.961365 94.090 128.2097
127.881378 94.068 128.0898
128.808060 94.014 127.9935
129.741455 93.936 127.9210
130.681610 93.849 127.8320
131.628586 93.767 127.7133
132.582428 93.704 127.5401
133.543182 93.661 127.2539
134.510895 93.624 126.9107
135.485611 93.588 126.6411
136.467392 93.553 126.4969
137.456284 93.522 126.4402
138.452347 93.492 126.3730
139.455627 93.453 126.2241
140.466187 93.398 126.0345
141.484070 93.334 125.8680
142.509323 93.270 125.7054
143.542007 93.204 125.5463
144.582169 93.134 125.4650
145.629868 93.066 125.4980
146.685165 93.003 125.6012
147.748108 92.944 125.7151
148.818756 92.886 125.8070
149.897156 92.830 125.8525
150.983368 92.774 125.8375
152.077454 92.718 125.7978
153.179474 92.666 125.7866
154.289474 92.623 125.8271
155.407516 92.591 125.9051
156.533661 92.565 125.9575
157.667969 92.533 125.9814
158.810501 92.494 126.0684
159.961304 92.458 126.2186
161.120453 92.430 126.3253
162.287994 92.404 126.3329
163.464005 92.373 126.2838
164.648529 92.339 126.2393
165.841644 92.305 126.2079
167.043396 92.273 126.1624
168.253860 92.236 126.1069
169.473099 92.196 126.0658
170.701172 92.155 126.0431
171.938141 92.115 126.0295
173.184082 92.079 126.0032
174.439041 92.047 125.9409
175.703094 92.016 125.8351
176.976318 91.985 125.6998
178.258759 91.954 125.5511
179.550491 91.922 125.3992
180.851593 91.890 125.2625
182.162125 91.854 125.1643
183.482147 91.818 125.1125
184.811737 91.779 125.0776
186.150955 91.736 125.0194
187.499878 91.689 124.9151
188.858582 91.639 124.7737
190.227127 91.588 124.6207
191.605591 91.539 124.4859
192.994049 91.488 124.4163
194.392563 91.435 124.4363
195.801208 91.380 124.5236
197.220062 91.322 124.6056
198.649200 91.258 124.5917
200.088699 91.187 124.5286
201.538620 91.119 124.4995
202.999054 91.064 124.4799
204.470062 91.018 124.4556
205.951736 90.972 124.4485
207.444153 90.920 124.4847
208.947372 90.864 124.5552
210.461487 90.803 124.6035
211.986572 90.731 124.5986
213.522720 90.643 124.5647
215.069992 90.541 124.6198
216.628479 90.448 124.8876
218.198257 90.386 125.2693
219.779419 90.354 125.6461
221.372025 90.339 126.0059
222.976181 90.329 126.3691
224.591965 90.318 126.7275
226.219452 90.303 127.0618
227.858734 90.289 127.3807
229.509888 90.279 127.6979
231.173004 90.277 128.0186
232.848175 90.281 128.3356
234.535492 90.294 128.5967
236.235031 90.309 128.7452
237.946884 90.322 128.8087
239.671143 90.334 128.8301
241.407898 90.342 128.8349
243.157242 90.345 128.8383
244.919266 90.343 128.8429
246.694046 90.336 128.8459
248.481689 90.325 128.8624
250.282288 90.310 128.9150
252.095932 90.294 129.0110
253.922729 90.280 129.1447
255.762756 90.273 129.3058
257.616119 90.275 129.4658
259.482910 90.284 129.5836
261.363220 90.292 129.6405
263.257172 90.295 129.6427
265.164856 90.292 129.6113
267.086365 90.288 129.5790
269.021790 90.288 129.5685
270.971222 90.291 129.5722
272.934784 90.294 129.5857
274.912567 90.295 129.6051
276.904694 90.293 129.6144
278.911255 90.292 129.6049
280.932373 90.290 129.5901
282.968140 90.288 129.5909
285.018646 90.285 129.6135
287.084015 90.283 129.6395
289.164337 90.282 129.6391
291.259735 90.279 129.5979
293.370331 90.269 129.5327
295.496216 90.250 129.4814
297.637512 90.226 129.4660
299.794312 90.198 129.4871
301.966736 90.168 129.5521
304.154907 90.135 129.6717
306.358948 90.102 129.8467
308.578949 90.070 130.0769
310.815033 90.040 130.3600
313.067322 90.011 130.6905
315.335938 89.979 131.0827
317.621002 89.946 131.5865
319.922607 89.918 132.2588
322.240906 89.905 133.1222
324.575989 89.918 134.1652
326.928009 89.969 135.3643
329.297058 90.070 136.6805
331.683289 90.232 138.0343
334.086792 90.464 139.2944
336.507721 90.764 140.2809
338.946198 91.118 140.8008
341.402344 91.499 140.7551
343.876282 91.890 140.1884
346.368164 92.285 139.1275
348.878082 92.667 137.3959
351.406189 92.985 134.8273
353.952637 93.181 131.6362
356.517517 93.232 128.3064
359.100983 93.155 125.2538
361.703186 92.988 122.7042
364.324249 92.768 120.7300
366.964294 92.528 119.3051
369.623474 92.290 118.3465
372.301910 92.070 117.7445
374.999756 91.872 117.3902
377.717163 91.699 117.1913
380.454254 91.549 117.0839
383.211182 91.420 117.0310
385.988098 91.309 117.0107
388.785126 91.212 117.0103
391.602417 91.128 117.0245
394.440125 91.053 117.0474
397.298401 90.988 117.0716
400.177399 90.930 117.0893
403.077240 90.879 117.0871
405.998108 90.834 117.0558
408.940125 90.794 116.9904
411.903473 90.755 116.8880
414.888306 90.716 116.7579
417.894745 90.680 116.6132
420.922974 90.647 116.4572
423.973145 90.616 116.2856
427.045441 90.588 116.0911
430.139984 90.562 115.8439
433.256958 90.530 115.4742
436.396515 90.481 114.9136
439.558838 90.390 114.1720
442.744049 90.234 113.4093
445.952362 90.002 112.9973
449.183929 89.724 113.4701
452.438904 89.492 115.1358
455.717468 89.408 117.5039
459.019775 89.486 119.5324
462.346008 89.650 120.6574
465.696350 89.819 121.0196
469.070984 89.955 120.9679
472.470062 90.053 120.7567
475.893768 90.122 120.5165
479.342285 90.171 120.2920
482.815796 90.208 120.0748
486.314484 90.235 119.8468
489.838531 90.250 119.6216
493.388092 90.255 119.4456
496.963379 90.258 119.3386
500.564575 90.264 119.2702
504.191864 90.275 119.2015
507.845459 90.287 119.1125
511.525513 90.299 119.0009
515.232239 90.309 118.8771
518.965820 90.315 118.7526
522.726440 90.319 118.6349
526.514343 90.319 118.5387
530.329712 90.319 118.4791
534.172729 90.323 118.4413
538.043579 90.330 118.3889
541.942444 90.337 118.3129
545.869568 90.342 118.2382
549.825134 90.347 118.1839
553.809387 90.354 118.1404
557.822510 90.364 118.0875
561.864746 90.374 118.0134
565.936279 90.383 117.9197
570.037292 90.390 117.8213
574.168030 90.394 117.7354
578.328674 90.398 117.6678
582.519470 90.405 117.6014
586.740662 90.411 117.5170
590.992432 90.413 117.4309
595.275024 90.414 117.3754
599.588623 90.417 117.3485
603.933472 90.423 117.3235
608.309814 90.432 117.2842
612.717896 90.440 117.2238
617.157898 90.447 117.1434
621.630066 90.448 117.0641
626.134644 90.446 117.0216
630.671875 90.445 117.0339
635.242004 90.451 117.0658
639.845215 90.460 117.0679
644.481812 90.469 117.0484
649.151978 90.476 117.0473
653.856018 90.485 117.0817
658.594116 90.501 117.1364
663.366577 90.524 117.1656
668.173584 90.550 117.1218
673.015442 90.572 117.0161
677.892395 90.587 116.8991
682.804688 90.597 116.7977
687.752563 90.604 116.7073
692.736328 90.609 116.6237
697.756165 90.611 116.5663
702.812378 90.612 116.5473
707.905273 90.616 116.5526
713.035034 90.622 116.5586
718.201965 90.630 116.5532
723.406372 90.637 116.5448
728.648499 90.643 116.5449
733.928589 90.648 116.5553
739.246948 90.654 116.5734
744.603821 90.661 116.5991
749.999512 90.669 116.6342
755.434326 90.678 116.6788
760.908508 90.690 116.7284
766.422363 90.703 116.7773
771.976196 90.719 116.8199
777.570251 90.736 116.8471
783.204834 90.754 116.8465
788.880249 90.768 116.8174
794.596802 90.776 116.7856
800.354797 90.779 116.7870
806.154480 90.781 116.8385
811.996216 90.787 116.9268
817.880249 90.798 117.0355
823.806946 90.815 117.1479
829.776611 90.838 117.2234
835.789490 90.860 117.2314
841.845947 90.876 117.2074
847.946289 90.886 117.2042
854.090881 90.894 117.2338
860.279968 90.902 117.2706
866.513916 90.909 117.3047
872.793030 90.913 117.3736
879.117676 90.919 117.4856
885.488098 90.930 117.6030
891.904724 90.942 117.7006
898.367859 90.952 117.7870
904.877808 90.961 117.8897
911.434937 90.970 118.0198
918.039551 90.982 118.1591
924.692017 90.995 118.3044
931.392700 91.012 118.4551
938.141968 91.031 118.5933
944.940125 91.050 118.7100
951.787537 91.068 118.8186
958.684570 91.084 118.9297
965.631592 91.099 119.0425
972.628967 91.113 119.1719
979.677063 91.128 119.3205
986.776184 91.144 119.4669
993.926758 91.159 119.6010
1001.129150 91.170 119.7485
1008.383728 91.180 119.9456
1015.690918 91.195 120.1812
1023.051025 91.214 120.4388
1030.464478 91.242 120.7245
1037.931641 91.281 121.0060
1045.452881 91.330 121.2111
1053.028687 91.379 121.3170
1060.659424 91.422 121.3594
1068.345459 91.457 121.3745
1076.087158 91.484 121.3969
1083.884888 91.508 121.4460
1091.739136 91.531 121.5099
1099.650269 91.553 121.5744
1107.618774 91.573 121.6413
1115.645020 91.591 121.7138
1123.729492 91.607 121.7944
1131.872559 91.622 121.8854
1140.074585 91.635 121.9877
1148.336060 91.648 122.1012
1156.657349 91.661 122.2221
1165.038940 91.672 122.3462
1173.481323 91.681 122.4880
1181.984863 91.690 122.6719
1190.550049 91.705 122.8946
1199.177246 91.727 123.1230
1207.866943 91.756 123.3036
1216.619629 91.785 123.4090
1225.435791 91.807 123.4760
1234.315796 91.823 123.5389
1243.260132 91.833 123.6070
1252.269287 91.838 123.7037
1261.343750 91.842 123.8303
1270.484009 91.846 123.9641
1279.690430 91.846 124.1071
1288.963623 91.843 124.2783
1298.303955 91.840 124.4780
1307.712036 91.839 124.7003
1317.188232 91.838 124.9292
1326.733154 91.838 125.1544
1336.347168 91.836 125.3829
1346.030884 91.830 125.6251
1355.784790 91.823 125.8935
1365.609375 91.814 126.1817
1375.505127 91.802 126.4914
1385.472656 91.788 126.8579
1395.512329 91.776 127.2991
1405.624756 91.770 127.8142
1415.810547 91.777 128.3765
1426.070068 91.798 128.9163
1436.403931 91.826 129.3992
1446.812744 91.857 129.8384
1457.296997 91.889 130.2606
1467.857178 91.924 130.6700
1478.493896 91.962 131.0467
1489.207642 92.001 131.3795
1499.999023 92.038 131.6689
1510.868652 92.071 131.9241
1521.817017 92.097 132.1588
1532.844727 92.117 132.3863
1543.952393 92.130 132.6227
1555.140503 92.137 132.9008
1566.409668 92.143 133.2473
1577.760498 92.155 133.6393
1589.193604 92.175 134.0132
1600.709595 92.196 134.3382
1612.308960 92.213 134.6338
1623.992432 92.224 134.9249
1635.760498 92.231 135.2367
1647.613892 92.236 135.5677
1659.553223 92.239 135.9186
1671.578979 92.240 136.3027
1683.691895 92.241 136.7200
1695.892578 92.246 137.1532
1708.181763 92.251 137.5846
1720.559937 92.257 138.0132
1733.027832 92.260 138.4478
1745.586060 92.260 138.8901
1758.235352 92.257 139.3552
1770.976196 92.250 139.8818
1783.809448 92.247 140.4894
1796.735718 92.255 141.1505
1809.755615 92.275 141.7938
1822.869873 92.300 142.3848
1836.079102 92.325 142.9398
1849.384033 92.350 143.4799
1862.785400 92.374 144.0087
1876.283936 92.397 144.5282
1889.880249 92.418 145.0451
1903.575073 92.436 145.5671
1917.369141 92.450 146.1021
1931.263184 92.461 146.6725
1945.257935 92.473 147.3090
1959.354126 92.494 147.9952
1973.552368 92.524 148.6686
1987.853516 92.558 149.3002
2002.258301 92.592 149.9024
2016.767456 92.625 150.5015
2031.381836 92.656 151.1080
2046.102051 92.688 151.7341
2060.928955 92.723 152.3888
2075.863281 92.765 153.0564
2090.905762 92.813 153.7061
2106.057373 92.865 154.3167
2121.318848 92.917 154.8800
2136.690918 92.964 155.4080
2152.174316 93.006 155.9472
2167.769775 93.047 156.5360
2183.478271 93.094 157.1525
2199.300537 93.147 157.7483
2215.237549 93.201 158.3140
2231.290039 93.256 158.8646
2247.458984 93.312 159.4080
2263.745117 93.368 159.9461
2280.149170 93.427 160.4785
2296.672119 93.488 161.0033
2313.314697 93.550 161.5315
2330.077881 93.620 162.0738
2346.962646 93.700 162.5863
2363.969727 93.789 163.0045
2381.100098 93.878 163.3076
2398.354492 93.961 163.5132
2415.733887 94.033 163.6478
2433.239258 94.094 163.7470
2450.871582 94.146 163.8361
2468.631592 94.190 163.9147
2486.520264 94.226 163.9767
2504.538574 94.251 164.0268
2522.687500 94.263 164.0969
2540.968018 94.265 164.2448
2559.380859 94.266 164.4903
2577.927246 94.273 164.7888
2596.607910 94.286 165.0974
2615.424072 94.304 165.3977
2634.376465 94.324 165.6788
2653.466309 94.345 165.9354
2672.694336 94.363 166.1721
2692.061768 94.378 166.4132
2711.569580 94.394 166.6934
2731.218750 94.417 166.9954
2751.010254 94.449 167.2643
2770.945312 94.487 167.4636
2791.024658 94.525 167.5817
2811.249512 94.561 167.6258
2831.621094 94.591 167.6097
2852.140137 94.616 167.5305
2872.807861 94.633 167.3791
2893.625488 94.634 167.1647
2914.593994 94.617 166.9422
2935.714355 94.585 166.7778
2956.987793 94.547 166.6783
2978.415283 94.507 166.6169
2999.998047 94.464 166.5728
3021.737305 94.419 166.5326
3043.634033 94.368 166.4939
3065.689453 94.310 166.4758
3087.904785 94.244 166.5252
3110.281006 94.181 166.6635
3132.819336 94.125 166.8547
3155.520996 94.078 167.0513
3178.387207 94.038 167.2224
3201.419189 94.002 167.3621
3224.617920 93.970 167.4694
3247.984863 93.939 167.5256
3271.520996 93.907 167.5123
3295.227783 93.865 167.4559
3319.106445 93.814 167.4199
3343.157959 93.760 167.4263
3367.383789 93.709 167.4553
3391.785156 93.662 167.4769
3416.363525 93.617 167.4653
3441.119873 93.569 167.4159
3466.055664 93.514 167.3675
3491.172119 93.457 167.3695
3516.470703 93.405 167.4206
3541.952393 93.363 167.4862
3567.618896 93.329 167.5345
3593.471436 93.304 167.5554
3619.511230 93.287 167.5336
3645.739746 93.278 167.4345
3672.158203 93.269 167.2466
3698.768066 93.255 167.0199
3725.570801 93.241 166.7968
3752.567871 93.232 166.5747
3779.760498 93.230 166.3237
3807.150146 93.235 166.0080
3834.738281 93.239 165.6218
3862.526367 93.241 165.2152
3890.515869 93.243 164.8304
3918.708252 93.253 164.4625
3947.104736 93.274 164.0838
3975.707031 93.307 163.6787
4004.516602 93.353 163.2288
4033.534912 93.410 162.6924
4062.763672 93.470 162.0571
4092.204102 93.529 161.3731
4121.857910 93.590 160.6815
4151.726562 93.658 159.9801
4181.811523 93.734 159.2329
4212.114746 93.812 158.4148
4242.637695 93.883 157.5743
4273.381836 93.950 156.7998
4304.348633 94.025 156.1264
4335.539551 94.118 155.4992
4366.956543 94.224 154.8597
4398.601074 94.338 154.2216
4430.475098 94.460 153.6460
4462.580078 94.601 153.1809
4494.917969 94.775 152.7693
4527.490234 94.985 152.2913
4560.298340 95.220 151.6597
4593.344238 95.464 150.8396
4626.629395 95.706 149.8661
4660.155762 95.941 148.8111
4693.925293 96.169 147.7184
4727.939453 96.393 146.6019
4762.200195 96.615 145.4686
4796.708984 96.834 144.2983
4831.467773 97.043 143.0709
4866.478516 97.236 141.8304
4901.743164 97.413 140.6476
4937.263184 97.580 139.5589
4973.040527 97.742 138.5498
5009.077148 97.896 137.6164
5045.375000 98.043 136.7975
5081.936035 98.190 136.1245
5118.761719 98.344 135.5987
5155.854492 98.515 135.1976
5193.215820 98.708 134.8493
5230.848145 98.922 134.4781
5268.752930 99.152 134.0578
5306.932617 99.398 133.5617
5345.388672 99.658 132.9086
5384.123535 99.916 132.0210
5423.139160 100.156 130.9340
5462.437500 100.375 129.7232
5502.020508 100.572 128.3967
5541.890625 100.742 126.9370
5582.049316 100.876 125.3563
5622.499023 100.964 123.7148
5663.242188 101.006 122.1085
5704.280273 101.010 120.6099
5745.615723 100.986 119.2072
5787.250977 100.935 117.8392
5829.187988 100.844 116.5001
5871.428711 100.700 115.2874
5913.975586 100.506 114.3787
5956.830566 100.285 113.9038
5999.996094 100.065 113.8124
6043.474609 99.857 113.9423
6087.268066 99.651 114.1935
6131.378906 99.436 114.5844
6175.809570 99.207 115.1839
6220.562012 98.969 116.0597
6265.638672 98.732 117.2488
6311.041992 98.507 118.7607
6356.774414 98.310 120.5490
6402.838379 98.149 122.4938
6449.235840 98.022 124.4649
6495.969727 97.919 126.3862
6543.041992 97.828 128.2338
6590.455566 97.738 130.0180
6638.212891 97.641 131.7802
6686.315918 97.533 133.5893
6734.767578 97.419 135.5062
6783.570312 97.304 137.5302
6832.727051 97.190 139.6347
6882.239746 97.075 141.8477
6932.111328 96.964 144.2397
6982.344238 96.873 146.8116
7032.941406 96.813 149.4625
7083.904785 96.784 152.0688
7135.237793 96.775 154.5386
7186.942871 96.775 156.8320
7239.022461 96.771 158.9798
7291.479492 96.759 161.0206
7344.316406 96.736 162.9401
7397.536133 96.693 164.7225
7451.141602 96.614 166.4260
7505.135742 96.494 168.1902
7559.520996 96.340 170.1390
7614.300293 96.164 172.3431
7669.476562 95.982 174.8229
7725.052734 95.805 177.5288
7781.031738 95.636 -179.6034
7837.416504 95.474 -176.5694
7894.209473 95.326 -173.2876
7951.414062 95.211 -169.7386
8009.033203 95.153 -166.0639
8067.069824 95.156 -162.5456
8125.527344 95.196 -159.4425
8184.408203 95.235 -156.7806
8243.715820 95.248 -154.3914
8303.453125 95.237 -152.1312
8363.623047 95.206 -150.0092
8424.229492 95.148 -148.0704
8485.275391 95.049 -146.2959
8546.763672 94.895 -144.5874
8608.697266 94.682 -142.7718
8671.079102 94.423 -140.6649
8733.913086 94.141 -138.2132
8797.202148 93.853 -135.4844
8860.950195 93.569 -132.5512
8925.160156 93.291 -129.4855
8989.835938 93.018 -126.3744
9054.980469 92.743 -123.2726
9120.596680 92.456 -120.2012
9186.688477 92.147 -117.1441
9253.258789 91.805 -114.0145
9320.311523 91.432 -110.7154
9387.850586 91.030 -107.1972
9455.878906 90.605 -103.4213
9524.400391 90.161 -99.3559
9593.417969 89.702 -94.9625
9662.935547 89.232 -90.1545
9732.957031 88.769 -84.8619
9803.486328 88.331 -79.1018
9874.526367 87.936 -72.9557
9946.081055 87.596 -66.5683
10018.154297 87.308 -60.0614
10090.750000 87.071 -53.4784
10163.872070 86.886 -46.8688
10237.523438 86.752 -40.3214
10311.708984 86.664 -33.9576
10386.431641 86.607 -27.8835
10461.696289 86.562 -22.0881
10537.505859 86.518 -16.4935
10613.865234 86.471 -11.0411
10690.777344 86.424 -5.7224
10768.247070 86.372 -0.5887
10846.278320 86.306 4.3436
10924.875000 86.215 9.1033
11004.041016 86.090 13.7248
11083.781250 85.922 18.2740
11164.098633 85.701 22.8668
11244.998047 85.428 27.7010
11326.484375 85.120 32.9516
11408.560547 84.803 38.6519
11491.231445 84.498 44.7177
11574.501953 84.219 51.0054
11658.375977 83.964 57.4130
11742.857422 83.733 63.8737
11827.951172 83.524 70.2870
11913.661133 83.324 76.4750
11999.992188 83.099 82.3097
12086.949219 82.803 87.9744
12174.536133 82.413 94.0090
12262.757812 81.961 101.0276
12351.619141 81.518 109.2301
12441.124023 81.148 118.3463
12531.277344 80.879 128.0562
12622.083984 80.730 138.2457
12713.548828 80.731 148.7420
12805.676758 80.896 158.9550
12898.471680 81.183 168.1221
12991.939453 81.504 175.9488
13086.083984 81.778 -177.2182
13180.911133 81.971 -170.8433
13276.425781 82.082 -164.5029
13372.631836 82.124 -157.8433
13469.535156 82.128 -150.4533
13567.140625 82.165 -141.9485
13665.454102 82.339 -132.1588
13764.479492 82.765 -121.4778
13864.222656 83.495 -111.3032
13964.688477 84.430 -103.4048
14065.882812 85.378 -98.4514
14167.809570 86.177 -95.9005
14270.475586 86.749 -94.7654
14373.885742 87.082 -94.1827
14478.044922 87.202 -93.5690
14582.958984 87.140 -92.5510
14688.632812 86.937 -90.8434
14795.072266 86.641 -88.2690
14902.283203 86.302 -84.8175
15010.271484 85.961 -80.6013
15119.041992 85.646 -75.7544
15228.600586 85.380 -70.4132
15338.953125 85.185 -64.7134
15450.105469 85.084 -58.7786
15562.063477 85.113 -52.8250
15674.833008 85.305 -47.3435
15788.418945 85.654 -43.1185
15902.828125 86.087 -40.9329
16018.066406 86.474 -41.2171
16134.139648 86.655 -43.8793
16251.054688 86.482 -48.2651
16368.816406 85.854 -53.2303
16487.431641 84.757 -57.4469
16606.906250 83.257 -59.8295
16727.246094 81.467 -59.7478
16848.458984 79.509 -57.0009
16970.550781 77.497 -51.7664
17093.527344 75.523 -44.5123
17217.394531 73.642 -35.7599
17342.158203 71.878 -25.9213
17467.826172 70.237 -15.3501
17594.404297 68.707 -4.3022
17721.900391 67.274 7.1206
17850.320312 65.925 18.8382
17979.671875 64.647 30.7555
18109.960938 63.427 42.8495
18241.193359 62.254 55.1033
18373.376953 61.116 67.4680
18506.517578 60.001 79.9648
18640.623047 58.899 92.6205
18775.701172 57.800 105.4296
18911.757812 56.687 118.5143
19048.800781 55.546 132.1413
19186.835938 54.379 146.7127
19325.871094 53.208 163.0262
19465.914062 52.122 -177.6501
19606.972656 51.290 -154.6669
19749.052734 50.871 -130.9442
19892.162109 50.811 -112.4185
20036.308594 50.864 -102.5337
