* Measurement data measured by REW V5.30 beta 5
* Source: EXCL: Microphone (Realtek(R) Audio), MICROPHONE (Master Volume), L, volume: 1.000
* Format: 256k Log Swept Sine, 1 sweep at -33.0 dBFS with no timing reference
* Dated: Dec 19, 2023 12:11:07 AM
* REW Settings:
*  C-weighting compensation: Off
*  Target level: 75.0 dB
* Note: Ziigaat Cinno L
* Measurement: L Ziigaat Cinno
* Smoothing: 1/12 octave
* Frequency Step: 96 ppo
* Start Frequency: 0.36621094 Hz
*
* Freq(Hz) SPL(dB) Phase(degrees)
0.366211 100.864 -22.6982
0.368865 100.858 -22.7207
0.371538 100.850 -22.7544
0.374230 100.840 -22.7968
0.376942 100.828 -22.8457
0.379673 100.816 -22.8995
0.382424 100.803 -22.9571
0.385196 100.789 -23.0178
0.387987 100.776 -23.0814
0.390798 100.762 -23.1477
0.393630 100.748 -23.2164
0.396483 100.734 -23.2877
0.399356 100.720 -23.3614
0.402250 100.706 -23.4376
0.405165 100.692 -23.5164
0.408101 100.677 -23.5977
0.411058 100.663 -23.6815
0.414037 100.648 -23.7679
0.417037 100.633 -23.8569
0.420059 100.619 -23.9485
0.423103 100.604 -24.0428
0.426169 100.589 -24.1397
0.429257 100.574 -24.2393
0.432367 100.558 -24.3417
0.435501 100.543 -24.4467
0.438656 100.527 -24.5545
0.441835 100.512 -24.6651
0.445037 100.496 -24.7785
0.448262 100.480 -24.8947
0.451510 100.464 -25.0137
0.454782 100.448 -25.1356
0.458077 100.432 -25.2603
0.461397 100.416 -25.3879
0.464740 100.400 -25.5184
0.468108 100.383 -25.6518
0.471500 100.366 -25.7882
0.474917 100.350 -25.9275
0.478358 100.333 -26.0697
0.481825 100.316 -26.2149
0.485316 100.299 -26.3630
0.488833 100.281 -26.5141
0.492375 100.264 -26.6682
0.495943 100.247 -26.8253
0.499537 100.229 -26.9853
0.503157 100.211 -27.1484
0.506803 100.193 -27.3144
0.510475 100.175 -27.4834
0.514174 100.157 -27.6554
0.517900 100.139 -27.8303
0.521653 100.120 -28.0082
0.525433 100.102 -28.1891
0.529241 100.083 -28.3729
0.533076 100.064 -28.5596
0.536939 100.046 -28.7492
0.540830 100.026 -28.9417
0.544749 100.007 -29.1370
0.548696 99.988 -29.3352
0.552673 99.968 -29.5362
0.556677 99.949 -29.7399
0.560711 99.929 -29.9463
0.564774 99.909 -30.1554
0.568867 99.889 -30.3672
0.572989 99.869 -30.5815
0.577141 99.848 -30.7984
0.581324 99.828 -31.0178
0.585536 99.807 -31.2395
0.589779 99.786 -31.4636
0.594053 99.765 -31.6900
0.598358 99.744 -31.9185
0.602694 99.723 -32.1492
0.607061 99.702 -32.3818
0.611460 99.680 -32.6164
0.615891 99.658 -32.8528
0.620354 99.637 -33.0909
0.624849 99.614 -33.3306
0.629377 99.592 -33.5718
0.633938 99.570 -33.8143
0.638532 99.547 -34.0581
0.643159 99.525 -34.3029
0.647819 99.502 -34.5486
0.652514 99.479 -34.7950
0.657242 99.456 -35.0420
0.662005 99.432 -35.2895
0.666802 99.409 -35.5371
0.671634 99.385 -35.7847
0.676501 99.361 -36.0322
0.681403 99.337 -36.2792
0.686341 99.313 -36.5256
0.691314 99.288 -36.7711
0.696324 99.264 -37.0156
0.701369 99.239 -37.2587
0.706452 99.214 -37.5004
0.711571 99.188 -37.7404
0.716727 99.161 -37.9789
0.721921 99.134 -38.2160
0.727153 99.104 -38.4521
0.732422 99.074 -38.6879
0.737729 99.041 -38.9245
0.743075 99.006 -39.1627
0.748460 98.969 -39.4035
0.753883 98.931 -39.6476
0.759346 98.892 -39.8954
0.764849 98.853 -40.1472
0.770391 98.812 -40.4032
0.775974 98.771 -40.6635
0.781597 98.729 -40.9283
0.787261 98.687 -41.1975
0.792965 98.644 -41.4713
0.798712 98.601 -41.7495
0.804499 98.556 -42.0323
0.810329 98.512 -42.3196
0.816201 98.466 -42.6115
0.822116 98.420 -42.9079
0.828073 98.373 -43.2089
0.834073 98.326 -43.5143
0.840118 98.277 -43.8242
0.846205 98.228 -44.1386
0.852337 98.178 -44.4574
0.858514 98.128 -44.7805
0.864735 98.076 -45.1078
0.871001 98.024 -45.4394
0.877313 97.971 -45.7751
0.883670 97.917 -46.1148
0.890074 97.861 -46.4584
0.896523 97.805 -46.8057
0.903020 97.748 -47.1567
0.909564 97.690 -47.5110
0.916155 97.631 -47.8686
0.922793 97.571 -48.2293
0.929480 97.510 -48.5928
0.936216 97.447 -48.9588
0.943000 97.383 -49.3271
0.949833 97.319 -49.6974
0.956716 97.252 -50.0693
0.963649 97.185 -50.4425
0.970632 97.116 -50.8166
0.977666 97.046 -51.1911
0.984750 96.975 -51.5656
0.991886 96.902 -51.9395
0.999074 96.827 -52.3123
1.006313 96.751 -52.6835
1.013605 96.674 -53.0524
1.020950 96.594 -53.4182
1.028349 96.514 -53.7803
1.035801 96.431 -54.1379
1.043306 96.347 -54.4900
1.050867 96.260 -54.8359
1.058482 96.172 -55.1746
1.066152 96.082 -55.5052
1.073878 95.990 -55.8267
1.081659 95.896 -56.1383
1.089498 95.799 -56.4393
1.097393 95.699 -56.7292
1.105345 95.597 -57.0077
1.113355 95.491 -57.2747
1.121422 95.382 -57.5302
1.129549 95.269 -57.7743
1.137734 95.153 -58.0068
1.145978 95.033 -58.2278
1.154283 94.910 -58.4371
1.162647 94.783 -58.6346
1.171072 94.652 -58.8200
1.179558 94.518 -58.9932
1.188106 94.382 -59.1539
1.196715 94.242 -59.3018
1.205387 94.099 -59.4366
1.214122 93.953 -59.5581
1.222920 93.805 -59.6658
1.231781 93.654 -59.7595
1.240708 93.501 -59.8386
1.249698 93.346 -59.9028
1.258754 93.189 -59.9517
1.267875 93.030 -59.9848
1.277063 92.870 -60.0015
1.286317 92.709 -60.0014
1.295638 92.546 -59.9839
1.305027 92.383 -59.9484
1.314484 92.220 -59.8943
1.324009 92.056 -59.8212
1.333603 91.892 -59.7282
1.343267 91.728 -59.6149
1.353001 91.565 -59.4807
1.362805 91.403 -59.3249
1.372681 91.242 -59.1470
1.382628 91.083 -58.9465
1.392647 90.926 -58.7227
1.402739 90.771 -58.4750
1.412904 90.618 -58.2028
1.423142 90.468 -57.9052
1.433455 90.322 -57.5805
1.443842 90.178 -57.2267
1.454305 90.036 -56.8400
1.464843 89.897 -56.4156
1.475458 89.759 -55.9469
1.486150 89.621 -55.4270
1.496919 89.482 -54.8492
1.507766 89.343 -54.2074
1.518692 89.203 -53.4967
1.529697 89.062 -52.7128
1.540782 88.920 -51.8522
1.551947 88.778 -50.9119
1.563193 88.635 -49.8895
1.574521 88.494 -48.7830
1.585931 88.353 -47.5911
1.597423 88.213 -46.3134
1.608998 88.076 -44.9502
1.620658 87.941 -43.5029
1.632402 87.809 -41.9740
1.644231 87.681 -40.3675
1.656146 87.558 -38.6887
1.668147 87.440 -36.9443
1.680235 87.328 -35.1428
1.692410 87.223 -33.2941
1.704674 87.125 -31.4095
1.717027 87.035 -29.5014
1.729469 86.955 -27.5830
1.742002 86.885 -25.6683
1.754625 86.827 -23.7711
1.767340 86.780 -21.9049
1.780147 86.747 -20.0819
1.793046 86.728 -18.3129
1.806040 86.725 -16.6062
1.819127 86.739 -14.9672
1.832309 86.771 -13.3988
1.845587 86.823 -11.9018
1.858961 86.894 -10.4765
1.872431 86.986 -9.1239
1.886000 87.098 -7.8458
1.899666 87.230 -6.6442
1.913432 87.379 -5.5212
1.927298 87.546 -4.4782
1.941264 87.728 -3.5160
1.955331 87.925 -2.6345
1.969500 88.134 -1.8329
1.983772 88.354 -1.1097
1.998147 88.583 -0.4632
2.012626 88.820 0.1091
2.027211 89.062 0.6097
2.041901 89.307 1.0412
2.056697 89.554 1.4064
2.071601 89.801 1.7078
2.086613 90.045 1.9480
2.101733 90.285 2.1292
2.116963 90.518 2.2536
2.132303 90.743 2.3227
2.147755 90.958 2.3378
2.163318 91.163 2.2995
2.178995 91.357 2.2081
2.194785 91.541 2.0630
2.210689 91.715 1.8641
2.226709 91.881 1.6114
2.242844 92.040 1.3061
2.259097 92.194 0.9503
2.275467 92.344 0.5471
2.291956 92.489 0.1002
2.308565 92.631 -0.3866
2.325294 92.769 -0.9093
2.342144 92.903 -1.4639
2.359116 93.034 -2.0468
2.376211 93.161 -2.6543
2.393430 93.285 -3.2832
2.410774 93.406 -3.9305
2.428243 93.524 -4.5933
2.445839 93.639 -5.2694
2.463562 93.750 -5.9567
2.481415 93.859 -6.6539
2.499396 93.964 -7.3606
2.517508 94.067 -8.0774
2.535750 94.166 -8.8063
2.554126 94.262 -9.5508
2.572634 94.354 -10.3158
2.591276 94.442 -11.1063
2.610054 94.526 -11.9263
2.628967 94.606 -12.7775
2.648018 94.681 -13.6598
2.667206 94.752 -14.5716
2.686534 94.818 -15.5099
2.706002 94.881 -16.4714
2.725610 94.939 -17.4519
2.745361 94.994 -18.4472
2.765255 95.046 -19.4532
2.785294 95.094 -20.4653
2.805477 95.139 -21.4796
2.825807 95.182 -22.4922
2.846284 95.222 -23.5000
2.866909 95.260 -24.5007
2.887684 95.295 -25.4937
2.908609 95.328 -26.4802
2.929686 95.358 -27.4637
2.950916 95.385 -28.4492
2.972299 95.410 -29.4422
2.993838 95.430 -30.4468
3.015532 95.448 -31.4652
3.037384 95.462 -32.4982
3.059394 95.472 -33.5445
3.081564 95.479 -34.6022
3.103894 95.484 -35.6683
3.126386 95.485 -36.7392
3.149041 95.484 -37.8110
3.171861 95.480 -38.8795
3.194845 95.474 -39.9408
3.217996 95.466 -40.9909
3.241315 95.456 -42.0271
3.264803 95.445 -43.0479
3.288461 95.431 -44.0537
3.312291 95.415 -45.0467
3.336293 95.396 -46.0305
3.360469 95.375 -47.0084
3.384820 95.350 -47.9826
3.409348 95.324 -48.9542
3.434054 95.294 -49.9229
3.458938 95.263 -50.8872
3.484003 95.230 -51.8448
3.509250 95.196 -52.7924
3.534679 95.161 -53.7262
3.560293 95.126 -54.6420
3.586092 95.091 -55.5354
3.612079 95.056 -56.4020
3.638253 95.021 -57.2382
3.664618 94.986 -58.0415
3.691173 94.951 -58.8106
3.717921 94.916 -59.5460
3.744862 94.881 -60.2489
3.771999 94.845 -60.9211
3.799332 94.810 -61.5647
3.826864 94.776 -62.1819
3.854595 94.743 -62.7744
3.882527 94.713 -63.3438
3.910661 94.685 -63.8912
3.938999 94.661 -64.4168
3.967543 94.642 -64.9201
3.996294 94.628 -65.3995
4.025252 94.619 -65.8522
4.054421 94.615 -66.2753
4.083801 94.617 -66.6665
4.113394 94.624 -67.0255
4.143201 94.635 -67.3542
4.173225 94.652 -67.6566
4.203466 94.675 -67.9380
4.233926 94.702 -68.2047
4.264606 94.736 -68.4630
4.295509 94.776 -68.7188
4.326636 94.822 -68.9766
4.357989 94.874 -69.2392
4.389569 94.935 -69.5071
4.421378 95.002 -69.7790
4.453417 95.077 -70.0530
4.485688 95.159 -70.3283
4.518193 95.249 -70.6064
4.550934 95.344 -70.8903
4.583912 95.445 -71.1846
4.617129 95.551 -71.4945
4.650587 95.660 -71.8254
4.684287 95.772 -72.1819
4.718231 95.887 -72.5675
4.752421 96.004 -72.9838
4.786859 96.124 -73.4307
4.821547 96.246 -73.9064
4.856485 96.371 -74.4084
4.891677 96.498 -74.9345
4.927125 96.626 -75.4827
4.962829 96.756 -76.0518
4.998791 96.885 -76.6410
5.035015 97.013 -77.2504
5.071500 97.139 -77.8803
5.108251 97.264 -78.5317
5.145267 97.386 -79.2052
5.182552 97.506 -79.9005
5.220107 97.623 -80.6163
5.257934 97.738 -81.3494
5.296035 97.850 -82.0958
5.334412 97.960 -82.8512
5.373067 98.067 -83.6115
5.412003 98.170 -84.3734
5.451221 98.269 -85.1351
5.490722 98.364 -85.8960
5.530510 98.456 -86.6569
5.570587 98.543 -87.4180
5.610953 98.626 -88.1784
5.651613 98.706 -88.9355
5.692567 98.781 -89.6856
5.733818 98.853 -90.4245
5.775367 98.922 -91.1479
5.817218 98.988 -91.8529
5.859372 99.050 -92.5378
5.901831 99.109 -93.2023
5.944598 99.165 -93.8468
5.987675 99.218 -94.4714
6.031065 99.268 -95.0753
6.074768 99.316 -95.6571
6.118788 99.363 -96.2146
6.163127 99.409 -96.7458
6.207788 99.454 -97.2490
6.252772 99.498 -97.7232
6.298082 99.542 -98.1687
6.343721 99.586 -98.5866
6.389690 99.630 -98.9788
6.435992 99.674 -99.3473
6.482630 99.720 -99.6941
6.529606 99.767 -100.0206
6.576922 99.816 -100.3281
6.624581 99.868 -100.6171
6.672585 99.921 -100.8889
6.720938 99.977 -101.1455
6.769640 100.036 -101.3901
6.818696 100.096 -101.6267
6.868107 100.159 -101.8591
6.917876 100.224 -102.0908
6.968006 100.292 -102.3242
7.018499 100.362 -102.5606
7.069358 100.434 -102.8013
7.120586 100.508 -103.0480
7.172184 100.583 -103.3028
7.224157 100.659 -103.5680
7.276506 100.735 -103.8459
7.329235 100.811 -104.1380
7.382345 100.888 -104.4449
7.435841 100.963 -104.7664
7.489724 101.038 -105.1020
7.543997 101.112 -105.4508
7.598664 101.185 -105.8119
7.653728 101.255 -106.1847
7.709189 101.323 -106.5688
7.765053 101.388 -106.9633
7.821322 101.451 -107.3670
7.877998 101.511 -107.7779
7.935086 101.568 -108.1936
7.992587 101.622 -108.6119
8.050504 101.674 -109.0308
8.108841 101.722 -109.4491
8.167601 101.768 -109.8658
8.226787 101.810 -110.2795
8.286402 101.850 -110.6888
8.346449 101.888 -111.0918
8.406931 101.924 -111.4873
8.467851 101.958 -111.8743
8.529212 101.991 -112.2526
8.591018 102.022 -112.6222
8.653272 102.052 -112.9835
8.715977 102.081 -113.3367
8.779137 102.110 -113.6822
8.842754 102.138 -114.0205
8.906833 102.166 -114.3524
8.971375 102.195 -114.6794
9.036386 102.223 -115.0030
9.101867 102.252 -115.3250
9.167823 102.281 -115.6467
9.234257 102.311 -115.9694
9.301172 102.341 -116.2942
9.368572 102.371 -116.6226
9.436460 102.402 -116.9557
9.504841 102.432 -117.2946
9.573717 102.463 -117.6403
9.643092 102.493 -117.9932
9.712970 102.523 -118.3532
9.783354 102.552 -118.7204
9.854248 102.580 -119.0945
9.925656 102.608 -119.4754
9.997581 102.635 -119.8624
10.070028 102.661 -120.2549
10.143000 102.686 -120.6519
10.216500 102.710 -121.0525
10.290533 102.733 -121.4558
10.365103 102.755 -121.8611
10.440212 102.777 -122.2679
10.515866 102.798 -122.6755
10.592069 102.819 -123.0834
10.668823 102.839 -123.4914
10.746134 102.860 -123.8994
10.824005 102.880 -124.3077
10.902440 102.901 -124.7168
10.981443 102.922 -125.1271
11.061020 102.944 -125.5393
11.141172 102.966 -125.9539
11.221906 102.989 -126.3718
11.303225 103.012 -126.7937
11.385133 103.036 -127.2203
11.467634 103.060 -127.6519
11.550734 103.085 -128.0889
11.634435 103.109 -128.5312
11.718742 103.134 -128.9787
11.803661 103.158 -129.4311
11.889195 103.182 -129.8876
11.975349 103.206 -130.3472
12.062128 103.229 -130.8088
12.149535 103.251 -131.2710
12.237576 103.273 -131.7327
12.326254 103.294 -132.1924
12.415575 103.315 -132.6487
12.505544 103.335 -133.1003
12.596164 103.355 -133.5462
12.687441 103.374 -133.9855
12.779379 103.394 -134.4175
12.871984 103.414 -134.8419
12.965260 103.434 -135.2586
13.059211 103.455 -135.6677
13.153843 103.476 -136.0697
13.249161 103.498 -136.4651
13.345170 103.521 -136.8546
13.441875 103.545 -137.2388
13.539280 103.569 -137.6184
13.637391 103.593 -137.9941
13.736214 103.619 -138.3662
13.835752 103.644 -138.7350
13.936011 103.670 -139.1005
14.036998 103.695 -139.4626
14.138716 103.721 -139.8209
14.241171 103.746 -140.1750
14.344368 103.772 -140.5243
14.448313 103.797 -140.8682
14.553011 103.821 -141.2064
14.658468 103.846 -141.5385
14.764689 103.871 -141.8644
14.871680 103.895 -142.1845
14.979446 103.920 -142.4992
15.087994 103.945 -142.8095
15.197328 103.971 -143.1164
15.307454 103.996 -143.4213
15.418378 104.022 -143.7258
15.530106 104.049 -144.0315
15.642643 104.075 -144.3400
15.755996 104.101 -144.6527
15.870171 104.127 -144.9708
15.985172 104.152 -145.2952
16.101007 104.176 -145.6262
16.217682 104.199 -145.9640
16.335201 104.221 -146.3081
16.453573 104.240 -146.6577
16.572803 104.258 -147.0115
16.692898 104.273 -147.3681
16.813862 104.286 -147.7256
16.935701 104.296 -148.0824
17.058424 104.305 -148.4364
17.182035 104.311 -148.7861
17.306543 104.316 -149.1297
17.431953 104.319 -149.4661
17.558273 104.321 -149.7945
17.685509 104.322 -150.1143
17.813665 104.322 -150.4257
17.942751 104.323 -150.7294
18.072771 104.324 -151.0266
18.203733 104.326 -151.3189
18.335646 104.329 -151.6085
18.468513 104.333 -151.8978
18.602345 104.339 -152.1895
18.737144 104.346 -152.4861
18.872921 104.354 -152.7901
19.009682 104.363 -153.1036
19.147434 104.373 -153.4280
19.286184 104.383 -153.7639
19.425940 104.394 -154.1112
19.566708 104.403 -154.4689
19.708496 104.412 -154.8352
19.851313 104.420 -155.2074
19.995163 104.427 -155.5825
20.140057 104.432 -155.9575
20.285999 104.437 -156.3292
20.433001 104.440 -156.6949
20.581066 104.444 -157.0527
20.730206 104.448 -157.4016
20.880424 104.452 -157.7416
21.031733 104.457 -158.0737
21.184137 104.464 -158.3996
21.337646 104.472 -158.7217
21.492268 104.482 -159.0425
21.648010 104.493 -159.3641
21.804880 104.504 -159.6883
21.962887 104.516 -160.0159
22.122040 104.528 -160.3466
22.282345 104.539 -160.6795
22.443811 104.549 -161.0123
22.606449 104.557 -161.3428
22.770266 104.564 -161.6682
22.935268 104.570 -161.9863
23.101467 104.575 -162.2953
23.268869 104.580 -162.5943
23.437485 104.583 -162.8835
23.607323 104.587 -163.1637
23.778391 104.591 -163.4368
23.950699 104.594 -163.7047
24.124256 104.598 -163.9698
24.299070 104.602 -164.2339
24.475151 104.605 -164.4983
24.652508 104.607 -164.7638
24.831150 104.609 -165.0304
25.011087 104.610 -165.2977
25.192327 104.609 -165.5650
25.374882 104.608 -165.8318
25.558758 104.605 -166.0976
25.743967 104.603 -166.3628
25.930519 104.599 -166.6283
26.118422 104.596 -166.8953
26.307686 104.593 -167.1659
26.498322 104.590 -167.4417
26.690340 104.586 -167.7246
26.883749 104.583 -168.0154
27.078560 104.579 -168.3146
27.274782 104.573 -168.6212
27.472427 104.567 -168.9336
27.671503 104.560 -169.2493
27.872023 104.552 -169.5656
28.073996 104.543 -169.8797
28.277431 104.534 -170.1895
28.482342 104.524 -170.4940
28.688736 104.515 -170.7930
28.896626 104.508 -171.0880
29.106022 104.501 -171.3810
29.316936 104.496 -171.6742
29.529379 104.491 -171.9699
29.743361 104.487 -172.2691
29.958893 104.484 -172.5715
30.175987 104.479 -172.8753
30.394655 104.474 -173.1776
30.614908 104.468 -173.4746
30.836756 104.461 -173.7628
31.060211 104.453 -174.0399
31.285286 104.446 -174.3047
31.511992 104.439 -174.5584
31.740341 104.433 -174.8034
31.970345 104.428 -175.0436
32.202015 104.424 -175.2831
32.435364 104.421 -175.5254
32.670403 104.418 -175.7727
32.907146 104.414 -176.0258
33.145607 104.408 -176.2835
33.385796 104.402 -176.5438
33.627724 104.393 -176.8036
33.871403 104.384 -177.0603
34.116848 104.373 -177.3123
34.364071 104.362 -177.5589
34.613087 104.350 -177.8012
34.863907 104.340 -178.0416
35.116547 104.330 -178.2831
35.371017 104.320 -178.5291
35.627331 104.312 -178.7824
35.885502 104.303 -179.0446
36.145542 104.295 -179.3159
36.407467 104.285 -179.5949
36.671291 104.275 -179.8793
36.937027 104.263 179.8340
37.204689 104.251 179.5487
37.474289 104.237 179.2681
37.745842 104.222 178.9953
38.019363 104.206 178.7332
38.294868 104.190 178.4839
38.572369 104.173 178.2489
38.851879 104.158 178.0281
39.133415 104.143 177.8198
39.416992 104.129 177.6199
39.702625 104.117 177.4235
39.990326 104.105 177.2255
40.280113 104.094 177.0228
40.571999 104.081 176.8154
40.866001 104.066 176.6067
41.162132 104.049 176.4025
41.460411 104.031 176.2081
41.760849 104.011 176.0258
42.063465 103.993 175.8525
42.368275 103.976 175.6797
42.675293 103.961 175.4956
42.984535 103.948 175.2895
43.296021 103.934 175.0555
43.609760 103.917 174.7952
43.925774 103.897 174.5183
44.244080 103.872 174.2392
44.564690 103.843 173.9727
44.887623 103.813 173.7294
45.212898 103.784 173.5121
45.540531 103.758 173.3161
45.870537 103.736 173.1302
46.202934 103.719 172.9415
46.537739 103.706 172.7394
46.874969 103.694 172.5190
47.214645 103.683 172.2823
47.556782 103.669 172.0372
47.901398 103.653 171.7947
48.248512 103.635 171.5653
48.598141 103.616 171.3563
48.950302 103.596 171.1697
49.305016 103.577 171.0026
49.662300 103.559 170.8489
50.022175 103.542 170.7020
50.384655 103.526 170.5567
50.749763 103.510 170.4109
51.117516 103.493 170.2642
51.487934 103.476 170.1172
51.861038 103.459 169.9702
52.236843 103.443 169.8221
52.615372 103.427 169.6702
52.996643 103.412 169.5114
53.380680 103.398 169.3428
53.767498 103.384 169.1640
54.157120 103.370 168.9783
54.549564 103.355 168.7929
54.944855 103.340 168.6167
55.343006 103.324 168.4566
55.744045 103.311 168.3135
56.147991 103.299 168.1826
56.554863 103.290 168.0560
56.964684 103.282 167.9277
57.377472 103.275 167.7943
57.793251 103.266 167.6530
58.212044 103.257 167.4979
58.633873 103.246 167.3193
59.058758 103.230 167.1097
59.486721 103.206 166.8704
59.917786 103.173 166.6160
60.351974 103.130 166.3693
60.789310 103.079 166.1506
61.229816 103.026 165.9674
61.673512 102.974 165.8104
62.120422 102.927 165.6596
62.570572 102.885 165.4960
63.023983 102.847 165.3108
63.480682 102.814 165.1062
63.940689 102.785 164.8876
64.404030 102.761 164.6542
64.870728 102.743 164.3979
65.340805 102.729 164.1080
65.814293 102.715 163.7781
66.291214 102.699 163.4065
66.771591 102.675 162.9973
67.255447 102.637 162.5676
67.742805 102.581 162.1573
68.233696 102.507 161.8282
68.728142 102.420 161.6408
69.226173 102.334 161.6206
69.727814 102.264 161.7394
70.233093 102.220 161.9278
70.742035 102.207 162.1066
71.254662 102.227 162.2076
71.771004 102.278 162.1697
72.291084 102.354 161.9275
72.814934 102.442 161.4241
73.342583 102.519 160.6529
73.874054 102.560 159.6998
74.409378 102.550 158.7459
74.948578 102.488 158.0100
75.491684 102.393 157.6553
76.038727 102.295 157.7147
76.589737 102.215 158.0908
77.144737 102.159 158.6311
77.703758 102.124 159.2079
78.266830 102.100 159.7456
78.833984 102.080 160.2064
79.405251 102.060 160.5739
79.980652 102.038 160.8427
80.560226 102.016 161.0095
81.143997 101.996 161.0644
81.732002 101.981 160.9953
82.324265 101.970 160.8008
82.920822 101.960 160.5002
83.521698 101.949 160.1310
84.126930 101.936 159.7335
84.736549 101.920 159.3380
85.350586 101.898 158.9674
85.969070 101.866 158.6504
86.592041 101.824 158.4227
87.219521 101.772 158.3115
87.851547 101.715 158.3231
88.488159 101.659 158.4473
89.129379 101.609 158.6661
89.775246 101.572 158.9491
90.425797 101.553 159.2390
91.081062 101.551 159.4497
91.741074 101.556 159.5046
92.405869 101.550 159.3975
93.075478 101.520 159.2068
93.749939 101.465 159.0317
94.429291 101.397 158.9109
95.113564 101.325 158.8070
95.802795 101.255 158.6522
96.497025 101.190 158.3951
97.196281 101.128 158.0231
97.900604 101.070 157.5671
98.610031 101.018 157.0927
99.324600 100.974 156.6760
100.044350 100.941 156.3869
100.769310 100.918 156.2787
101.499527 100.902 156.3697
102.235031 100.890 156.6234
102.975868 100.875 156.9591
103.722076 100.847 157.2882
104.473686 100.805 157.5330
105.230743 100.749 157.6255
105.993286 100.690 157.5190
106.761360 100.640 157.2059
107.534996 100.612 156.7165
108.314240 100.614 156.1095
109.099129 100.639 155.4682
109.889709 100.669 154.9015
110.686012 100.681 154.5339
111.488091 100.660 154.4429
112.295982 100.609 154.5622
113.109726 100.536 154.6551
113.929367 100.462 154.3792
114.754944 100.418 153.3569
115.586502 100.437 151.2525
116.424088 100.539 147.9217
117.267746 100.704 143.5908
118.117516 100.875 138.9433
118.973442 100.971 135.0819
119.835571 100.942 133.2827
120.703949 100.808 134.3326
121.578621 100.637 137.7644
122.459633 100.476 142.1239
123.347023 100.327 146.1754
124.240845 100.177 149.3822
125.141144 100.029 151.5636
126.047966 99.920 152.6028
126.961365 99.905 152.4994
127.881378 100.042 151.6151
128.808060 100.365 150.7948
129.741455 100.881 151.1262
130.681610 101.559 153.2775
131.628586 102.316 156.8904
132.582428 103.029 160.6831
133.543182 103.568 163.2435
134.510895 103.825 164.0276
135.485611 103.743 163.5472
136.467392 103.344 162.6571
137.456284 102.709 161.9482
138.452347 101.963 161.4906
139.455627 101.254 160.7895
140.466187 100.690 159.2777
141.484070 100.295 157.0138
142.509323 100.019 154.6835
143.542007 99.792 153.0981
144.582169 99.564 152.8156
145.629868 99.329 153.9690
146.685165 99.108 156.2372
147.748108 98.935 158.8682
148.818756 98.827 160.9254
149.897156 98.776 161.8476
150.983368 98.766 161.6454
152.077454 98.777 160.6689
153.179474 98.795 159.3674
154.289474 98.809 158.1581
155.407516 98.819 157.3380
156.533661 98.840 156.9721
157.667969 98.879 156.9237
158.810501 98.931 157.0515
159.961304 98.991 157.3157
161.120453 99.059 157.7249
162.287994 99.139 158.2307
163.464005 99.226 158.7124
164.648529 99.302 159.0551
165.841644 99.347 159.2033
167.043396 99.346 159.1829
168.253860 99.295 159.0759
169.473099 99.209 158.9572
170.701172 99.110 158.8716
171.938141 99.018 158.8453
173.184082 98.950 158.8947
174.439041 98.913 159.0195
175.703094 98.906 159.1967
176.976318 98.920 159.3746
178.258759 98.943 159.4787
179.550491 98.963 159.4446
180.851593 98.971 159.2477
182.162125 98.962 158.9116
183.482147 98.931 158.5027
184.811737 98.881 158.1189
186.150955 98.817 157.8472
187.499878 98.746 157.7241
188.858582 98.673 157.7532
190.227127 98.605 157.9208
191.605591 98.549 158.1882
192.994049 98.507 158.5055
194.392563 98.475 158.8399
195.801208 98.447 159.1697
197.220062 98.415 159.4715
198.649200 98.377 159.7259
200.088699 98.336 159.9324
201.538620 98.300 160.1168
202.999054 98.278 160.3024
204.470062 98.274 160.4760
205.951736 98.279 160.6244
207.444153 98.286 160.7786
208.947372 98.292 161.0044
210.461487 98.300 161.3608
211.986572 98.308 161.8903
213.522720 98.298 162.6099
215.069992 98.246 163.4997
216.628479 98.133 164.5219
218.198257 97.969 165.6039
219.779419 97.799 166.5535
221.372025 97.687 167.0585
222.976181 97.664 166.9503
224.591965 97.717 166.4236
226.219452 97.808 165.8259
227.858734 97.901 165.3373
229.509888 97.975 164.9174
231.173004 98.024 164.4670
232.848175 98.052 163.9542
234.535492 98.066 163.4272
236.235031 98.066 162.9713
237.946884 98.051 162.6630
239.671143 98.025 162.5408
241.407898 97.998 162.5844
243.157242 97.976 162.7387
244.919266 97.956 162.9464
246.694046 97.936 163.1564
248.481689 97.910 163.3318
250.282288 97.879 163.4677
252.095932 97.845 163.5859
253.922729 97.812 163.7078
255.762756 97.781 163.8373
257.616119 97.754 163.9632
259.482910 97.732 164.0721
261.363220 97.713 164.1614
263.257172 97.697 164.2417
265.164856 97.682 164.3257
267.086365 97.667 164.4211
269.021790 97.650 164.5308
270.971222 97.633 164.6575
272.934784 97.614 164.8006
274.912567 97.595 164.9515
276.904694 97.574 165.0972
278.911255 97.552 165.2309
280.932373 97.528 165.3543
282.968140 97.503 165.4700
285.018646 97.476 165.5745
287.084015 97.447 165.6606
289.164337 97.416 165.7278
291.259735 97.387 165.7901
293.370331 97.367 165.8646
295.496216 97.361 165.9518
297.637512 97.367 166.0453
299.794312 97.378 166.1458
301.966736 97.390 166.2552
304.154907 97.397 166.3726
306.358948 97.397 166.4954
308.578949 97.389 166.6210
310.815033 97.375 166.7440
313.067322 97.357 166.8605
315.335938 97.335 166.9709
317.621002 97.312 167.0797
319.922607 97.288 167.1926
322.240906 97.265 167.3143
324.575989 97.244 167.4413
326.928009 97.226 167.5633
329.297058 97.211 167.6703
331.683289 97.199 167.7584
334.086792 97.191 167.8318
336.507721 97.186 167.9029
338.946198 97.182 167.9903
341.402344 97.175 168.1101
343.876282 97.163 168.2620
346.368164 97.144 168.4272
348.878082 97.121 168.5889
351.406189 97.096 168.7438
353.952637 97.071 168.8958
356.517517 97.047 169.0479
359.100983 97.024 169.2017
361.703186 97.003 169.3603
364.324249 96.982 169.5255
366.964294 96.962 169.6953
369.623474 96.945 169.8672
372.301910 96.932 170.0411
374.999756 96.921 170.2125
377.717163 96.912 170.3696
380.454254 96.904 170.5034
383.211182 96.895 170.6179
385.988098 96.883 170.7255
388.785126 96.867 170.8366
391.602417 96.850 170.9564
394.440125 96.832 171.0870
397.298401 96.815 171.2285
400.177399 96.800 171.3796
403.077240 96.788 171.5375
405.998108 96.777 171.6988
408.940125 96.767 171.8605
411.903473 96.757 172.0208
414.888306 96.746 172.1795
417.894745 96.733 172.3384
420.922974 96.720 172.5005
423.973145 96.708 172.6687
427.045441 96.698 172.8440
430.139984 96.691 173.0240
433.256958 96.687 173.2041
436.396515 96.684 173.3831
439.558838 96.681 173.5629
442.744049 96.678 173.7430
445.952362 96.676 173.9184
449.183929 96.674 174.0818
452.438904 96.673 174.2251
455.717468 96.671 174.3433
459.019775 96.665 174.4409
462.346008 96.656 174.5326
465.696350 96.644 174.6334
469.070984 96.631 174.7508
472.470062 96.619 174.8833
475.893768 96.606 175.0248
479.342285 96.595 175.1684
482.815796 96.585 175.3089
486.314484 96.574 175.4458
489.838531 96.562 175.5849
493.388092 96.548 175.7360
496.963379 96.535 175.9056
500.564575 96.522 176.0912
504.191864 96.510 176.2836
507.845459 96.500 176.4734
511.525513 96.490 176.6559
515.232239 96.482 176.8313
518.965820 96.473 177.0036
522.726440 96.464 177.1788
526.514343 96.455 177.3633
530.329712 96.446 177.5598
534.172729 96.438 177.7657
538.043579 96.430 177.9758
541.942444 96.423 178.1869
545.869568 96.416 178.3992
549.825134 96.410 178.6136
553.809387 96.405 178.8282
557.822510 96.401 179.0395
561.864746 96.397 179.2443
565.936279 96.394 179.4437
570.037292 96.390 179.6420
574.168030 96.385 179.8434
578.328674 96.380 -179.9503
582.519470 96.373 -179.7399
586.740662 96.366 -179.5253
590.992432 96.358 -179.3032
595.275024 96.350 -179.0705
599.588623 96.344 -178.8286
603.933472 96.340 -178.5820
608.309814 96.337 -178.3344
612.717896 96.334 -178.0869
617.157898 96.332 -177.8374
621.630066 96.329 -177.5809
626.134644 96.326 -177.3127
630.671875 96.324 -177.0320
635.242004 96.324 -176.7430
639.845215 96.325 -176.4507
644.481812 96.328 -176.1560
649.151978 96.333 -175.8575
653.856018 96.341 -175.5573
658.594116 96.353 -175.2623
663.366577 96.368 -174.9824
668.173584 96.385 -174.7250
673.015442 96.401 -174.4892
677.892395 96.415 -174.2660
682.804688 96.426 -174.0446
687.752563 96.436 -173.8168
692.736328 96.445 -173.5782
697.756165 96.453 -173.3269
702.812378 96.462 -173.0638
707.905273 96.472 -172.7926
713.035034 96.483 -172.5174
718.201965 96.496 -172.2400
723.406372 96.510 -171.9599
728.648499 96.525 -171.6759
733.928589 96.541 -171.3875
739.246948 96.559 -171.0954
744.603821 96.579 -170.8006
749.999512 96.600 -170.5035
755.434326 96.624 -170.2039
760.908508 96.649 -169.9027
766.422363 96.675 -169.6012
771.976196 96.704 -169.3014
777.570251 96.735 -169.0059
783.204834 96.767 -168.7172
788.880249 96.801 -168.4355
794.596802 96.837 -168.1585
800.354797 96.876 -167.8832
806.154480 96.918 -167.6102
811.996216 96.963 -167.3451
817.880249 97.012 -167.0972
823.806946 97.065 -166.8768
829.776611 97.119 -166.6930
835.789490 97.173 -166.5488
841.845947 97.226 -166.4385
847.946289 97.276 -166.3516
854.090881 97.323 -166.2799
860.279968 97.368 -166.2184
866.513916 97.411 -166.1627
872.793030 97.453 -166.1081
879.117676 97.493 -166.0531
885.488098 97.533 -166.0001
891.904724 97.572 -165.9520
898.367859 97.610 -165.9085
904.877808 97.647 -165.8666
911.434937 97.683 -165.8240
918.039551 97.719 -165.7813
924.692017 97.754 -165.7412
931.392700 97.789 -165.7067
938.141968 97.824 -165.6809
944.940125 97.858 -165.6643
951.787537 97.891 -165.6549
958.684570 97.922 -165.6489
965.631592 97.952 -165.6427
972.628967 97.982 -165.6331
979.677063 98.010 -165.6185
986.776184 98.039 -165.5988
993.926758 98.067 -165.5734
1001.129150 98.094 -165.5390
1008.383728 98.122 -165.4916
1015.690918 98.150 -165.4318
1023.051025 98.180 -165.3636
1030.464478 98.214 -165.2937
1037.931641 98.252 -165.2316
1045.452881 98.292 -165.1875
1053.028687 98.333 -165.1660
1060.659424 98.374 -165.1639
1068.345459 98.414 -165.1730
1076.087158 98.454 -165.1855
1083.884888 98.495 -165.1984
1091.739136 98.539 -165.2156
1099.650269 98.586 -165.2468
1107.618774 98.634 -165.3042
1115.645020 98.684 -165.3995
1123.729492 98.734 -165.5398
1131.872559 98.780 -165.7261
1140.074585 98.822 -165.9522
1148.336060 98.857 -166.2070
1156.657349 98.886 -166.4773
1165.038940 98.909 -166.7500
1173.481323 98.925 -167.0135
1181.984863 98.938 -167.2604
1190.550049 98.949 -167.4910
1199.177246 98.960 -167.7128
1207.866943 98.969 -167.9361
1216.619629 98.977 -168.1672
1225.435791 98.981 -168.4042
1234.315796 98.982 -168.6407
1243.260132 98.978 -168.8700
1252.269287 98.971 -169.0865
1261.343750 98.960 -169.2873
1270.484009 98.947 -169.4723
1279.690430 98.932 -169.6403
1288.963623 98.915 -169.7898
1298.303955 98.896 -169.9210
1307.712036 98.876 -170.0371
1317.188232 98.855 -170.1423
1326.733154 98.834 -170.2393
1336.347168 98.810 -170.3284
1346.030884 98.786 -170.4076
1355.784790 98.759 -170.4733
1365.609375 98.731 -170.5213
1375.505127 98.701 -170.5461
1385.472656 98.670 -170.5417
1395.512329 98.640 -170.5054
1405.624756 98.612 -170.4412
1415.810547 98.587 -170.3606
1426.070068 98.565 -170.2788
1436.403931 98.545 -170.2063
1446.812744 98.524 -170.1444
1457.296997 98.502 -170.0871
1467.857178 98.478 -170.0261
1478.493896 98.453 -169.9546
1489.207642 98.425 -169.8681
1499.999023 98.396 -169.7630
1510.868652 98.366 -169.6358
1521.817017 98.334 -169.4838
1532.844727 98.302 -169.3046
1543.952393 98.270 -169.0957
1555.140503 98.241 -168.8545
1566.409668 98.214 -168.5824
1577.760498 98.193 -168.2870
1589.193604 98.176 -167.9806
1600.709595 98.162 -167.6730
1612.308960 98.151 -167.3668
1623.992432 98.141 -167.0588
1635.760498 98.133 -166.7439
1647.613892 98.127 -166.4188
1659.553223 98.124 -166.0836
1671.578979 98.123 -165.7421
1683.691895 98.126 -165.4019
1695.892578 98.132 -165.0725
1708.181763 98.140 -164.7602
1720.559937 98.149 -164.4655
1733.027832 98.157 -164.1819
1745.586060 98.163 -163.8986
1758.235352 98.166 -163.6021
1770.976196 98.169 -163.2814
1783.809448 98.174 -162.9334
1796.735718 98.182 -162.5656
1809.755615 98.194 -162.1919
1822.869873 98.210 -161.8234
1836.079102 98.229 -161.4638
1849.384033 98.250 -161.1118
1862.785400 98.272 -160.7650
1876.283936 98.295 -160.4205
1889.880249 98.318 -160.0743
1903.575073 98.343 -159.7214
1917.369141 98.369 -159.3564
1931.263184 98.398 -158.9751
1945.257935 98.431 -158.5788
1959.354126 98.469 -158.1777
1973.552368 98.513 -157.7876
1987.853516 98.560 -157.4211
2002.258301 98.610 -157.0829
2016.767456 98.662 -156.7712
2031.381836 98.713 -156.4808
2046.102051 98.765 -156.2062
2060.928955 98.816 -155.9434
2075.863281 98.867 -155.6910
2090.905762 98.918 -155.4491
2106.057373 98.968 -155.2152
2121.318848 99.018 -154.9828
2136.690918 99.068 -154.7423
2152.174316 99.118 -154.4843
2167.769775 99.170 -154.2068
2183.478271 99.227 -153.9179
2199.300537 99.289 -153.6320
2215.237549 99.355 -153.3610
2231.290039 99.425 -153.1116
2247.458984 99.497 -152.8863
2263.745117 99.570 -152.6842
2280.149170 99.644 -152.5022
2296.672119 99.719 -152.3356
2313.314697 99.795 -152.1804
2330.077881 99.873 -152.0365
2346.962646 99.954 -151.9111
2363.969727 100.039 -151.8150
2381.100098 100.125 -151.7557
2398.354492 100.211 -151.7348
2415.733887 100.296 -151.7491
2433.239258 100.379 -151.7934
2450.871582 100.460 -151.8636
2468.631592 100.538 -151.9570
2486.520264 100.613 -152.0709
2504.538574 100.684 -152.1990
2522.687500 100.751 -152.3314
2540.968018 100.816 -152.4576
2559.380859 100.880 -152.5740
2577.927246 100.945 -152.6871
2596.607910 101.011 -152.8075
2615.424072 101.077 -152.9435
2634.376465 101.143 -153.0986
2653.466309 101.207 -153.2701
2672.694336 101.268 -153.4512
2692.061768 101.328 -153.6334
2711.569580 101.388 -153.8119
2731.218750 101.448 -153.9904
2751.010254 101.511 -154.1797
2770.945312 101.576 -154.3919
2791.024658 101.641 -154.6355
2811.249512 101.705 -154.9139
2831.621094 101.767 -155.2270
2852.140137 101.826 -155.5726
2872.807861 101.880 -155.9457
2893.625488 101.929 -156.3379
2914.593994 101.971 -156.7372
2935.714355 102.009 -157.1334
2956.987793 102.044 -157.5245
2978.415283 102.076 -157.9157
2999.998047 102.104 -158.3131
3021.737305 102.129 -158.7199
3043.634033 102.149 -159.1331
3065.689453 102.163 -159.5436
3087.904785 102.172 -159.9391
3110.281006 102.176 -160.3112
3132.819336 102.177 -160.6590
3155.520996 102.176 -160.9861
3178.387207 102.174 -161.2961
3201.419189 102.171 -161.5902
3224.617920 102.166 -161.8680
3247.984863 102.158 -162.1289
3271.520996 102.149 -162.3709
3295.227783 102.139 -162.5882
3319.106445 102.128 -162.7742
3343.157959 102.120 -162.9294
3367.383789 102.115 -163.0640
3391.785156 102.114 -163.1934
3416.363525 102.117 -163.3315
3441.119873 102.120 -163.4852
3466.055664 102.121 -163.6527
3491.172119 102.121 -163.8265
3516.470703 102.118 -164.0001
3541.952393 102.113 -164.1700
3567.618896 102.106 -164.3347
3593.471436 102.098 -164.4923
3619.511230 102.089 -164.6412
3645.739746 102.077 -164.7792
3672.158203 102.064 -164.9003
3698.768066 102.048 -164.9945
3725.570801 102.032 -165.0533
3752.567871 102.017 -165.0752
3779.760498 102.004 -165.0644
3807.150146 101.995 -165.0262
3834.738281 101.988 -164.9614
3862.526367 101.986 -164.8658
3890.515869 101.989 -164.7367
3918.708252 101.999 -164.5786
3947.104736 102.019 -164.4039
3975.707031 102.050 -164.2298
4004.516602 102.092 -164.0764
4033.534912 102.146 -163.9642
4062.763672 102.208 -163.9088
4092.204102 102.278 -163.9189
4121.857910 102.354 -164.0024
4151.726562 102.435 -164.1700
4181.811523 102.518 -164.4340
4212.114746 102.601 -164.8013
4242.637695 102.679 -165.2691
4273.381836 102.751 -165.8272
4304.348633 102.814 -166.4658
4335.539551 102.868 -167.1784
4366.956543 102.911 -167.9609
4398.601074 102.942 -168.8102
4430.475098 102.958 -169.7201
4462.580078 102.956 -170.6762
4494.917969 102.935 -171.6574
4527.490234 102.893 -172.6407
4560.298340 102.832 -173.6052
4593.344238 102.750 -174.5304
4626.629395 102.649 -175.3915
4660.155762 102.529 -176.1598
4693.925293 102.393 -176.8086
4727.939453 102.245 -177.3186
4762.200195 102.092 -177.6808
4796.708984 101.938 -177.8996
4831.467773 101.788 -177.9895
4866.478516 101.646 -177.9715
4901.743164 101.514 -177.8727
4937.263184 101.393 -177.7267
4973.040527 101.281 -177.5657
5009.077148 101.173 -177.4049
5045.375000 101.064 -177.2356
5081.936035 100.952 -177.0325
5118.761719 100.837 -176.7665
5155.854492 100.719 -176.4161
5193.215820 100.604 -175.9722
5230.848145 100.494 -175.4360
5268.752930 100.392 -174.8121
5306.932617 100.300 -174.1087
5345.388672 100.221 -173.3382
5384.123535 100.154 -172.5149
5423.139160 100.101 -171.6471
5462.437500 100.061 -170.7361
5502.020508 100.037 -169.7814
5541.890625 100.030 -168.7873
5582.049316 100.043 -167.7675
5622.499023 100.078 -166.7434
5663.242188 100.136 -165.7397
5704.280273 100.217 -164.7838
5745.615723 100.321 -163.9065
5787.250977 100.445 -163.1389
5829.187988 100.588 -162.5055
5871.428711 100.745 -162.0234
5913.975586 100.914 -161.7052
5956.830566 101.091 -161.5645
5999.996094 101.272 -161.6158
6043.474609 101.452 -161.8703
6087.268066 101.625 -162.3316
6131.378906 101.785 -162.9955
6175.809570 101.926 -163.8483
6220.562012 102.040 -164.8631
6265.638672 102.124 -165.9999
6311.041992 102.173 -167.2087
6356.774414 102.187 -168.4374
6402.838379 102.167 -169.6356
6449.235840 102.115 -170.7573
6495.969727 102.036 -171.7631
6543.041992 101.935 -172.6233
6590.455566 101.817 -173.3165
6638.212891 101.689 -173.8266
6686.315918 101.554 -174.1417
6734.767578 101.421 -174.2562
6783.570312 101.296 -174.1738
6832.727051 101.184 -173.9071
6882.239746 101.094 -173.4774
6932.111328 101.029 -172.9146
6982.344238 100.994 -172.2540
7032.941406 100.991 -171.5315
7083.904785 101.024 -170.7807
7135.237793 101.094 -170.0350
7186.942871 101.205 -169.3315
7239.022461 101.358 -168.7143
7291.479492 101.556 -168.2377
7344.316406 101.797 -167.9672
7397.536133 102.081 -167.9748
7451.141602 102.401 -168.3329
7505.135742 102.748 -169.1108
7559.520996 103.111 -170.3709
7614.300293 103.473 -172.1599
7669.476562 103.817 -174.4980
7725.052734 104.124 -177.3700
7781.031738 104.379 179.2736
7837.416504 104.569 175.4942
7894.209473 104.684 171.3507
7951.414062 104.711 166.9130
8009.033203 104.637 162.2831
8067.069824 104.454 157.5925
8125.527344 104.159 152.9848
8184.408203 103.756 148.5979
8243.715820 103.254 144.5546
8303.453125 102.665 140.9556
8363.623047 102.005 137.8751
8424.229492 101.291 135.3597
8485.275391 100.539 133.4277
8546.763672 99.767 132.0679
8608.697266 98.990 131.2454
8671.079102 98.220 130.9108
8733.913086 97.467 131.0113
8797.202148 96.737 131.4973
8860.950195 96.033 132.3250
8925.160156 95.360 133.4529
8989.835938 94.718 134.8380
9054.980469 94.111 136.4371
9120.596680 93.535 138.2128
9186.688477 92.991 140.1371
9253.258789 92.477 142.1937
9320.311523 91.991 144.3708
9387.850586 91.533 146.6528
9455.878906 91.103 149.0190
9524.400391 90.698 151.4495
9593.417969 90.318 153.9327
9662.935547 89.959 156.4678
9732.957031 89.621 159.0583
9803.486328 89.302 161.7059
9874.526367 89.001 164.4086
9946.081055 88.718 167.1653
10018.154297 88.452 169.9826
10090.750000 88.201 172.8778
10163.872070 87.968 175.8724
10237.523438 87.755 178.9833
10311.708984 87.568 -177.7825
10386.431641 87.409 -174.4290
10461.696289 87.286 -170.9683
10537.505859 87.201 -167.4248
10613.865234 87.160 -163.8410
10690.777344 87.166 -160.2763
10768.247070 87.217 -156.7951
10846.278320 87.310 -153.4485
10924.875000 87.439 -150.2673
11004.041016 87.599 -147.2673
11083.781250 87.784 -144.4562
11164.098633 87.991 -141.8332
11244.998047 88.214 -139.3858
11326.484375 88.453 -137.0932
11408.560547 88.706 -134.9390
11491.231445 88.975 -132.9205
11574.501953 89.258 -131.0468
11658.375977 89.554 -129.3263
11742.857422 89.864 -127.7603
11827.951172 90.186 -126.3464
11913.661133 90.519 -125.0857
11999.992188 90.865 -123.9820
12086.949219 91.221 -123.0372
12174.536133 91.587 -122.2498
12262.757812 91.964 -121.6196
12351.619141 92.353 -121.1529
12441.124023 92.753 -120.8611
12531.277344 93.164 -120.7563
12622.083984 93.586 -120.8502
12713.548828 94.017 -121.1571
12805.676758 94.458 -121.6959
12898.471680 94.906 -122.4854
12991.939453 95.359 -123.5402
13086.083984 95.813 -124.8702
13180.911133 96.265 -126.4845
13276.425781 96.711 -128.3891
13372.631836 97.149 -130.5843
13469.535156 97.576 -133.0662
13567.140625 97.993 -135.8333
13665.454102 98.398 -138.8930
13764.479492 98.792 -142.2610
13864.222656 99.175 -145.9614
13964.688477 99.541 -150.0280
14065.882812 99.886 -154.5025
14167.809570 100.197 -159.4229
14270.475586 100.458 -164.8107
14373.885742 100.651 -170.6597
14478.044922 100.752 -176.9290
14582.958984 100.741 176.4659
14688.632812 100.600 169.6556
14795.072266 100.316 162.8071
14902.283203 99.883 156.1063
15010.271484 99.305 149.7404
15119.041992 98.592 143.8823
15228.600586 97.757 138.6829
15338.953125 96.820 134.2745
15450.105469 95.800 130.7878
15562.063477 94.721 128.3713
15674.833008 93.618 127.1874
15788.418945 92.542 127.3376
15902.828125 91.564 128.6781
16018.066406 90.754 130.6324
16134.139648 90.122 132.3711
16251.054688 89.605 133.4416
16368.816406 89.122 134.0921
16487.431641 88.650 134.8270
16606.906250 88.222 135.7716
16727.246094 87.866 136.4941
16848.458984 87.548 136.4943
16970.550781 87.195 135.7601
17093.527344 86.753 134.7086
17217.394531 86.210 133.8361
17342.158203 85.587 133.5085
17467.826172 84.923 133.9084
17594.404297 84.263 135.0524
17721.900391 83.647 136.8302
17850.320312 83.106 139.0472
17979.671875 82.655 141.4771
18109.960938 82.300 143.9086
18241.193359 82.034 146.1743
18373.376953 81.846 148.1553
18506.517578 81.722 149.7712
18640.623047 81.649 150.9579
18775.701172 81.609 151.6513
18911.757812 81.582 151.7959
19048.800781 81.540 151.3717
19186.835938 81.455 150.4270
19325.871094 81.307 149.0917
19465.914062 81.088 147.5596
19606.972656 80.812 146.0504
19749.052734 80.519 144.7660
19892.162109 80.267 143.8539
20036.308594 80.121 143.3891
